#   1 NUMBER                 Running object number                                     
#   2 X_IMAGE                Object position along x                                    [pixel]
#   3 Y_IMAGE                Object position along y                                    [pixel]
#   4 ALPHA_J2000            Right ascension of barycenter (J2000)                      [deg]
#   5 DELTA_J2000            Declination of barycenter (J2000)                          [deg]
#   6 FLUX_APER              Flux vector within fixed circular aperture(s)              [count]
#   9 FLUXERR_APER           RMS error vector for aperture flux(es)                     [count]
#  12 FLUX_RADIUS            Fraction-of-light radii                                    [pixel]
#  13 FWHM_IMAGE             FWHM assuming a gaussian core                              [pixel]
#  14 BACKGROUND             Background at centroid position                            [count]
#  15 THRESHOLD              Detection threshold above background                       [count]
#  16 FLUX_MAX               Peak flux above background                                 [count]
#  17 ISOAREA_IMAGE          Isophotal area above Analysis threshold                    [pixel**2]
#  18 A_IMAGE                Profile RMS along major axis                               [pixel]
#  19 B_IMAGE                Profile RMS along minor axis                               [pixel]
#  20 THETA_IMAGE            Position angle (CCW/x)                                     [deg]
#  21 FLAGS                  Extraction flags                                          
         1      2.5147     80.7168 307.9325264  +6.6319268     3588.623     8912.026     15982.22      77.3945     139.2854     251.4326      5.152    12.62      836.144      54.5953     564.5953       116     5.243     1.633  89.43  24
         2    614.1842     23.0871 307.6803192  +6.6761605     3287.888     5702.458     6761.192     77.27116     154.6657     309.6088      1.958     7.15     820.4729      54.5953      595.778        27     2.093     0.762  66.04   0
         3    433.0935     24.1739 307.7555266  +6.6696733     26220.52     35600.12     36628.07     77.76334     154.6657      309.578      1.423     3.35     823.5974      54.5953     4195.871        45     1.379     0.982  48.36   0
         4    931.5767     14.1849 307.5487340  +6.6903917     1069.948     1409.629     1422.992      77.3945     154.7274     309.6396      1.533     5.71     818.8237      54.5953     145.0995        14     1.475     0.742  63.48   0
         5    683.0406     13.6839 307.6520223  +6.6823357      2171.55     2893.675     2638.007     77.64059     154.8506     309.6704      1.384     3.47     820.2046      54.5953     342.1912        14     1.259     0.679  47.50   0
         6     87.8961     14.6904 307.8992698  +6.6620465     673.1407     902.9056     639.7161     77.64059      155.404      309.732      1.211     4.44     829.2666      54.5953     111.0399         6     0.963     0.583  62.32   0
         7    193.9983      9.6630 307.8553547  +6.6676741     751.1932     1111.777     857.2113      77.0239     154.7274     309.4856      1.468     5.08      829.051      54.5953     100.5913         9     1.285     0.567  60.44   0
         8    248.5877      8.7008 307.8327057  +6.6698973     932.7096     1398.156     1694.314      77.3945     154.6657     309.5164      1.641     5.02      828.541      54.5953     142.2919        10     1.138     0.626  48.64   0
         9    171.1485      6.6036 307.8649511  +6.6681725     11894.14     16584.64     17150.32      77.0239     154.6657     298.8872      1.485     3.45     828.9149      54.5953     1863.421        34     1.351     0.977  49.74  16
        10    916.6964      4.1904 307.5552497  +6.6940240     4543.334     6553.478     6798.378      77.3945     153.6758     273.8748      1.529     3.23     818.6551      54.5953     664.1545        25     1.327     0.936  49.89  24
        11    515.3874      4.7061 307.7219839  +6.6804563       3463.7     4688.044     4711.527      77.3945     154.6657     280.0734      1.399     3.31     819.8198      54.5953     593.6104        17     1.221     0.740  50.41  16
        12    717.6157      2.7040 307.6380220  +6.6880196     2387.865     3106.873     3336.942      77.3945     141.0547      253.999      1.413     3.62     819.5123      54.5953     361.4467        15     1.174     0.731  54.28  24
        13    453.5432      3.1914 307.7477313  +6.6790185     2065.441     2754.496     2885.278      77.0239     146.3643      260.817      1.389     3.19     821.9161      54.5953     320.5466        16     1.150     0.816  53.85  24
        14    981.7978      1.6203 307.5282837  +6.6972462     1183.009     1478.243     1316.161     70.83096     127.1121     237.4237      1.105     2.15     816.2062      54.5953     315.2618         9     0.883     0.693  55.72  24
        15    356.2508    998.7024 307.7548669  +6.2647632     1868.382     3069.019     3332.716     77.51765     154.8506     309.9167      1.752     4.59     852.8233      54.5953     245.9961        21     1.463     0.993  43.58   0
        16    786.1880   1020.9459 307.5756257  +6.2698983     5983.496     10478.39     11083.71      77.0239     153.1162     272.0928      1.843     4.21     849.1332      54.5953     717.3487        37     1.561     1.202  57.30  24
        17    566.1840   1012.4053 307.6672511  +6.2661050     4194.518     6811.403       8243.5     77.27116      154.604      309.578      1.825     3.79     852.7615      54.5953     520.5762        33     1.653     1.057  40.60   3
        18    575.0455   1023.2135 307.6632117  +6.2619378     122056.7     156363.7     159406.4     72.29705      129.491     240.1399      1.309     3.48     853.0513      54.5953     18566.53        45     1.405     0.884  12.43  27
        19    576.9816   1016.8211 307.6626210  +6.2646415     70876.33     114613.8     122910.9      77.3945     154.8506     308.8994      1.732     3.69     852.9402      54.5953     8797.828        95     1.746     1.307  47.17  19
        20    694.6689    994.9148 307.6144894  +6.2776029     554.2213     798.0422     772.7731     77.76334     155.1583     309.7628      1.376     3.85     851.3206      54.5953     133.8332         5     1.145     0.370  74.46   0
        21    538.3094    988.7223 307.6796138  +6.2749544      4105.19     6490.092     7072.742      77.3945     155.1583     309.7628      1.732     3.89     852.2972      54.5953      520.975        29     1.476     1.044  53.76   3
        22    535.4932    980.8334 307.6810462  +6.2781177      8466.39     12868.18     14416.97     77.76334      154.789     309.7936      1.705     3.66      852.188      54.5953      1043.16        41     1.520     1.191  46.06   2
        23    508.5298    989.7300 307.6919441  +6.2735461     1198.452     1828.828     1758.366     77.64059     155.0353     309.7012      1.575     3.75     851.9958      54.5953      156.468        15     1.156     0.855  55.82   0
        24    742.8448    987.9420 307.5947195  +6.2820839     7569.612     12098.34     12575.97     77.51765     154.9122     309.7936      1.677     3.77      850.059      54.5953     955.9027        36     1.520     1.083  48.17   0
        25    288.6338    987.3151 307.7833199  +6.2672071     15000.08     23170.29     25990.49     77.64059      154.789     309.7012      1.727     3.70     852.4628      54.5953     1960.169        55     1.679     1.406 -31.72   0
        26    804.1302    987.4044 307.5692921  +6.2843429     946.1869     1543.911     2069.542     77.14763     154.5423     309.5472      1.815     5.50     848.7224      54.5953     131.3327        14     1.256     0.957  86.90   0
        27    412.7629    988.1520 307.7317570  +6.2710047     1053.064     1723.356     1690.902      77.3945     154.9122     309.6396      1.738     4.75     851.7278      54.5953      170.155        14     1.174     0.864  68.73   0
        28    259.7620    984.8196 307.7953900  +6.2672730     1147.819     1494.894     925.3348     77.27116     154.7274     309.4239      1.491     4.06     851.7334      54.5953     158.3519        12     1.129     0.778  22.71   0
        29    904.1902    981.4435 307.5279457  +6.2901272      7787.47     13696.46     14513.35     77.14763     154.7274     309.4856      1.887     4.28     847.7015      54.5953     912.9493        44     1.697     1.219  53.38   0
        30    999.5307    976.9892 307.4885082  +6.2951297      3983.38     7835.279     8463.088     77.14763     154.7274     309.5472      2.046     4.95     843.9963      54.5953     445.1197        39     1.718     1.287  44.62   0
        31    877.8090    977.5510 307.5390286  +6.2908584     11066.02     19767.31      21882.1     77.14763     154.7274     309.4239      1.913     4.11     848.2706      54.5953     1261.405        55     1.654     1.394  45.54   0
        32    590.6110    978.1131 307.6582527  +6.2810766     1518.033     2349.599     2286.844     77.27116     154.6657      309.578      1.710     4.66     852.0189      54.5953     193.7842        17     1.404     0.790  59.99   0
        33    521.9419    976.7430 307.6868089  +6.2793549     4322.355     6647.991     7802.747     77.76334     154.9122     309.7628      1.755     3.73      852.035      54.5953      569.542        32     1.582     1.123  33.71   0
        34    631.5785    976.0583 307.6413120  +6.2832889     1413.647     2250.075     1903.791     77.27116      154.789     309.5472      1.667     4.29     851.6645      54.5953     178.1125        17     1.208     0.971  43.69   0
        35     56.3619    975.4573 307.8801475  +6.2643367     825.6099      1082.97     1069.304     77.64059     154.9738      309.732      1.767     5.45     848.2128      54.5953     92.21161        11     0.987     0.849  78.51   0
        36    475.0811    973.2123 307.7063826  +6.2792508      2371.13     3588.095     3837.464     77.27116      154.604      309.578      1.638     3.54     851.6626      54.5953     320.4321        22     1.296     0.983  47.99   0
        37    909.5171    965.1127 307.5262767  +6.2970466     39252.57     68006.12     72937.91      77.3945     155.0968     309.7936      1.869     4.13     847.2392      54.5953     4766.876        77     1.754     1.343  50.10   0
        38    314.6068    966.7011 307.7732258  +6.2765852     553.1411     701.0906     954.8828      77.3945     154.5423     309.5164      1.449     3.47     851.7722      54.5953     88.49091         5     0.753     0.463  74.68   0
        39    216.7718    963.5420 307.8139500  +6.2746212     1785.794     2815.272     3098.422     77.27116     154.9738     309.6396      1.738     3.97      849.944      54.5953     238.9079        19     1.355     0.890  36.19   0
        40    616.0256    961.7070 307.6482477  +6.2886964     941.8232     1322.747     1305.184     77.76334     154.6657      309.578      1.717     3.92     851.3524      54.5953     129.1207        12     1.057     0.863  83.87   0
        41    104.6086    962.9397 307.8605368  +6.2711192     617.9149     761.3619     842.3813      77.0239      154.789     309.4856      1.510     2.93     847.8303      54.5953     99.04449         5     0.856     0.484  84.75   0
        42    807.4667    958.9636 307.5688529  +6.2961962     2277.565     3861.176     4549.878     77.51764     154.8506     309.7936      1.959     4.30     848.7154      54.5953     277.7872        25     1.544     0.955  56.58   0
        43    755.5932    956.6595 307.5904676  +6.2954234     6590.016     10586.22        11555      77.0239      154.789     309.4856      1.778     3.78     849.5917      54.5953     871.2493        40     1.541     1.180  55.29   2
        44    225.2049    956.2435 307.8106930  +6.2779163     1513.961     2111.607     1830.486      77.0239      154.604     309.4239      1.462     4.24     849.8491      54.5953     245.5444        16     1.320     0.916  25.63   0
        45    542.4012    956.2269 307.6789987  +6.2885070      1082.88     1323.032     1181.949     77.27116      154.604     309.5164      1.499     4.98     851.9851      54.5953     145.6392        14     1.254     0.775  61.71   0
        46    189.3714    955.7696 307.8255860  +6.2769142     939.5085     1227.258     1338.517     77.14763     154.6657     309.4856      1.533     4.55     849.0442      54.5953     121.0336        11     1.088     0.690  39.13   0
        47     49.9548    954.1497 307.8835216  +6.2729191     2779.989     4385.353     4480.123     77.76334      154.789     309.7628      1.711     3.68     847.4276      54.5953     337.4382        22     1.330     0.990  44.27   0
        48    943.8215    951.8244 307.5124747  +6.3036715     6091.429     10640.14     11271.31     77.27116     154.7274      309.732      1.849     4.04     845.8458      54.5953     712.6394        39     1.606     1.199  47.45   0
        49    200.1056    948.3467 307.8213779  +6.2803377     513.4001     914.8594     459.9563     77.51765      154.789     309.9783      1.682     3.43      849.072      54.5953     82.28381         5     0.791     0.429  18.08   0
        50    625.8774    945.5727 307.6446949  +6.2956857     656.6894     1169.184      853.467     77.51765     154.8506     309.7012      1.670     3.91     850.7612      54.5953     103.4103         6     1.362     0.322  43.04   0
        51    917.5072    943.4115 307.5236802  +6.3062717      2029.84     3269.077     3503.897      77.3945      154.604     309.5472      1.788     4.19     846.4711      54.5953     281.6649        20     1.373     0.923  54.37   0
        52    777.1393    940.1932 307.5820695  +6.3029381     1378.714     2208.792     2227.998      77.0239     154.7274     309.4856      1.687     4.17     849.1398      54.5953      174.052        17     1.208     1.000  69.89   0
        53    638.4202    939.5739 307.6396870  +6.2985799     4519.915     6791.129     7132.627     77.27116     154.7274     309.6396      1.674     3.94     850.4818      54.5953     558.0789        30     1.493     1.002  50.02   0
        54    250.5283    939.7712 307.8007304  +6.2855632     4529.983     6724.927     6798.252     77.51765     154.9122     309.7012      1.586     3.44     849.8954      54.5953     605.4745        28     1.373     1.027  49.70   0
        55    988.0767    939.1564 307.4945201  +6.3103701     625.0549     1149.664     2044.521     77.51765     154.9122     309.7628      2.190     4.78     844.5405      54.5953     93.19727         7     0.933     0.745 -85.76   0
        56     19.0866    937.3033 307.8969018  +6.2788407      2098.23     3474.502     3288.966     77.64059     155.2812     309.7628      1.674     4.33     846.7924      54.5953     257.9025        21     1.448     0.920  47.81   0
        57    460.3738    938.0348 307.7136630  +6.2932841     1200.851     1639.895     1699.542      77.0239     154.6657     309.4856      1.432     3.22     851.5581      54.5953     186.5392        11     0.981     0.741  18.57   0
        58    870.3560    935.5771 307.5435184  +6.3079409     698.4169     1317.218      949.309     77.14763      154.789     309.5472      1.885     4.77     848.3666      54.5953     143.9469         9     1.387     0.637  52.36   0
        59    669.6566    936.2364 307.6268288  +6.3009974     386.8177     696.1074     936.7154     77.51765     154.9122     309.7628      2.219     3.77     850.1255      54.5953     82.57947         5     0.985     0.415   5.87   0
        60    286.3037    933.7328 307.7860790  +6.2892513     967.9503     1462.452     1815.925     77.64059     154.9738     309.7628      1.630     4.63     850.5573      54.5953     153.3406        12     1.197     0.810  56.13   0
        61    994.6241    931.4618 307.4920570  +6.3137641     777.3613     1579.723     1547.071     77.27116     154.8506     309.6396      2.067     6.71     844.4125      54.5953     127.3947        15     1.444     1.089 -86.94   0
        62    941.2771    932.9539 307.5141581  +6.3113783     740.3998     1331.417     1210.514     77.51765     154.9738      309.732      2.060     6.44      845.499      54.5953     92.82855         9     1.291     0.902  54.51   0
        63    563.0490    932.0599 307.6712318  +6.2991726     1716.848     2387.083     1933.593     77.64059     154.9122     309.7936      1.451     3.27     851.3682      54.5953     258.2386        16     1.187     0.806  50.85   0
        64     51.9692    929.5311 307.8835105  +6.2831504      762.764     1248.413     1949.834     77.51764     154.9122     309.7012      2.042     5.62     846.5239      54.5953      114.147        10     1.375     0.647  55.69   0
        65    602.0427    928.3765 307.6551643  +6.3019920     1387.964     2044.928     2042.401     77.27116      154.789      309.578      1.461     3.56     850.4752      54.5953     195.8057        13     1.157     0.724  49.66   0
        66    282.0283    926.3812 307.7881000  +6.2921437     1511.578     2064.618     2472.402     77.27116     154.7274     309.6704      1.418     5.10     850.1868      54.5953      195.801        11     1.102     0.669  50.03   0
        67    749.0078    922.1493 307.5943505  +6.3094528     807.2063     1275.751      1164.01     77.14763     154.7274     309.4239      1.603     4.79     849.4664      54.5953     122.1578         8     1.057     0.614  57.99   0
        68    886.6049    918.6730 307.5373336  +6.3154598     6573.129     10846.99     11260.65     77.27116     154.4806     309.6396      1.779     4.02     847.3298      54.5953     787.5112        35     1.568     1.090  50.32   0
        69    124.5883    920.9766 307.8536474  +6.2891123     550.9324     951.7746     1107.401     77.27116     154.7274     309.6704      1.732     4.03      847.022      54.5953     91.84515         5     1.076     0.431  24.57   0
        70    422.4047    916.2076 307.7301565  +6.3010295     2250.249     3422.607     3746.272      77.0239     154.6657      309.578      1.639     3.99     851.0598      54.5953     286.1446        19     1.334     0.906  48.07   0
        71    578.8939    917.5211 307.6651378  +6.3057029     2958.671     3016.751     2844.106      77.3945     155.0968     309.7936      0.687     0.79     850.7742      54.5953     1243.959         6     0.500     0.415  87.98   0
        72    324.0659    914.4659 307.7710446  +6.2984669     9953.974     14570.65     15335.98     77.64059     154.9122     309.7628      1.598     3.43     850.0854      54.5953     1438.875        35     1.441     0.999  46.51   0
        73    244.1814    913.4495 307.8042461  +6.2962183     7585.245     11317.01     11952.76     77.14763     154.9738     309.5472      1.619     3.47     848.9846      54.5953     1069.268        33     1.447     1.006  48.76   0
        74    572.1747    907.8173 307.6682512  +6.3094856     1210.547     1978.422     2197.216      77.3945     154.7274     309.6704      1.609     4.22     850.6968      54.5953     181.7313        13     1.227     0.721  60.07   0
        75    756.2878    907.5852 307.5918125  +6.3157079     720.0467     1103.705      1421.18      77.3945     154.7274      309.578      1.849     5.82     849.1874      54.5953     103.8354        10     1.275     0.749  51.31   0
        76    902.0558    904.0217 307.5314050  +6.3220219     946.2793     1499.794     1698.733     77.27116     154.9122     309.5472      1.779     6.65     846.4167      54.5953     122.0975        15     1.263     1.072   6.60   0
        77    134.3989    903.4117 307.8501625  +6.2966922     657.7574     938.0553     799.4678     77.27116      154.604     309.5472      1.668     4.15     846.8207      54.5953     123.1226         7     0.951     0.543  60.88   0
        78    858.2903    902.7952 307.5496182  +6.3210750     898.8613     1558.203     1406.504     77.14763      154.604     309.4547      1.789     4.93     847.8337      54.5953      130.679        12     1.350     0.736  11.27   0
        79    206.2854    903.2931 307.8203200  +6.2991450     687.3631     1009.499     1191.303     77.51765     155.3426     309.8244      1.538     3.53     848.1304      54.5953     116.7698         5     1.231     0.292  31.52   0
        80    400.6966    901.9609 307.7396456  +6.3061873     626.8778     900.4969     1018.845     77.64059      154.789      309.886      1.538     3.53     850.4788      54.5953     96.76605         5     0.875     0.459 -87.50   0
        81    969.8227    899.4723 307.5034174  +6.3261491     749.1891      1392.64      1664.21     77.27116     154.7274      309.732      2.041     5.97     844.7845      54.5953     98.54468        10     1.112     0.900  53.06   0
        82    738.5637    896.9315 307.5995266  +6.3195173     1736.615     2523.833     2371.499     77.51764     154.9738     309.8244      1.476     3.56     849.3336      54.5953     243.7986        14     1.128     0.793  64.71   0
        83    348.5536    908.4257 307.7610793  +6.3017781     696.0085     566.4013      338.056     77.27116     154.9738     309.6088      0.792     1.81     850.0698      54.5953     285.1733         5     0.641     0.495  84.26   0
        84    831.8215    897.5285 307.5607839  +6.3223703     603.2944     1040.504     584.6352     77.27116      154.789     309.7012      1.730     2.79     847.9814      54.5953     114.3945         5     0.726     0.456  20.96   0
        85    969.6246    892.6359 307.5037267  +6.3289652     1351.879      2317.11     2659.956     77.27116     154.7274     309.4856      1.908     5.92     844.7659      54.5953     150.6724        21     1.447     1.092  49.49   0
        86    613.4938    893.2401 307.6515809  +6.3168800     576.7603     858.9807     762.8899     77.76334     154.8506     309.8244      1.670     5.08     849.9688      54.5953     103.6387         5     1.354     0.540  47.10   0
        87    602.5792    893.5424 307.6561028  +6.3163917     933.6998     1331.483     1270.485     77.27116      154.789     309.5472      1.506     5.18     850.0663      54.5953     140.2522        10     1.011     0.749  51.82   0
        88    523.6706    892.6781 307.6888956  +6.3141202      1201.53     1887.435     2191.909      77.8859     155.1583     309.7012      1.609     4.44     850.7385      54.5953      197.361        15     1.445     0.670  61.53   0
        89    657.0536    890.4073 307.6335885  +6.3194994     2590.781     3873.426     3766.244     77.14763     154.7274     309.4239      1.609     3.95     849.7137      54.5953     402.3274        20     1.286     0.918  43.59   0
        90    553.9775    887.2088 307.6764942  +6.3173880     657.9499     826.5167     820.2613     77.27116     154.6657     309.5472      1.452     5.10     850.4322      54.5953     100.6978         8     1.244     0.592 -73.05   0
        91     71.1961    885.7490 307.8769952  +6.3018696     2120.644     3053.412     3842.292      77.0239     154.6657     309.3006      1.668     4.08     845.7316      54.5953     290.8059        19     1.361     0.906  47.35   0
        92     53.7159    886.6773 307.8842217  +6.3009012     2884.775      4638.28     4920.751     77.76334     155.2197     309.8244      1.712     3.88     845.7585      54.5953     328.9083        27     1.405     1.088  60.52   0
        93    934.9504    885.6407 307.5183570  +6.3307028     792.8927     1361.906     1610.596     77.76334     154.9122     309.6704      1.842     7.54     845.1798      54.5953     107.3787        16     1.646     0.966  51.84   0
        94    818.0912    886.5629 307.5668498  +6.3264415     797.7502     1192.049     935.4879     77.76334     154.8506     309.7628      1.652     4.97     847.9448      54.5953     123.7353         9     0.989     0.896  58.73   0
        95    197.2271    885.5295 307.8246755  +6.3061760     2426.553     3409.071     3249.411     77.27116      154.789     309.6704      1.542     3.61     847.6356      54.5953     353.3887        19     1.229     0.898  48.18   0
        96    230.9572    881.9687 307.8107900  +6.3087735     928.3445      1260.91     1221.206     77.14763     154.8506      309.578      1.457     5.09     848.1847      54.5953     116.6267        10     1.148     0.720  55.15   0
        97    651.7286    879.4557 307.6361645  +6.3238438     7322.104     10641.42     10765.47     77.51765     154.8506     309.7012      1.567     3.43      849.655      54.5953     966.0095        34     1.433     1.029  54.71   0
        98    336.3390    881.3649 307.7670553  +6.3125428     909.4886      1462.64     1833.669     77.64059     154.9122     309.7012      1.732     4.18     849.4086      54.5953     170.7051        11     1.371     0.663  26.72   0
        99    789.3901    880.1058 307.5789821  +6.3281538     681.2514     1018.932     958.5875     77.27116     154.5423     309.5472      1.768     4.28     848.3021      54.5953     98.95636         7     1.130     0.461  41.43   0
       100    889.4557    875.5296 307.5375839  +6.3333672     2960.552     4748.647     4789.029     77.64059     154.8506     309.7012      1.729     4.10     846.2607      54.5953     356.5131        27     1.472     1.023  53.81   0
       101     11.9295    877.6946 307.9018719  +6.3032105     1152.879     1811.057     1405.788     77.51765     154.9738      309.732      1.705     4.82     845.6308      54.5953     150.3471        13     1.115     0.882  46.79   0
       102    764.9877    876.1922 307.5892450  +6.3289585     483.6439     875.7401     667.2275     77.27116     154.7274     309.6396      1.545     3.94     848.6534      54.5953     70.39557         5     0.849     0.525  53.53   0
       103    334.7721    872.7258 307.7679947  +6.3160572     17360.26     25435.73     26661.43     77.51765     154.8506     309.6704      1.578     3.51     849.2191      54.5953     2391.771        43     1.451     1.079  48.09   0
       104     24.4575    876.1310 307.8967230  +6.3042756     960.4604     1316.969     1504.525     77.76334     154.8506     309.6704      1.478     4.59     845.5889      54.5953     154.1943        11     1.178     0.710  21.51   0
       105     69.4943    873.8406 307.8781009  +6.3067290     1376.635     1960.884     2184.585     77.76334     154.8506     309.8244      1.555     6.07     845.5225      54.5953     176.4165        13     1.355     0.825  24.36   0
       106    205.8369    872.3016 307.8215435  +6.3119251     1241.369     1862.111      1437.94     77.64059      154.789     309.9167      1.577     3.97     847.5447      54.5953     167.5941        11     1.098     0.677  48.11   0
       107    385.4423    871.6649 307.7469913  +6.3181864     758.8101      1023.45     1026.939     77.64059     154.8506     309.7628      1.364     3.69     849.6292      54.5953     134.4618         7     0.955     0.518  33.62   0
       108    412.6182    863.3271 307.7359860  +6.3225355     1072.699     1310.509      1007.64     77.14763     154.8506     309.6704      1.371     3.78     849.4686      54.5953     189.4675        12     1.192     0.642  46.65   0
       109     98.0448    863.3168 307.8665996  +6.3120293     1845.811     2716.177     2764.757     77.64059     154.9122      309.732      1.570     3.98     845.2929      54.5953     241.5005        16     1.264     0.886  40.77   0
       110    880.0659    857.3881 307.5420860  +6.3405456      1877.41      3174.27      2936.17     77.14763     154.7274     309.6088      1.783     5.64     846.0582      54.5953     220.3879        21     1.585     0.889  49.49   0
       111    665.9214    859.5411 307.6309348  +6.3325383     1022.561       1569.8     2133.062     77.76334     154.9122     309.6704      1.796     3.80     849.3472      54.5953     128.9576        11     1.053     0.812  52.10   0
       112    493.0800    860.2615 307.7026791  +6.3264843     515.5823     675.8486      961.676     77.76334     154.9122      309.732      1.310     3.89     849.9832      54.5953     95.79675         5     0.862     0.504  54.87   0
       113    813.8764    856.3336 307.5696055  +6.3387824     3145.934     4856.537     5188.323     77.76334     154.9738     309.7012      1.656     3.94     847.3394      54.5953     364.7787        26     1.381     1.073  54.05   0
       114    850.5765    856.7805 307.5543514  +6.3398171     2193.635     3281.199       2983.3      77.3945      154.789     309.6704      1.619     3.71      846.655      54.5953     291.4973        17     1.256     0.839  52.03   0
       115     81.5046    856.9745 307.8736795  +6.3140942     2707.118     4035.983     4485.949     77.76334     154.6657     309.6088      1.609     3.59     845.1091      54.5953     361.2724        22     1.227     1.014  52.24   0
       116    549.8660    847.8271 307.6795150  +6.3335105     353125.3     515159.1     538325.1     77.27116      154.789     309.6396      1.550     3.45     849.2526      54.5953     47934.69       170     1.604     1.282  52.17   0
       117    329.4811    854.8842 307.7707880  +6.3232467      761.853     1166.453     1562.483      77.3945     155.1583     309.7936      1.625     5.35     848.5714      54.5953     96.98132        10     1.029     0.860  21.14   0
       118    637.5321    850.7853 307.6430147  +6.3352085     1293.745      1834.03     1927.634     77.14763      154.789     309.6396      1.465     4.33     849.2606      54.5953     183.7585        13     1.196     0.732  51.47   0
       119    394.1275    850.4385 307.7440943  +6.3272399     8134.574     11513.64     11557.66     77.51765     154.8506     309.7936      1.517     3.57     848.6467      54.5953     1098.319        27     1.387     0.912  47.84   0
       120    337.2733    848.8547 307.7677541  +6.3259962     13484.52     19810.98     20727.08     77.51765      154.789     309.6704      1.577     3.46     848.3859      54.5953      1828.75        43     1.463     1.111  51.62   0
       121    655.8106    845.1075 307.6356140  +6.3381610     3742.046     5478.333     5695.652      77.3945     154.5423     309.5472      1.516     3.45     848.9854      54.5953     507.0431        23     1.336     0.904  55.83   0
       122    888.1268    843.8124 307.5391901  +6.3464183     5319.222      8294.81     9153.736     77.14763      154.604     309.5164      1.631     3.81      845.645      54.5953     669.3674        32     1.447     1.070  45.44   0
       123    727.2145    841.5549 307.6060828  +6.3420033     744.0283     981.4836     417.7486      77.0239     154.7274     309.5164      1.468     5.02     848.5639      54.5953     153.2327         9     1.349     0.632  55.60   0
       124    559.7717    842.8356 307.6755683  +6.3359013     470.8497     1310.851     2486.702     77.27116     154.6657     309.5472      1.858     3.66     849.1042      54.5953     91.69421         5     1.458     0.264 -10.44   1
       125   1021.6308    838.1027 307.4839425  +6.3532056     4368.507     7501.049     7717.062     77.76334     147.8555     263.3283      1.837     4.57     842.7679      54.5953     497.7864        33     1.606     1.130  52.53  24
       126    630.5315    839.0123 307.6463139  +6.3398361     3778.543     5288.687     6434.477     77.14763      154.789     309.6396      1.490     3.48     849.0231      54.5953     496.2791        23     1.384     0.858  46.71   0
       127    819.0687    838.3182 307.5680488  +6.3463930     1663.634     2680.456     3128.038      77.8859     155.1583     309.7628      1.683     3.50     846.6632      54.5953     221.7562        16     1.199     0.831  40.49   0
       128    621.0540    838.1192 307.6502791  +6.3398894     1204.316     1738.181     2021.046     77.64059     154.9122     309.7936      1.475     4.04     849.0818      54.5953       184.39        11     1.141     0.702  40.53   2
       129    623.3177    833.6589 307.6494878  +6.3418063     2344.831     3452.882     3867.028     77.64059     154.9738     309.7936      1.590     3.81     848.9768      54.5953     320.4219        18     1.286     0.861  44.76   2
       130    173.6067    839.2178 307.8360331  +6.3245064     564.3666     993.6298     1310.138     77.27116     154.6657      309.578      1.804     4.20     845.9705      54.5953      91.4071         6     1.098     0.458  32.38   0
       131    945.7599    836.8821 307.5154884  +6.3511928     786.5812     1119.659     1081.072     77.64059     154.9738     309.6704      1.522     5.45     844.4221      54.5953     107.3068         9     1.039     0.805  -4.43   0
       132    317.4725    832.7444 307.7765144  +6.3319864     1104.697     1568.623     1806.604     77.51765      154.789     309.7012      1.685     4.86     847.8353      54.5953     136.9617        12     1.319     0.635  50.32   0
       133    906.9736    831.6917 307.5317669  +6.3520484     3113.176     4849.674     4774.084     77.76334     154.6657      309.578      1.669     4.00     845.1141      54.5953     390.4384        22     1.357     0.952  53.51   0
       134    365.1990    827.7701 307.7568635  +6.3356334     2877.439     4251.824     3975.071      77.0239     154.7274     309.5472      1.569     3.74     847.3347      54.5953      386.525        22     1.214     1.031  48.26   0
       135    501.3617    817.5410 307.7006661  +6.3443983     3330.958     4524.647     5053.899     77.64059     154.9738     309.7936      1.514     3.57     848.1614      54.5953     460.0079        18     1.253     0.832  60.65   0
       136    845.8340    816.2722 307.5576679  +6.3563845     1076.952     1591.889     1866.498     77.51765     154.8506     309.7012      1.721     5.45     845.6429      54.5953     138.3579        15     1.311     0.873  54.03   0
       137    566.4863    815.3659 307.6736964  +6.3474663     835.3852     1154.976     703.8724     77.64059      154.789      309.732      1.507     5.44     848.2218      54.5953      94.3324        11     0.976     0.854  -2.95   0
       138    548.2437    813.4954 307.6813338  +6.3476309     6577.542     9355.841     9635.629     77.64059     154.8506     309.8552      1.529     3.47     847.9378      54.5953     986.3438        29     1.401     0.940  52.78   0
       139    555.0530    812.8408 307.6785282  +6.3481280     1280.786     1881.908     1988.755     77.51765     154.9738     309.7628      1.474     4.02     848.0231      54.5953     184.5354        14     1.290     0.728  53.67   0
       140    465.9848    812.5677 307.7155218  +6.3452722     1630.113      2244.37     2362.922     77.27116     154.6657     309.6396      1.465     3.76      847.637      54.5953     240.2643        13     1.150     0.744  51.54   0
       141    259.5783    813.3902 307.8012007  +6.3380432     832.2247     1149.423     733.8051     77.27116     154.6657     309.5472      1.507     3.56     847.7894      54.5953       138.48        10     0.891     0.856   9.14   0
       142    884.0648    811.6535 307.5419460  +6.3595611     1384.642      2115.42     2329.326     77.64059     154.8506     309.7012      1.642     4.69     845.1027      54.5953     170.9512        15     1.352     0.744  43.41   0
       143    107.7049    811.6364 307.8643202  +6.3336891     1353.886     2029.642     2289.291     77.76334      154.789     309.8552      1.704     3.65     843.8076      54.5953      208.527        15     1.280     0.759  37.33   0
       144    683.7882    810.5963 307.6251464  +6.3533407     709.1863     979.7344      1256.32     77.27116      154.604     309.6088      1.655     4.20     847.8537      54.5953     123.7542         7     1.066     0.473  45.87   0
       145    518.9326    807.4973 307.6937051  +6.3491306     21481.09     30455.76     31646.47     77.64059     154.9738      309.732      1.534     3.54     847.6857      54.5953     2935.009        50     1.455     1.073  49.20   0
       146    359.9679    809.4891 307.7596465  +6.3430064     768.0374     1101.319     1265.454     77.76334     154.7274      309.732      1.640     4.38     846.2786      54.5953     129.4636         8     1.160     0.471  60.57   0
       147    932.5085    805.6705 307.5220282  +6.3636395     3787.843      5960.81     6064.327     77.51765     155.0353      309.732      1.713     3.85     844.3592      54.5953     490.0717        29     1.513     1.008  50.65   0
       148     52.1232    803.6764 307.8876653  +6.3351150     650.4937     881.5986     815.8187      77.8859     155.1583     309.8244      1.619     5.66      843.699      54.5953     112.5522         9     1.024     0.882  -5.22   0
       149    404.5386    803.0694 307.7413538  +6.3471442     661.5251     967.1448     532.3458     77.76334     154.9122     309.7628      1.510     4.62     845.9537      54.5953     98.61694         8     1.080     0.562  37.14   0
       150     29.2190    798.1749 307.8973599  +6.3366194     1571.655     2536.315     2351.081     77.14763     154.7274     309.6704      1.711     4.40     843.6663      54.5953     207.1011        20     1.443     0.904  48.53   0
       151    311.5353    796.3466 307.7801967  +6.3468154     3627.525     5136.194     5068.279     77.64059     154.8506     309.7012      1.544     3.70     846.8574      54.5953     519.1214        21     1.334     0.826  51.12   0
       152    573.9655    797.2046 307.6711964  +6.3552137     554.1642     794.4008     1131.479     76.89996      154.789     309.5164      1.535     3.81     847.7436      54.5953     95.85297         5     0.832     0.499  46.17   0
       153    777.1176    791.9977 307.5870104  +6.3641233      56875.7     84756.84     88750.77      77.0239     154.5423     309.4856      1.559     3.53     846.1627      54.5953     7821.264        68     1.538     1.126  52.92   0
       154     11.4293    794.5245 307.9048689  +6.3375307     2146.331     3300.655     3074.583     77.51765     154.9738     309.7936      1.655     3.56     843.6644      54.5953     342.6794        20     1.244     0.987  59.64   0
       155    715.5724    793.5025 307.6125173  +6.3614556     657.9291     1105.868     1783.922     77.76334     154.6657     309.7012      2.151     3.74     847.3962      54.5953     96.74591         6     0.993     0.404  71.69   0
       156    233.9848    768.6611 307.8133246  +6.3556548     751038.9      1632711      1793317     77.14763     154.8506     309.5164      2.211     5.11     845.5529      54.5953     62452.46       642     2.803     2.119  75.77   4
       157    420.1505    790.6691 307.7352854  +6.3527847     936.8547     1339.876      1345.91     77.51765     154.8506      309.732      1.579     3.03     845.7125      54.5953     141.5552         9     0.906     0.647  64.32   0
       158    902.3581    787.1310 307.5351647  +6.3702932     8396.684     13121.65     14418.63     77.51765     154.9122     309.7936      1.690     3.72     844.3572      54.5953     1037.722        35     1.514     1.048  54.46   0
       159    705.3929    786.5956 307.6169744  +6.3639687     22815.63     33736.41     36663.73      77.0239      154.604     309.6088      1.619     3.69     847.1383      54.5953         3194        47     1.528     1.052  56.39   3
       160    699.0611    783.0960 307.6197204  +6.3652029     93251.27     134885.1     140332.3      77.3945     154.9738     309.7936      1.518     3.45     846.9967      54.5953     13348.12        80     1.518     1.139  53.69   3
       161    343.9530    784.1000 307.7671451  +6.3529540     22541.91      31886.2     33334.34     77.64059      154.789     309.9475      1.502     3.48     845.6292      54.5953     3161.614        47     1.392     1.075  48.17   0
       162    405.8039    781.9041 307.7415355  +6.3559249     23984.51     34260.47     35579.77      77.3945      154.604     309.4239      1.512     3.41     845.4613      54.5953     3361.367        49     1.451     1.071  52.16   0
       163    393.1285    784.1567 307.7467236  +6.3545719     1670.967     2242.144     2216.403     77.51764     154.9122     309.7628      1.484     4.49     845.4835      54.5953     230.2719        14     1.235     0.732  62.40   0
       164    632.8496    783.5563 307.6471998  +6.3628095     921.6219     1206.574     1313.298     77.64059     154.8506     309.7628      1.355     3.84     847.4191      54.5953      171.376         9     1.084     0.566  59.16   0
       165    942.9542    780.6940 307.5185205  +6.3742984     2146.201     3282.037     3358.931     77.51765     154.8506     309.8552      1.656     3.98     843.2993      54.5953     254.7764        20     1.303     0.931  43.85   0
       166    899.3201    778.6567 307.5367080  +6.3736912     6623.736     10246.72     10918.85     77.76334     154.9122      309.732      1.703     3.79     844.2026      54.5953     835.5068        31     1.461     1.018  53.83   0
       167    871.8519    779.4760 307.5480874  +6.3724408     707.0142     1168.684     687.8471     77.64059     154.9738      309.732      1.604     4.58      844.663      54.5953     103.5262         7     0.948     0.629 -83.73   0
       168    639.8235    777.7035 307.6444989  +6.3654581     6926.375     9565.082      9747.41     77.76334     154.6657      309.578      1.493     3.45     847.1138      54.5953     1000.795        26     1.326     0.905  50.36   0
       169    428.6147    775.7231 307.7322699  +6.3592378     1970.858     2641.139     3396.226     77.27116      154.604      309.578      1.490     3.59     845.5552      54.5953     281.1925        18     1.236     0.915  68.31   0
       170    153.3658    775.0944 307.8465849  +6.3503033     832.0657     961.7834     1053.623     77.76334      154.789     309.8244      1.495     5.31     843.2257      54.5953     111.5669         9     1.030     0.773  78.71   0
       171   1022.5201    770.0245 307.4858335  +6.3813430     818.0203     1038.856     1345.307      77.3945     138.7365     250.7488      1.411     2.09      840.589      54.5953     172.7631         6     0.747     0.498 -86.39  16
       172    867.5839    769.4619 307.5501928  +6.3764337     752.4024     1001.767     851.8028     77.14763     154.8506     309.5472      1.522     4.47     844.5891      54.5953     121.4216         9     1.072     0.843  61.79   0
       173    592.8580    769.7779 307.6642659  +6.3671666      968.953     1410.933     1347.928     77.27116     154.9122     309.5472      1.497     3.45     846.8876      54.5953      179.321         9     1.067     0.703  54.80   0
       174    674.9916    767.8599 307.6302230  +6.3706927     2505.034     3922.845     3960.601      77.0239     154.7274     309.4856      1.622     3.32     846.5005      54.5953     385.5127        21     1.397     0.832  46.20   0
       175    144.1653    768.5687 307.8506238  +6.3526897       1166.3     1784.999     1739.141     77.27116     154.6657     309.4856      1.606     4.57     842.9042      54.5953     153.1764        11     1.111     0.674  48.59   0
       176    119.0291    768.4576 307.8610649  +6.3518946     1079.801     1426.484     1411.344     77.27116     154.9738     309.6396      1.495     4.26     842.5614      54.5953     150.2986        11     1.101     0.688  47.57   0
       177     60.9331    765.7322 307.8852793  +6.3510754     618.0161      1089.27     1317.399     77.64059     154.9738     309.7628      1.842     5.20     842.3184      54.5953     91.06964         8     1.323     0.578  57.75   0
       178    951.1744    765.9649 307.5155963  +6.3806525      682.697     917.8069     863.7797     77.14763     154.7274     309.5164      1.512     3.85     842.6119      54.5953      99.6748         6     0.912     0.467  55.72   0
       179    526.4268    763.5104 307.6920609  +6.3675412     7841.559     10684.21     11209.63     77.76334     154.6657     309.6088      1.487     3.59     846.1617      54.5953      1179.45        29     1.368     0.904  51.45   0
       180    443.1721    762.1874 307.7266770  +6.3653118     5022.246     7044.651     7840.352     77.14763     154.7274     309.6396      1.498     3.36     845.3798      54.5953     754.2928        24     1.334     0.879  43.96   0
       181    771.6805    760.1043 307.5903298  +6.3771105     12259.11     18050.44     19040.29      77.3945     155.1583     309.8244      1.570     3.53     845.4278      54.5953     1601.007        39     1.477     1.011  46.99   0
       182    408.7426    764.5819 307.7408939  +6.3631746     58914.52      83405.2     86920.71     77.14763     154.8506     309.4856      1.540     3.49     845.1331      54.5953     8737.751        79     1.518     1.140  47.09   0
       183      1.5028    756.7476 307.9102576  +6.3527944     889.1864     1201.466     1483.437     69.60848     125.6024     236.0134      1.537     4.07     842.0736      54.5953     154.5693        10     1.141     0.624 -88.68  24
       184    439.8162    755.5527 307.7282921  +6.3679390     2608.816     3837.514      4129.13     77.14763     154.8506     309.4856      1.578     3.52     845.1832      54.5953     417.3943        19     1.198     0.908  49.30   0
       185    793.4497    754.1725 307.5814871  +6.3802832     1340.158     1901.915     1748.193     77.27116     155.0353     309.6704      1.481     3.33     844.8433      54.5953     227.3735        14     1.182     0.735  51.28   0
       186    137.5487    752.4364 307.8539117  +6.3591287     3311.228     4841.006      5422.57     77.51765     154.9122     309.6704      1.626     3.56     842.2573      54.5953     480.3639        21     1.309     0.913  54.73   0
       187    121.6901    743.3494 307.8608012  +6.3623497     2134.134     3158.607     3347.292     77.64059     154.7274     309.8552      1.641     3.65     841.7907      54.5953      288.577        19     1.250     0.931  65.72   3
       188    129.4577    752.2761 307.8572767  +6.3589242     12701.82     18039.12     19264.09     77.76334     154.9122     309.6704      1.558     3.46     842.1584      54.5953     1857.698        39     1.409     1.057  45.97   2
       189    121.6898    749.7446 307.8605870  +6.3597094     3002.117     4545.342     5571.372     77.51765     154.7274     309.8552      1.742     3.59     842.0168      54.5953     434.8378        27     1.566     1.042  48.98   3
       190    966.5971    748.8570 307.5097600  +6.3882277     1451.509     2032.014     3000.961      77.0239     154.7274     309.4547      1.528     4.80     841.7578      54.5953        212.2        16     1.393     0.780  53.52   0
       191    917.1960    748.6334 307.5302826  +6.3866805     6619.886     10078.99     10459.18     76.89996      154.789     309.5164      1.617     3.53      842.972      54.5953     874.7274        29     1.426     0.987  49.23   0
       192    672.7993    746.4088 307.6318482  +6.3794762     1832.407     2660.389     3305.747      77.0239      154.604     309.5164      1.536     4.34     845.8048      54.5953     258.1619        14     1.359     0.713  41.90   0
       193    559.4846    745.5906 307.6789313  +6.3760412     2536.611     3526.111     3605.907     77.27116      154.604      309.578      1.477     3.08     845.7654      54.5953     421.7933        18     1.279     0.781  54.24   0
       194    690.7413    743.8846 307.6244815  +6.3811154     561.5989     902.3467     855.0353     77.64059     154.9122     309.8244      1.730     6.43     845.6995      54.5953     114.4836         8     1.374     0.845  48.65   0
       195    940.9158    740.0669 307.5207170  +6.3910047     3015.582     4739.306     5019.293      77.8859     155.1583     309.7936      1.664     3.95      842.084      54.5953     406.3903        25     1.458     0.979  39.82   0
       196    911.3776    740.5179 307.5329687  +6.3898381     3168.657     4669.608     5036.937      77.3945      154.604     309.6396      1.656     4.17      842.905      54.5953     363.1497        24     1.451     0.971  45.89   0
       197    407.5839    745.2307 307.7420215  +6.3711254     1433.493     2112.103     1989.775     77.27116     154.6657     309.6704      1.536     4.15     844.7373      54.5953      207.741        16     1.310     0.833  49.78   0
       198    971.6539    739.8210 307.5079602  +6.3921262     1836.343     2751.326     2758.551     77.14763     154.9122     309.5472      1.617     3.93     841.4434      54.5953     271.5652        17     1.243     0.896  58.21   0
       199    663.8073    739.8765 307.6357999  +6.3818740     1530.435     2133.283     2061.187     77.27116     154.4188     309.5472      1.492     3.68     845.6208      54.5953     188.6356        14     1.215     0.733  49.48   0
       200    811.1376    737.9045 307.5746832  +6.3875877      1193.89      1709.86     1934.987     77.51764     154.9738     309.7936      1.522     4.87     844.3438      54.5953     154.0763         9     1.104     0.608  49.97   0
       201    236.2437    735.1428 307.8135083  +6.3695687     2120.915     3088.826     3990.653     77.51765     154.8506     309.7628      1.637     3.80     843.3803      54.5953     288.1149        17     1.284     0.825  54.98   0
       202    886.3109    735.5565 307.5435434  +6.3910543     832.4495     1261.881     1734.707     77.64059      154.789     309.7628      1.532     5.08      843.549      54.5953     105.0889        10     1.142     0.639  54.16   0
       203    673.2491    731.9485 307.6321432  +6.3854615     804.5502     1440.804     1594.959     77.76334      154.789     309.7012      1.982     4.71     845.3795      54.5953     148.9854         9     1.254     0.502  60.58   0
       204    928.9120    730.0488 307.5260349  +6.3947426     990.3867     1558.486     1309.436     77.64059      154.789     309.8244      1.701     5.42     842.1986      54.5953     145.1039        14     1.406     0.765  57.18   0
       205    256.5644    730.3914 307.8052291  +6.3722094      854.087     972.9888     870.2701     77.14763     154.7274     309.5164      1.338     4.66     843.4829      54.5953     147.7505         9     1.134     0.767  57.34   0
       206    151.7704    730.3201 307.8487471  +6.3687353     814.3918     1096.682     1029.852     77.51765     154.9122     309.7012      1.641     5.35     841.7708      54.5953     107.6861         9     1.105     0.730  42.80   0
       207    902.7222    728.9902 307.5369463  +6.3943102     1142.685     1790.331     2149.119     77.27116      154.604     309.6088      1.779     3.99     842.9189      54.5953     157.2772        14     1.244     0.746  58.07   0
       208    955.7527    727.9336 307.5149587  +6.3965067     2421.672     3971.204      4352.22     77.64059     154.8506     309.7628      1.751     3.88      841.645      54.5953     287.2235        23     1.354     0.996  54.16   0
       209    674.9400    726.9460 307.6316077  +6.3875831     1013.861     1495.448     2025.992     77.76334     154.8506     309.7012      1.732     3.48     845.2343      54.5953     172.0779        11     0.991     0.824  63.44   0
       210    466.5181    722.2879 307.7183147  +6.3825635     644.7993     752.7568     219.2775      77.3945     155.0968     309.8244      1.333     4.64     844.2683      54.5953     112.3524         7     1.115     0.548  48.33   0
       211    396.1957    722.5403 307.7475087  +6.3801134     648.4911     915.0028     921.1467      77.0239      154.789     309.5164      1.686     4.92     844.1502      54.5953     95.15167         7     1.170     0.585  54.32   0
       212    997.7189    721.2931 307.4977512  +6.4006406     1718.353     2579.003      2459.43      77.3945     155.1583     309.7936      1.642     3.97     840.7443      54.5953     235.9833        18     1.343     0.851  35.58   0
       213    798.7668    719.6918 307.5804266  +6.3946962     1492.454     2185.155     2211.449     77.76334      154.789     309.7628      1.618     3.99      843.931      54.5953     208.4921        16     1.231     0.866  49.25   0
       214    624.0402    720.6910 307.6529536  +6.3884714       679.92     1080.435     1373.608     77.64059     154.8506     309.7628      1.540     3.44     845.0377      54.5953     133.1618         5     1.027     0.334  42.20   0
       215    885.1072    716.9583 307.5446616  +6.3986930     1405.873     2144.692     2790.918     77.76334     154.8506     309.8244      1.640     3.90     843.1472      54.5953     206.3125        16     1.276     0.825  60.10   0
       216    859.4445    712.5676 307.5554650  +6.3996536     870.8372     1303.384     1452.431      77.3945     154.9738     309.6088      1.643     4.87     843.5001      54.5953      151.119        10     1.348     0.563  33.71   0
       217    645.2842    712.2534 307.6444128  +6.3926623     530.3519     809.6588     1407.011     77.64059     154.9122      309.886      1.611     3.59     844.7886      54.5953     86.48981         5     0.834     0.622  44.34   0
       218    841.9892    708.2066 307.5628591  +6.4008743     1635.583     2256.974     2481.837     77.27116     154.7274     309.6396      1.417     3.51     843.4167      54.5953     214.3665        14     1.207     0.737  55.49   0
       219    105.2467    706.7267 307.8688564  +6.3769194     996.3862     1926.253     1685.745     77.51765     154.9738      309.732      1.927     6.99      841.215      54.5953     152.0628        17     1.850     0.741  70.76   0
       220     41.0336    707.6817 307.8954887  +6.3743754     2567.109     3650.835     4084.145     77.51764      154.789      309.732      1.489     3.84     841.1557      54.5953     350.5206        17     1.254     0.795  49.26   0
       221    454.0544    706.9430 307.7240030  +6.3884832     495.1679     763.5577     170.3003     77.76334     154.9738     309.7628      1.583     3.74     843.8169      54.5953     97.38629         5     1.024     0.393  59.42   0
       222    558.7507    701.9708 307.6806912  +6.3940260     586.8755     563.2836     340.2295     77.27116     154.9738     309.6396      1.261     4.11     844.2808      54.5953      92.1377         6     1.199     0.403  57.19   0
       223    696.4763    699.3683 307.6235830  +6.3996857     552.7786     607.5607     625.6972     77.51765     154.9738     309.7012      1.237     4.72     844.4261      54.5953      92.9848         8     1.152     0.549  49.25   0
       224    653.7747    696.0175 307.6414280  +6.3996482     6856.038     9760.004      10941.8     77.27116     154.7274     309.6704      1.518     3.53     844.3362      54.5953     1012.345        29     1.373     0.934  46.88   0
       225    600.4240    695.3043 307.6636074  +6.3981664     1550.113     2283.318     2466.932     77.76334     154.6657     309.6088      1.573     4.10     844.1949      54.5953     245.1768        13     1.296     0.712  44.75   0
       226    522.2722    695.6878 307.6960496  +6.3954045     713.6289     1096.856     1078.092     77.76334     155.1583      309.732      1.854     4.10     843.8441      54.5953     137.8013         7     1.376     0.348  44.73   0
       227    511.3967    695.6985 307.7005656  +6.3950376     979.8163     1371.547     1310.795      77.3945     154.6657     309.4239      1.474     3.52     843.7556      54.5953     171.2811        11     1.098     0.680  41.74   0
       228    116.6886    692.0395 307.8645973  +6.3833659     4084.981      6084.85     6415.154     77.64059     154.8506     309.7628      1.569     3.49     841.1134      54.5953     563.1024        27     1.438     0.956  47.54   0
       229    990.8157    691.2312 307.5016166  +6.4128235     2549.938     3844.075     3880.345     77.27116     154.6657     309.6704      1.606     3.83     840.6743      54.5953     307.4485        20     1.276     0.988  57.39   0
       230    627.7816    691.8692 307.6523608  +6.4004956     2359.917     3297.415     3747.478     77.27116      154.789     309.6704      1.447     3.39     844.1714      54.5953     371.4974        19     1.324     0.748  46.50   0
       231    303.2728    692.3433 307.7871059  +6.3894784     701.4973     847.5446     1218.549     77.51765     154.8506     309.7012      1.532     4.13     842.2831      54.5953     129.5958         7     1.190     0.509  69.48   0
       232    238.9735    691.4789 307.8138361  +6.3876869     773.0781       1101.8     986.5806     77.51764     154.8506     309.7012      1.475     4.91      841.631      54.5953     103.3867        10     1.062     0.642  61.02   0
       233    770.6467    688.1252 307.5931552  +6.4067944     21778.45     30918.37     32328.34     77.51765     154.9738      309.732      1.511     3.54     843.5507      54.5953     2974.348        43     1.422     1.008  50.48   0
       234    900.7162    687.7930 307.5391490  +6.4112530     3790.803     5359.727     5613.098     77.27116      154.604      309.578      1.517     3.72     842.3191      54.5953     517.5809        21     1.374     0.829  51.23   0
       235    469.7512    688.4383 307.7181024  +6.3966466     1519.626     2137.104     1795.683     77.64059     154.9738     309.6088      1.530     4.20     843.2722      54.5953     237.7457        13     1.231     0.684  44.10   0
       236    315.9310    688.0892 307.7819916  +6.3916575     760.7958     1065.159     1042.651     77.76334     155.1583      309.732      1.482     4.78     842.3824      54.5953     142.1762         7     1.204     0.539  46.62   0
       237    498.0224    687.7304 307.7063856  +6.3978815     894.6947      1080.94     1245.663     77.27116     154.8506     309.7012      1.333     4.31     843.4035      54.5953      144.589         9     1.002     0.608  53.00   0
       238    271.7599    687.8228 307.8003434  +6.3902920     706.0405     1044.442     1235.696     77.27116     154.7274     309.5164      1.544     4.16     841.7031      54.5953     128.7267         7     1.074     0.461  58.39   0
       239    651.1479    680.9885 307.6430198  +6.4057658     7524.616     10658.03     11090.78      77.0239     154.8506     309.4547      1.496     3.46      843.896      54.5953     1100.746        33     1.417     0.974  53.02   0
       240    244.1002    681.9153 307.8120272  +6.3918067     6740.805     9263.724     9727.134     77.64059      155.404     309.8244      1.461     3.66      841.287      54.5953     952.7124        24     1.293     0.861  52.85   0
       241    633.4320    682.1403 307.6503386  +6.4047005     981.0889     1378.782     1216.605      77.3945     154.9738     309.7012      1.362     4.80     843.8833      54.5953     146.2879        10     1.152     0.693  43.39   0
       242    346.2623    680.6443 307.7696448  +6.3957441     793.8211     1052.368     1269.065     77.64059     154.8506     309.7936      1.664     2.86     842.8434      54.5953     150.7948         8     0.931     0.570  70.84   0
       243    910.9516    673.5978 307.5353702  +6.4174536     1189.177     1902.836     1610.452      77.0239     154.5423     309.3314      1.704     5.48     842.0499      54.5953     170.9664        15     1.226     1.007  49.79   0
       244    722.9174    669.3141 307.6136034  +6.4129738     3956.925     6204.904     6790.998      77.3945     155.0968     309.8244      1.604     3.53     843.6118      54.5953     595.6013        28     1.549     0.905  63.34   0
       245    678.2084    669.8082 307.6321543  +6.4112824     1240.717     1562.015     1762.302      77.0239     154.7274     309.6088      1.339     3.71     843.6315      54.5953     211.4231        11     1.040     0.738  65.33   0
       246    730.3223    667.7970 307.6105786  +6.4138465      692.353     1192.908     1502.064     77.14763     154.4188     309.5472      2.157     5.34     843.5861      54.5953      97.1297         9     1.147     0.914  76.39   0
       247    989.1747    665.8814 307.5031402  +6.4232354     8776.959     13472.68     13860.87      77.3945     154.6657     309.7012      1.627     3.72     840.5159      54.5953     1125.849        35     1.484     1.063  50.87   0
       248    927.5820    666.3997 307.5287028  +6.4209776     2599.473     3495.032     3277.263     77.27116     154.4806     309.4239      1.467     3.86      841.779      54.5953     354.7979        19     1.297     0.854  53.43   0
       249      8.1625    665.8011 307.9105431  +6.3905649     1808.081     2838.717     3459.196     76.77583     154.7274     308.7141      1.680     3.81     841.0564      54.5953     244.8123        17     1.267     0.881  43.93  16
       250    542.3057    664.3464 307.6887759  +6.4090120     459.8709     709.2151     1240.543     77.51765     154.8506     309.9783      1.733     4.53     842.9619      54.5953     83.84229         6     1.101     0.528  30.08   0
       251    527.8262    661.9800 307.6948680  +6.4095064     2199.013     3211.013     3404.707     77.27116     154.7274     309.6396      1.460     3.47     842.8305      54.5953     324.2526        17     1.203     0.845  71.36   0
       252     66.5031    660.9630 307.8864789  +6.3945162     27924.17     39681.86     41668.46     77.64059      154.789      309.886      1.526     3.48     840.9659      54.5953     3872.793        51     1.433     1.083  51.43   0
       253    496.6053    658.9515 307.7079349  +6.4097161     1503.926     2056.892     2142.099      77.0239     154.7274     309.4239      1.455     3.61      842.594      54.5953     246.2178        14     1.212     0.716  54.52   0
       254    917.5331    657.5690 307.5331698  +6.4242901     1118.235     1392.737      1541.66     77.51765     154.9122     309.7012      1.439     4.07     841.6449      54.5953      145.258        14     1.131     0.830  46.06   0
       255    536.6208    655.4742 307.6914328  +6.4124856      1095.97     1633.438     1853.017     77.27116      154.789     309.6704      1.553     5.35     842.6805      54.5953     153.1888        12     1.212     0.712  45.94   0
       256    712.5271    652.9874 307.6184623  +6.4193691      3759.84     5153.138     5815.809     77.14763      154.604     309.5472      1.432     3.43     843.1533      54.5953     569.0724        20     1.266     0.834  52.94   0
       257    734.5258    651.2511 307.6093840  +6.4208177      4499.53     6048.192     5803.351     77.64059     154.9738     309.7628      1.452     3.51     843.1259      54.5953     663.6609        21     1.281     0.825  58.71   0
       258    566.0110    649.2607 307.6794346  +6.4160302     3628.036     5104.426     4665.625      77.0239      154.789     309.4547      1.454     3.47     842.6466      54.5953      560.998        20     1.240     0.824  54.49   0
       259    402.2326    649.9594 307.7474271  +6.4102810     1516.007     1940.471     1806.191      77.3945      154.789      309.578      1.462     4.71     841.6449      54.5953     229.8929        13     1.217     0.743  49.18   0
       260   1007.4146    647.3765 307.4961796  +6.4314807     5022.111      7598.85     7660.148      77.3945     154.7274     309.6396      1.626     3.60     840.0263      54.5953     634.6432        30     1.459     1.022  56.48   0
       261    226.4938    648.9410 307.8204424  +6.4048320     2057.652     2882.892     3568.521     77.51764     154.9122     309.8552      1.463     3.23     840.1889      54.5953     321.8361        15     1.139     0.817  37.92   0
       262    310.2531    648.2894 307.7856806  +6.4078997     1659.836     2205.769     1872.359     77.64059     154.7274     309.8552      1.464     3.80     840.5412      54.5953     240.6845        15     1.187     0.782  54.03   0
       263    972.8458    646.1894 307.5105760  +6.4308241      8059.59     12382.42     12882.54     77.14763      154.789     309.4239      1.612     3.68     840.5463      54.5953     1053.269        34     1.484     1.017  51.79   0
       264    526.7496    646.7798 307.6958224  +6.4157462     637.9755     1025.385     1030.181     77.14763     154.9738     309.6088      1.770     4.82     842.4169      54.5953     101.7249         6     1.080     0.610  68.24   0
       265    692.5073    645.0460 307.6270411  +6.4219818     1063.133     1500.903     1681.574     77.64059     154.8506     309.8552      1.466     4.31     842.8909      54.5953     186.6594        12     1.337     0.668  61.33   0
       266   1021.8284    644.2336 307.4902977  +6.4332563     745.8029     1382.255     1449.493     77.14763     145.9074     260.5609      1.923     4.54     839.7848      54.5953     112.3529         9     1.097     0.653  51.50  16
       267     84.2522    643.2178 307.8797032  +6.4024366     850.9021     1439.896      2017.41     77.14763     154.9738     309.4856      1.908     5.58     840.8372      54.5953     128.3503        10     1.262     0.784  66.62   0
       268    131.2766    639.8793 307.8602872  +6.4053887     26662.55     37129.92     38514.13      77.8859     155.1583     309.8552      1.506     3.51     840.5074      54.5953     3724.307        49     1.427     1.038  47.33   0
       269    799.5285    640.2213 307.5827552  +6.4275328     1353.639      1814.97      1876.38     77.27116      154.789     309.7012      1.402     3.27     842.2036      54.5953      238.295        12     1.091     0.725  55.49   0
       270    418.1743    640.7534 307.7411143  +6.4146138     3211.305     4466.069     4634.973     77.27116     154.9738     309.6088      1.490     3.59     841.3541      54.5953     410.9489        18     1.210     0.832  53.59   0
       271    350.5524    634.4432 307.7694079  +6.4149620     836.4064     1204.179     1147.592     77.64059     154.8506     309.6704      1.577     5.46     840.1656      54.5953     121.5827        10     1.288     0.652  55.11   0
       272    967.7510    629.1464 307.5132582  +6.4376917       6995.1     11208.64     12165.72     77.64059     154.9122     309.7936      1.711     3.73     840.3413      54.5953     950.3907        39     1.613     1.083  48.38   0
       273   1022.7202    624.1760 307.4905935  +6.4415673     88875.12       122503     125902.6     76.40222     136.2391     247.7641      1.494     3.80     839.7393      54.5953     11669.36        58     1.499     1.015  72.46  24
       274    561.2881    624.5660 307.6822199  +6.4260685     54412.66     73441.54     75847.68     77.76334     154.8506      309.732      1.475     3.53     841.9267      54.5953     8774.367        65     1.431     1.077  49.18   0
       275     12.1843    628.5986 307.9101210  +6.4060588     1251.565     1884.497     2491.383     77.27116     154.5423     309.4856      1.627     4.11     841.1351      54.5953     207.4806        11     1.147     0.638  53.46   0
       276    430.5885    627.4355 307.7364037  +6.4205264     451.4078     584.9755     747.7404     77.14763     154.7274     309.5164      1.269     6.34     840.9313      54.5953     75.70703         7     1.439     0.784  20.48   0
       277    925.7409    625.8554 307.5308152  +6.4376563     727.2998     763.2528     586.3455     77.76334     154.9122      309.732      1.444     5.48     840.7318      54.5953      94.6322         9     1.187     0.714  18.41   0
       278    520.1142    624.4142 307.6993246  +6.4247591     948.5411     1307.566     1281.101     77.27116     154.6657     309.6396      1.399     3.90     841.7805      54.5953     153.0505        10     1.190     0.653  67.19   0
       279    204.7519    625.8690 307.8302437  +6.4136306      698.954     961.4068     896.7869     77.64059     154.8506     309.7628      1.278     3.95     839.7071      54.5953      118.106         6     0.924     0.482  58.93   0
       280    785.8738    623.5045 307.5889826  +6.4339808     578.6139     707.7073     772.5426      77.3945     155.0353      309.732      1.524     5.62     842.0633      54.5953     80.56152         7     0.976     0.911  41.18   0
       281    491.3733    621.3046 307.7113646  +6.4250849     670.8432     865.1053      417.418     77.76334     154.6657     309.6088      1.248     3.95     841.6662      54.5953     116.0799         6     1.026     0.481  58.21   0
       282    168.7686    621.2242 307.8453426  +6.4143448     3004.819      4268.09     4388.655     77.14763      154.789     309.5472      1.485     3.56     839.9126      54.5953     422.7354        18     1.248     0.821  49.40   0
       283    972.3998    620.7952 307.5116049  +6.4412940     646.8875     968.5787      1462.49      77.0239     154.4806     309.4856      1.683     5.08      840.174      54.5953     103.2917         8     1.409     0.518  57.24   0
       284     61.5460    615.7386 307.8900537  +6.4130213      1506.78     2224.152      2072.32     77.76334     154.8506     309.7012      1.616     3.68     840.8343      54.5953     233.5469        17     1.291     0.830  44.47   0
       285    458.5521    608.3987 307.7254263  +6.4293188     71189.05     96822.63     100743.5      77.0239     154.5423     309.3006      1.484     3.44      840.833      54.5953     11307.34        74     1.468     1.069  47.69   0
       286      2.2417    610.0573 307.9148719  +6.4133805     1916.563     2478.574     2654.393     76.52696     135.8886     247.3788      1.388     3.28     841.2505      54.5953     299.5359        16     1.135     0.853  55.12  24
       287    132.8103    603.5399 307.8608679  +6.4204430      1912.21     2499.723     2127.996      77.0239      154.789     309.4547      1.406     3.59     840.0677      54.5953     279.8821        14     1.172     0.729  46.25   0
       288    411.9104    601.3978 307.7450307  +6.4306533     889.1713      1150.63     930.6338      77.0239      154.604     309.4856      1.354     3.93     839.5734      54.5953     166.0261        10     1.090     0.704  55.06   0
       289    928.4483    600.8264 307.5305228  +6.4480801     632.4741     957.7549      964.247     77.27116     154.9738     309.6704      1.833     4.22     839.9274      54.5953     91.51801         6     1.090     0.466  31.82   0
       290    604.5694    600.1412 307.6650595  +6.4375944     1116.829      1594.74     1566.698      77.3945     154.9122     309.6704      1.451     4.12     841.4689      54.5953       162.89        10     1.212     0.551  28.17   0
       291    952.8218    598.4266 307.5204795  +6.4498798     492.0542     700.1775     377.4767     77.14763     154.7274     309.6704      1.259     3.59     839.6649      54.5953     94.35431         5     0.994     0.374  84.84   0
       292    303.9624    597.8345 307.7899808  +6.4285205     2526.401     3646.298     4326.907      77.3945     154.7274     309.5164      1.534     3.67     838.6556      54.5953     373.9828        18     1.207     0.828  54.36   0
       293    644.2502    605.4650 307.6484020  +6.4367176     944.0236     1244.424     1387.074     77.51765     154.8506      309.732      1.476     3.48     841.6461      54.5953     181.1591        10     1.124     0.799  41.54   0
       294    456.2604    596.4175 307.7267782  +6.4341890     861.5271     1235.605      1782.65     77.27116     154.8506     309.5164      1.567     4.66     840.4759      54.5953     156.3947         9     1.372     0.450  55.32   0
       295    730.6002    591.8226 307.6129938  +6.4452235     5750.956      7949.21     8031.388     77.27116      154.604     309.5164      1.438     3.30     841.7101      54.5953     951.2911        25     1.331     0.857  49.91   0
       296    784.1069    587.0156 307.5909312  +6.4489874     15041.54     21039.52      21897.3      77.3945     154.7274     309.6088      1.471     3.44     841.5389      54.5953     2335.058        41     1.433     0.964  50.20   0
       297   1023.3273    585.7619 307.4916171  +6.4574477     1672.253     2154.257     2128.494     71.63437     128.1583     238.6258      1.298     3.72     838.8583      54.5953     289.9421        15     1.337     0.699  86.02  24
       298   1001.1870    587.6653 307.5007495  +6.4559275     1116.889     1676.364      1742.33     77.14763     154.7274     309.6396      1.501     4.12     839.0418      54.5953      155.088        10     1.047     0.672  50.77   0
       299    526.4586    587.1341 307.6979341  +6.4403623     1432.726     2025.493     2107.872     77.76334     154.8506      309.732      1.495     3.44     840.8502      54.5953     226.8208        11     1.066     0.667  44.84   0
       300     28.7591    586.1345 307.9046624  +6.4241454     703.2979     944.6306      689.938     77.64059     154.8506     309.8244      1.425     4.51     840.9421      54.5953     128.4677         8     1.292     0.575  55.28   0
       301    608.0255    585.0718 307.6641267  +6.4439312     3371.655     4585.998     4433.766     77.27116      154.789     309.6704      1.428     3.60     841.1244      54.5953     540.3574        19     1.318     0.743  49.60   0
       302    925.0913    581.3288 307.5325652  +6.4560187     1165.231     1758.097     2460.488     77.51765     155.0968      309.732      1.804     5.12     839.2235      54.5953     181.9747        11     1.230     0.627  55.36   0
       303    184.2709    580.3995 307.8402720  +6.4317181     678.2261     1138.811     1508.333      77.0239     154.4188     309.5472      1.960     5.08     839.0608      54.5953     101.8621         8     0.984     0.741  50.40   0
       304    366.5108    578.8375 307.7646395  +6.4384524     1044.302     1635.475     1299.279     77.64059     154.8506     309.7628      1.438     4.21      838.267      54.5953     162.7939        13     1.355     0.648  53.19   0
       305    220.5684    578.8597 307.8252493  +6.4335676     1282.578     1719.372     1618.146      77.3945     154.9738     309.7012      1.375     3.17     838.4091      54.5953     195.0668        13     1.092     0.737  61.69   0
       306    860.1696    570.3293 307.5598953  +6.4584043     3159.517     4594.083     4747.258     77.51765     154.9122     309.7012      1.577     3.54     840.4175      54.5953     488.4585        24     1.342     0.936  55.80   0
       307    155.2022    570.1253 307.8526883  +6.4349876     755.9123     927.9861     182.4009     77.14763     154.4188     309.6088      1.203     4.07     839.3974      54.5953      142.265         7     1.101     0.429  56.80   0
       308    818.8887    567.6467 307.5771300  +6.4581403     2693.288     3488.613     3371.934     77.64059      154.789     309.8552      1.377     3.57     840.9995      54.5953     423.6843        17     1.238     0.735  58.61   0
       309    789.7452    563.7256 307.5893648  +6.4587906     2734.897     3742.081     4251.658     77.51765     154.8506     309.7012      1.474     3.55     841.2497      54.5953     401.7115        19     1.246     0.841  58.24   0
       310    246.9029    562.9377 307.8148455  +6.4410215     8848.093     12353.11     12947.87      77.3945     155.0353     309.7936      1.453     3.34      837.938      54.5953     1260.637        31     1.358     0.931  48.56   0
       311    799.5222    558.9412 307.5854634  +6.4610910     172509.1     239597.6     249831.8     77.76334     154.9122     309.6704      1.497     3.46     841.1816      54.5953     26252.62       124     1.563     1.175  48.73   0
       312    181.1186    557.4728 307.8423491  +6.4410782     65468.44     90468.16     94740.88      77.8859     155.2197     309.7628      1.517     3.62     838.7462      54.5953     9361.161        69     1.453     1.121  46.12   0
       313    729.2123    559.5363 307.6146457  +6.4585074       760.49     980.1752     1320.682     77.14763     154.7274     309.5472      1.828     4.56     841.2122      54.5953     133.3517         8     0.998     0.591  68.95   0
       314    105.0343    553.6664 307.8740746  +6.4401039     6697.407     9519.868     9824.769     77.51764     154.9738     309.7936      1.500     3.47     839.7422      54.5953     943.4654        28     1.311     0.948  46.05   0
       315    970.3030    550.6617 307.5148063  +6.4701809     1419.317     1980.252     2297.898      77.3945     154.9738     309.7936      1.531     3.54       837.78      54.5953     185.8814        13     1.170     0.695  62.78   0
       316    991.0327    549.3760 307.5062391  +6.4713995     605.9797     710.3027     620.9779      77.0239      154.789     309.5472      1.329     5.53     837.6141      54.5953     95.75317         8     1.184     0.728  60.72   0
       317    219.7097    549.2554 307.8265971  +6.4457613     885.8037     1098.223     1440.227     77.51765      154.789     309.8552      1.435     3.78     837.7238      54.5953     127.6018         7     0.952     0.637  24.24   0
       318    835.9671    546.2008 307.5707504  +6.4675623     4871.297     6551.503     6389.616     76.89996     154.7274     309.4856      1.418     3.43     840.2332      54.5953     736.9974        24     1.265     0.891  49.45   0
       319    354.4840    544.5225 307.7707817  +6.4522183     19335.79     26193.29     26875.01     77.76334     155.2197     309.8244      1.476     3.44     837.4929      54.5953     2931.849        37     1.379     0.948  47.51   0
       320    444.8223    544.4788 307.7332637  +6.4552512     859.0795     1147.255     1148.124     77.27116      154.604     309.7012      1.372     4.66     838.9899      54.5953     117.0442         9     1.141     0.540  64.48   0
       321    156.3436    543.5729 307.8531039  +6.4459881     2157.345     2784.695     2942.668     77.27116     154.9738     309.6088      1.439     3.73      839.041      54.5953     309.9562        16     1.173     0.807  57.51   0
       322    231.4158    541.1635 307.8220063  +6.4494934     1126.351     1390.904     1802.003     77.27116     154.7274     309.4856      1.379     4.32     837.3946      54.5953      155.496        11     1.099     0.696  40.66   0
       323    790.0501    539.5823 307.5900419  +6.4687689     6414.042     8644.086     8704.946     77.14763     154.9738     309.5164      1.442     3.66     840.7493      54.5953     954.7423        26     1.319     0.889  51.75   0
       324    520.8491    539.3865 307.7018577  +6.4598887     7106.939     9725.704      10363.9      77.0239     154.8506     309.4547      1.462     3.76     839.5535      54.5953     994.7599        28     1.310     0.917  53.58   0
       325     93.8237    540.6883 307.8791654  +6.4450868     1079.284     1478.955     1114.329     77.64059     154.7274     309.6088      1.413     3.79     839.6189      54.5953     172.6809        10     1.078     0.613  44.80   0
       326    379.1680    536.1743 307.7608090  +6.4564890     1350.373     1791.749     1510.795     77.14763     154.6657      309.578      1.386     3.71     837.4902      54.5953     183.7427        11     1.151     0.649  57.36   0
       327    565.5665    532.4114 307.6835178  +6.4642587     2602.061     4157.093     4092.933     77.14763     154.6657      309.578      1.734     3.97     839.3348      54.5953     380.2202        24     1.325     1.143  12.96   0
       328    167.8099    532.5807 307.8487101  +6.4509099     7727.793     10948.13     10665.58     77.27116      154.604     309.6088      1.512     3.46     838.3707      54.5953     1148.563        31     1.349     0.983  48.85   0
       329    806.6774    531.7687 307.5833960  +6.4725476      1342.07     1981.667     1572.272     77.51765     154.9122     309.7012      1.500     4.72     840.2137      54.5953     207.8455        13     1.389     0.644  43.27   0
       330    263.0903    529.0651 307.8092564  +6.4555471     95701.38     132940.9     138654.3     77.51765     155.0968     309.7628      1.475     3.34     836.8931      54.5953     14060.19        85     1.490     1.126  46.24   0
       331     39.4232    531.4221 307.9020689  +6.4470907     5425.383     7506.215     8193.271      77.3945     154.7274     309.7012      1.526     3.74      840.188      54.5953     775.1205        26     1.353     0.890  50.89   0
       332    552.4847    526.3661 307.6891529  +6.4663188     1099.344     1259.468     1320.586     77.64059      154.789     309.7012      1.271     3.33     838.9988      54.5953     198.5042        10     1.070     0.633  49.33   0
       333    246.7118    524.2140 307.8162211  +6.4570025     1592.187     2268.387     2186.979      77.3945     154.7274     309.6088      1.466     3.88     836.8087      54.5953     271.1729        15     1.200     0.884  76.06   0
       334    962.4930    522.4930 307.5189864  +6.4815519     1807.665      2479.76     2606.322     77.64059      155.404     309.7012      1.515     3.73     837.1691      54.5953     249.1885        16     1.226     0.794  59.78   0
       335    786.2303    521.3154 307.5922367  +6.4761838     17769.94     24562.43     25220.98     77.64059     154.7274     309.6088      1.485     3.66     839.6786      54.5953      2741.31        40     1.397     0.967  54.99   0
       336    489.8548    519.8232 307.7153838  +6.4669325     44598.24     66998.98     69952.53     77.27116     154.9122     309.5472      1.579     3.57     838.6626      54.5953     6384.527        72     1.604     1.191  35.77   0
       337    640.3484    518.3659 307.6529265  +6.4725483     1089.375     1605.333     1267.547     77.51765     154.8506     309.6396      1.501     3.95      839.006      54.5953     185.7933        13     1.293     0.667  43.91   0
       338    712.1061    513.7297 307.6232767  +6.4768506     1533.101     2299.483      2566.76     77.64059     154.9738      309.732      1.749     3.55     838.9084      54.5953     234.0324        13     1.130     0.734  52.22   2
       339    250.3674    516.6257 307.8149568  +6.4602576     683.9708     969.1856     1154.644     77.14763     154.7274      309.578      1.553     5.41     836.5532      54.5953     100.6795         8     1.166     0.708  44.02   0
       340    202.2621    516.2385 307.8349490  +6.4588092     2029.913     2928.246     3258.826     77.64059     154.9122     309.7628      1.620     3.53     837.1136      54.5953     275.7918        17     1.161     0.920  56.82   0
       341     88.1582    516.4091 307.8823324  +6.4549208     645.6411     789.3007      1055.47      77.0239     154.7274     309.4856      1.585     4.73     838.8758      54.5953      136.192         8     1.092     0.582  71.41   0
       342     37.7405    516.3315 307.9032740  +6.4532645     1316.359     1785.255     1513.769     77.76334     154.8506      309.732      1.424     3.44     839.7767      54.5953      199.688        14     1.101     0.863  65.72   0
       343    649.6823    514.8719 307.6491662  +6.4743017      3201.99     4380.865      4249.56      77.8859     155.2197     309.7628      1.433     3.85     838.9174      54.5953     519.5158        19     1.285     0.771  50.40   0
       344    659.9196    514.6508 307.6449215  +6.4747337      1659.97      2161.77     2482.188     77.64059     154.9738      309.732      1.380     4.70     838.9865      54.5953     223.3494        11     1.079     0.660  63.72   0
       345     67.9830    511.9252 307.8908617  +6.4560965     742.1877     1600.823     1210.425     77.14763     154.6657     309.6088      1.873     6.18     839.1102      54.5953     162.8485        11     1.939     0.554  30.56   0
       346    387.5097    510.4375 307.7582048  +6.4673932     1909.251     2596.146     2497.891     77.76334     154.8506     309.7628      1.440     3.72     836.5593      54.5953     324.3888        12     1.169     0.637  52.58   0
       347    498.8057    508.1538 307.7120558  +6.4720488     2330.019     2984.792     3169.321      77.0239     154.7274     309.3931      1.367     3.72      838.122      54.5953     351.6816        15     1.255     0.678  56.53   0
       348    319.0233    508.7626 307.7867054  +6.4657979     4252.091     5831.833     6294.009     77.27116     154.6657     309.5164      1.422     3.51     835.8688      54.5953     639.6453        21     1.285     0.853  46.90   0
       349    134.1578    507.4775 307.8635274  +6.4601480     28641.19     39501.83     41070.29     77.51765     154.9122     309.7936      1.492     3.63     837.8245      54.5953     4219.629        48     1.407     1.019  50.63   0
       350    862.2028    507.5779 307.5611385  +6.4843803     1592.805      2250.44     2405.531     77.27116      154.604     309.4856      1.531     3.88     837.7028      54.5953     271.9213        13     1.235     0.681  60.54   0
       351     99.2669    505.7219 307.8780771  +6.4597050     2984.878     4098.831     3856.633     77.76334     154.9738     309.7012      1.455     3.58     838.3385      54.5953     406.5907        18     1.187     0.824  51.67   0
       352    336.2080    503.9300 307.7797297  +6.4683671     1228.005     1612.677     1719.821     77.14763     154.5423     309.6396      1.424     3.70     835.6454      54.5953     186.3225        12     1.092     0.746  55.95   0
       353    959.7311    501.7126 307.5208243  +6.4900400     5282.938     7560.286     7709.753     77.64059     155.1583     309.7628      1.540     3.49      836.811      54.5953     744.9856        28     1.456     0.891  49.77   0
       354    533.0762    494.4688 307.6982787  +6.4788413     1562.337     2066.797     2082.554     77.76334     155.0353      309.732      1.447     3.99     837.4918      54.5953      242.394        13     1.184     0.682  59.77   0
       355      1.2666    492.2303 307.9192306  +6.4619928     1548.716     2165.714     2585.428     66.66889     122.2155      231.978      1.431     2.92     839.8465      54.5953     418.0601        13     1.599     0.506  87.34  24
       356    431.1866    488.5067 307.7407971  +6.4779051     47942.61     64650.01     66753.24      77.3945     154.6657     309.5472      1.477     3.74     836.4973      54.5953     7229.808        57     1.412     1.025  50.21   0
       357    407.7325    491.5535 307.7504368  +6.4758646     521.6924     711.1147     824.2689     77.64059     154.8506      309.732      1.432     4.51     836.2192      54.5953     96.92487         5     1.266     0.456  61.89   0
       358    639.2391    488.1376 307.6543952  +6.4849918     13473.98     18124.29     18325.79     77.64059     154.9122     309.7936      1.423     3.48     837.4227      54.5953     2077.075        29     1.343     0.846  50.86   0
       359    196.3119    486.1494 307.8384280  +6.4710327     21022.73     30574.35     31681.07     77.64059     154.7274     309.8552      1.543     3.47     836.1907      54.5953     3288.218        49     1.541     1.039  40.51   0
       360    973.0945    486.4181 307.5157819  +6.4967982     1222.354     1470.952     1336.468     77.51764     154.7274     309.6088      1.291     4.73     836.5161      54.5953     182.2188        11     1.182     0.636  65.61   0
       361    162.1471    487.4187 307.8525750  +6.4693658     1886.441     2539.665     2807.931     77.14763     154.9738     309.5472      1.420     3.75     836.5348      54.5953     286.1431        12     1.145     0.646  48.60   0
       362    901.7696    486.0134 307.5454213  +6.4945978     740.7003     1110.649      1051.28     77.27116     154.7274     309.6704      1.581     4.25     836.5182      54.5953      98.9566         7     0.749     0.687 -82.54   0
       363    813.1930    485.8108 307.5822196  +6.4917389     1062.513     1289.804     960.2444     77.27116     154.7274     309.6396      1.356     5.06     837.7028      54.5953     190.9799         9     1.006     0.720  53.51   0
       364    560.9532    484.8716 307.6870204  +6.4837327     3108.738     4216.726     3861.412     77.64059     154.9738      309.732      1.427     3.60     837.0829      54.5953     466.5319        18     1.281     0.778  53.39   0
       365    934.8881    481.9358 307.5318006  +6.4973808      5061.65     7426.558      7938.07     77.64059     155.1583      309.732      1.535     3.66     836.4493      54.5953     723.3718        25     1.414     0.886  50.71   0
       366    607.9245    480.5121 307.6676562  +6.4870973     7351.357     9999.624     10531.56     77.64059     155.2197     309.8244      1.463     4.04      836.893      54.5953     1005.553        28     1.298     0.960  47.51   0
       367     95.4548    481.2352 307.8804813  +6.4696868     1292.997     1660.288     1025.189     77.51765     154.9122     309.7628      1.414     3.43     837.5544      54.5953     210.3568        12     1.113     0.764  70.34   0
       368    207.2177    479.9421 307.8341063  +6.4739601     639.2526     973.4009     1731.101     77.27116     154.8506     309.4856      2.216     4.69     835.9158      54.5953     93.46802         8     1.143     0.658  14.86   0
       369    957.4221    474.2377 307.5226966  +6.5013071     3494.037     4808.003     4406.663     77.27116     154.6657     309.5164      1.456     3.54     836.2286      54.5953     486.6688        19     1.301     0.787  49.46   0
       370    860.4527    476.1314 307.5629117  +6.4973056     500.0486     710.9533     1497.133     77.51765     154.8506     309.6704      2.151     4.24     836.3096      54.5953     78.79034         6     1.061     0.484  30.19   0
       371    396.0609    473.0141 307.7559042  +6.4831293     852.7627     1254.463     1953.132     77.14763      154.789     309.4856      1.681     5.66     835.1658      54.5953     123.6927        11     1.230     0.734  76.34   0
       372    278.9305    488.5664 307.8040329  +6.4727967     1233.998     1590.905     1549.615     77.51764     154.9122     309.7936      1.382     4.25     835.1373      54.5953     183.0502        10     1.056     0.620  58.75   0
       373    520.1889    471.6591 307.7043929  +6.4878291     8059.095     11214.07     12135.41      77.0239      154.789     309.4547      1.470     3.55     836.3336      54.5953     1202.452        29     1.432     0.861  56.77   0
       374    366.2368    471.9974 307.7683255  +6.4825535     2991.643     4263.716     4221.632     76.77583     154.7274     309.5472      1.440     3.44     834.6133      54.5953     494.4136        19     1.296     0.765  48.95   0
       375    735.7766    472.0359 307.6148342  +6.4948522     552.1785     698.3248     871.9347     77.27116     154.6657     309.5164      1.264     3.83      836.101      54.5953       87.729         5     0.817     0.516  33.53   0
       376     88.9170    471.2515 307.8835313  +6.4735897     734.8478     938.8615     324.7417     77.64059     154.9122     309.8244      1.476     4.35     837.5062      54.5953     103.3492         8     1.025     0.753  54.85   0
       377    876.3408    467.2372 307.5566082  +6.5015055     3285.984     5100.043     6113.528     77.64059     154.9738      309.732      1.802     4.32     836.1649      54.5953     526.3748        29     1.979     1.009  31.59   0
       378    529.3361    468.6315 307.7006947  +6.4893840     874.5467      1239.99      1547.19      77.3945     154.9738     309.7012      1.404     4.31     836.1691      54.5953     142.7659         8     1.022     0.551  66.68   0
       379    224.5594    467.4073 307.8273235  +6.4797151      761.155     971.7565      886.467      77.0239     154.6657     309.4239      1.310     4.52     835.4655      54.5953     129.3001         7     1.104     0.525  53.48   0
       380    884.1417    461.9038 307.5535453  +6.5039666     2250.212     3227.916     3706.546     77.51764     154.9122      309.886      1.483     3.48     836.1414      54.5953     317.0887        18     1.293     0.804  48.18   0
       381    923.4935    461.1404 307.5372250  +6.5055885     1170.253     1558.947     1177.747     77.51764     154.9122     309.7936      1.406     3.70     836.2106      54.5953     198.4465        14     1.298     0.747  48.63   0
       382    102.6895    460.7831 307.8781622  +6.4783727     732.8942     1311.642     1449.706      77.3945     154.6657     309.6396      1.955     5.23     837.0245      54.5953     112.9725         8     1.265     0.611  85.55   0
       383    708.0333    457.9485 307.6268272  +6.4997456     3214.725     4499.773     4631.997     77.51765     154.9122     309.6396      1.436     3.61     835.7715      54.5953     546.3513        20     1.323     0.778  55.24   0
       384    378.9681    456.2350 307.7635646  +6.4894863     4194.427     5791.701     5850.149     77.27116     154.6657     309.4856      1.435     3.77     834.2341      54.5953     635.4069        21     1.294     0.827  53.51   0
       385     69.8020    457.0875 307.8919453  +6.4787973     1962.162     2658.592     2646.244      77.0239     154.5423     309.4547      1.468     3.29     837.7477      54.5953      334.137        16     1.231     0.782  56.29   0
       386    419.1648    456.4721 307.7468609  +6.4907299     1285.076     1683.594     2347.883     77.51765     154.9122      309.732      1.454     3.36     834.5997      54.5953     217.6674        13     1.027     0.879  64.26   0
       387    606.6570    452.6584 307.6691118  +6.4985550     11130.45     15211.04     15740.71     77.76334     154.9122     309.7628      1.446     3.47     835.3333      54.5953     1792.768        31     1.345     0.898  50.17   0
       388    769.3486    449.2334 307.6016490  +6.5053832     17884.48      24287.4     25444.96     77.51765     154.9122     309.6396      1.460     3.43     835.7252      54.5953     2775.752        40     1.372     0.957  50.31   0
       389    288.9521    449.6510 307.8011729  +6.4891982     3113.141     4123.957     3635.573     77.76334      154.789      309.732      1.451     3.58     833.8797      54.5953     410.3059        17     1.158     0.845  49.13   0
       390    412.8478    448.8188 307.7497405  +6.4936789     788.3804     1233.525     1465.263     77.14763     154.9122     309.5472      1.537     4.28     834.1686      54.5953     127.0587         7     1.001     0.560  64.39   0
       391    798.4224    446.4594 307.5896649  +6.5074951     1328.732     1909.363     1869.705     77.27116     154.8506     309.6088      1.475     3.80     836.2375      54.5953     204.5544        13     1.217     0.709  54.79   0
       392    899.1846    446.9049 307.5477958  +6.5106588     525.9224     466.7923      301.167      77.3945     154.6657      309.578      1.189     4.25      836.037      54.5953     114.2942         5     1.081     0.476  37.77   0
       393    720.3069    447.2348 307.6220861  +6.5045773     563.2157     674.7808     974.7703     77.76334      154.789     309.8244      1.605     5.78     835.1252      54.5953     116.5449         7     1.344     0.699  49.27   0
       394    372.1149    446.2167 307.7667461  +6.4933936     1748.499     2513.232     2868.251     77.27116     154.6657     309.6704      1.537     3.37     833.8297      54.5953     284.6606        14     1.229     0.690  42.81   0
       395    954.4443    444.1738 307.5249329  +6.5136209     1856.619     2817.426     2762.922     77.14763     154.9738     309.6396      1.565     4.04     835.4403      54.5953     259.0654        16     1.338     0.759  49.44   0
       396    773.3329    444.5093 307.6001513  +6.5074661     1578.269      2272.41     2713.269     77.76334     155.0353      309.732      1.598     3.84     835.6406      54.5953      252.353        14     1.236     0.717  39.75   0
       397    702.9180    442.7376 307.6294588  +6.5058555      648.311     836.9685     1083.257     77.76334     154.9122      309.732      1.374     3.78     835.1326      54.5953     119.0768         6     0.924     0.445  38.59   0
       398    360.8006    442.1786 307.7715805  +6.4946831     744.3513     978.9197     1177.959     77.27116      154.604     309.4547      1.471     5.09     833.6672      54.5953     118.8611         8     1.304     0.562  66.12   0
       399    106.7026    441.3047 307.8771485  +6.4865488     4830.311       6804.1     7187.369     77.64059     155.4653      309.578      1.539     3.64       836.59      54.5953     645.1603        26     1.288     0.959  57.57   0
       400    744.8950    440.0667 307.6121117  +6.5083547     2452.277     3380.478     3838.119     77.64059     155.0353      309.732      1.432     3.48       834.79      54.5953     374.8915        16     1.224     0.730  55.07   0
       401   1008.5283    438.7568 307.5026473  +6.5176519     4316.698     6762.196      6968.66     77.51765     154.9122     309.7628      1.715     4.27     833.7924      54.5953     538.8336        28     1.544     0.944  40.26   0
       402    264.4921    438.5029 307.8117054  +6.4929833     1727.376     2400.421     1963.691     77.64059      155.404     309.7012      1.506     3.86     834.0785      54.5953     244.8704        17     1.279     0.861  67.22   0
       403    342.7903    435.9081 307.7792709  +6.4966705     3598.173     4980.083      4810.44     77.27116     154.5423     309.4856      1.420     3.20     833.5063      54.5953     546.0679        21     1.307     0.794  50.48   0
       404    698.6055    433.7170 307.6315508  +6.5094364     1780.966     2279.449     2362.905     77.27116     154.5423     309.4856      1.383     3.34     834.7604      54.5953     295.5039        13     1.188     0.673  53.39   0
       405    402.3038    432.1212 307.7546782  +6.5002209     619.4839     892.6943     466.6581      77.3945     155.1583     309.7936      1.445     4.52     833.2798      54.5953     120.6369         7     1.382     0.421  42.79   0
       406    230.1991    431.6067 307.8261799  +6.4946842     883.7984     1199.119     1072.848      77.0239      154.604     309.5472      1.428     5.14     834.5378      54.5953     141.7875        10     1.258     0.593  63.52   0
       407    972.4937    432.3790 307.5178275  +6.5190896     687.0563     1034.932     1093.199     77.51765     154.7274     309.5472      1.483     3.78     834.5413      54.5953     119.1581         7     0.957     0.522  33.00   0
       408    441.2355    427.5466 307.7386603  +6.5034086     625.9746     950.7412     728.9973     77.51765     154.9122     309.7628      1.354     4.19     833.0791      54.5953     117.0998         7     1.436     0.349  66.65   0
       409    539.8463    426.5107 307.6977353  +6.5071246     1119.259     1657.377     1713.576     77.64059      154.789     309.8552      1.563     3.64     833.7561      54.5953     178.5697        11     1.015     0.809  77.04   0
       410    462.4385    424.7086 307.7299482  +6.5052877     1564.331     2174.507     2502.158     77.76334     154.8506     309.7628      1.504     3.87     832.9332      54.5953     254.9564        14     1.249     0.764  41.82   0
       411    824.8214    423.7276 307.5794561  +6.5177578     1582.263     1832.605     1691.025     77.27116     154.7274     309.7012      1.298     3.63     835.5651      54.5953     272.0492        11     1.178     0.596  58.04   0
       412    688.6185    425.2204 307.6359823  +6.5126120     549.3315     921.2397     828.7964      77.3945     154.8506     309.6396      1.719     4.25     834.4556      54.5953     92.41278         6     1.130     0.456  30.30   0
       413    810.5007    422.8413 307.5854341  +6.5176478     2207.879     3052.337     2879.443     77.64059      154.789     309.9475      1.435     3.56     835.4408      54.5953     391.6696        15     1.286     0.654  58.46   0
       414    609.8533    422.9698 307.6687745  +6.5109190     915.3106     1219.836      1411.77      77.3945     154.9738     309.6704      1.448     4.51     833.6783      54.5953     142.3658         9     1.116     0.626  46.30   0
       415    707.8379    420.9408 307.6281416  +6.5150185     16594.78     22247.73     23188.65     77.64059     154.9738     309.7628      1.417     3.43     834.0558      54.5953      2521.43        34     1.332     0.898  48.49   0
       416    628.9094    416.9864 307.6610587  +6.5140239     2937.886     4172.778     4444.497      77.3945     154.6657     309.5472      1.457     3.63     833.6224      54.5953      438.403        19     1.256     0.866  47.20   0
       417    997.2941    417.6322 307.5080158  +6.5260011     574.0195     651.9091     665.4354     77.76334      154.789     309.8244      1.271     4.05     832.9694      54.5953     86.71478         6     0.877     0.536  42.60   0
       418    601.2700    412.0944 307.6727026  +6.5151232     13987.53     26334.98        30699     77.51765     154.9738      309.732      2.128     7.21     833.0651      54.5953      2610.77        55     2.386     0.956  36.88   0
       419    933.0264    410.7386 307.5349412  +6.5267146     4057.284     5780.136     5693.065     77.27116     154.9122     309.6704      1.497     3.82     835.2458      54.5953     593.2495        20     1.251     0.855  52.44   0
       420    372.2184    406.8986 307.7680178  +6.5096300     32532.02     44438.39     45634.38     77.64059      154.789     309.4856      1.452     3.51     832.3993      54.5953     4736.074        47     1.406     0.974  49.29   0
       421    118.2537    406.3987 307.8735210  +6.5013465     2610.233     3683.326     3722.829      77.0239      154.604     309.3006      1.510     3.70     835.8402      54.5953     405.6395        18     1.341     0.802  67.99   0
       422    887.8217    405.5526 307.5538914  +6.5273547      1383.58     2615.949     3228.476     77.27116     154.9122      309.578      2.255     6.42     835.1064      54.5953     236.1294        23     2.307     0.739  46.10   0
       423    409.2706    407.9754 307.7525915  +6.5104223     672.6052     753.5936      961.798     77.27116      154.789     309.6704      1.173     3.21     832.0715      54.5953     139.1281         5     0.939     0.321  47.18   0
       424    583.9270    402.5522 307.6802249  +6.5184851     590.1301     892.8399      400.702     77.64059     154.9738     309.7628      1.312     4.25     832.5588      54.5953     114.3869         7     1.227     0.421  56.52   0
       425     51.6272    401.8204 307.9013478  +6.5010058     1614.921     2447.302     3031.095     77.14763     154.6657     309.6088      1.680     3.83     837.4091      54.5953     241.3907        16     1.316     0.780  47.80   0
       426    901.8781    401.0859 307.5482010  +6.5296658     5416.129     7521.501     7841.833     77.64059     155.2197     309.8244      1.462     3.49      834.806      54.5953     786.2365        23     1.323     0.850  53.90   0
       427    229.7440    397.4951 307.8275112  +6.5087522     15658.25     21394.95     22596.65     77.51765     154.9122     309.9475      1.491     3.50     833.7736      54.5953     2346.444        42     1.393     1.052  43.56   0
       428    957.6385    398.8170 307.5251139  +6.5324536      637.748     862.5356     1104.407     77.27116      154.789     309.5164      1.430     3.36     833.6161      54.5953     110.7034         5     0.761     0.429  69.93   0
       429     65.0781    391.5934 307.8961040  +6.5056785     860.5427     1262.271     1164.008     77.27116     154.4188     309.5164      1.494     4.44     836.8176      54.5953     158.5216        11     1.414     0.617  51.59   0
       430    953.1490    389.4011 307.5272918  +6.5361922     1057.024     1556.616     1948.628      77.0239     154.5423     309.3006      1.607     4.08     833.2673      54.5953     156.1713        12     1.261     0.710  64.58   0
       431    724.9897    390.9792 307.6220155  +6.5279593     875.0741     1178.065     1654.951     77.27116      154.604      309.578      1.486     4.50     832.8889      54.5953     138.7469         8     0.894     0.644  47.27   0
       432   1002.4785    390.2476 307.5067722  +6.5374794     540.3809     842.3245     427.2841     77.64059     154.9738     309.6704      1.458     4.76     831.6376      54.5953     88.53577         5     1.064     0.604  23.73   0
       433    693.0142    390.2260 307.6353229  +6.5272064     802.4001     1101.357     1328.278      77.3945     154.7274     309.6704      1.519     4.55     833.0668      54.5953     127.2408         6     1.060     0.570  24.92   0
       434    342.7715    387.0818 307.7809119  +6.5168283     1604.753     2036.489     2073.273     77.51764     154.7274     309.6704      1.327     3.28     831.7923      54.5953     244.4418        15     1.236     0.723  52.77   0
       435    175.2854    387.4995 307.8504660  +6.5110576     946.3017     1524.699     1335.277     77.64059      155.404     309.8244      1.620     4.73     834.6314      54.5953     114.7279        11     1.012     0.907  43.88   0
       436    370.4904    386.5230 307.7694170  +6.5179846     580.9062     839.3217     779.0042     77.51765     155.1583     309.7628      1.531     6.66     831.5347      54.5953     100.5715         9     1.201     1.036 -14.26   0
       437    129.9874    386.0972 307.8693279  +6.5101208      5569.56     7801.499     8069.527     77.51765     154.6657     309.4856      1.445     3.31     835.3577      54.5953     814.4182        23     1.297     0.865  43.83   0
       438    427.7992    385.1232 307.7456591  +6.5204754     803.4169     1258.736       1255.5     76.89996     154.3571     309.4856      1.726     4.86     830.9437      54.5953      134.791        10     1.222     0.588  53.71   0
       439    234.6696    384.9227 307.8258863  +6.5141075      1517.29     2001.153     2144.955      77.8859     155.0968     309.7012      1.378     3.21     833.4105      54.5953      228.259        11     1.019     0.689  52.56   0
       440    816.1191    382.4534 307.5844449  +6.5345096      840.568     1039.702     996.7696     77.64059     154.9122     309.7936      1.365     4.10     833.7003      54.5953     152.4886         7     1.076     0.445  44.11   0
       441    152.1528    381.7904 307.8602657  +6.5126406     2645.967      4257.86     4240.925     77.14763      154.789     309.3931      1.679     4.06     834.9492      54.5953     367.8949        26     1.387     1.134  73.50   0
       442    547.4545    380.9088 307.6960973  +6.5262056     1052.454     1273.611     1497.433     77.51764      154.789     309.8552      1.392     4.87     831.2112      54.5953      162.845        11     1.223     0.693  50.19   0
       443    375.6821    376.6808 307.7675896  +6.5222214     2456.217     3521.059     3205.354     77.64059     155.1583     309.8244      1.451     3.41     831.0244      54.5953     399.7057        17     1.280     0.768  41.98   0
       444    263.5066    376.9308 307.8141759  +6.5183710     886.5536     1003.707     850.6256     77.51764     155.0353      309.732      1.350     3.88     832.5092      54.5953     136.9165         9     1.131     0.632  61.66   0
       445    963.9931    375.3695 307.5232536  +6.5423453     931.0665      1500.35     1741.183      77.0239     154.7274     309.5164      1.941     5.30     832.1895      54.5953     120.8117        11     1.163     0.681  73.93   0
       446    309.2930    374.3770 307.7952430  +6.5209553     644.5529     945.3189     209.5227     77.64059     154.7274      309.578      1.511     4.22     831.5891      54.5953     116.0099         6     1.036     0.514  52.18   0
       447     25.6872    371.0784 307.9131534  +6.5128286     3342.349     5310.878     5417.647     77.51765     155.2197     309.8552      1.729     3.95      837.248      54.5953     527.6379        26     1.388     1.196 -72.50   0
       448    582.4907    372.6330 307.6818200  +6.5307899     576.5474     775.6433     520.3484     77.76334      154.789      309.732      1.168     3.39     830.9686      54.5953     103.5298         5     1.043     0.319  21.34   0
       449    429.3378    370.1997 307.7455188  +6.5266881     8322.968     11546.82     11789.52     76.89996     154.6657     309.4239      1.463     3.32     830.2599      54.5953     1314.838        32     1.327     0.944  51.29   0
       450    762.0043    369.1096 307.6073685  +6.5382198     2069.127     2971.445      3328.22     77.14763      154.604     309.4547      1.541     3.43     832.5765      54.5953     348.2183        17     1.328     0.750  53.32   0
       451    770.0179    367.4875 307.6040937  +6.5391560     14503.17     19585.39     20499.18      77.3945     154.6657      309.578      1.446     3.86     832.6321      54.5953     2084.535        36     1.382     0.933  51.71   0
       452    189.8423    369.8429 307.8450112  +6.5188342     514.2617      536.679     775.6228      77.3945     154.9122     309.6088      1.297     3.82      834.035      54.5953     78.73523         5     0.976     0.429  44.99   0
       453    528.8116    368.9975 307.7042390  +6.5305020     478.0624     722.9519     155.3672     77.27116      154.604      309.578      1.368     3.80      830.469      54.5953     91.00647         6     0.940     0.441  53.29   0
       454    333.3048    366.0804 307.7855467  +6.5251828     1138.656     1567.637     1880.818      77.3945     155.1583     309.8244      1.561     4.33     831.0362      54.5953     192.8132        11     1.304     0.574  54.00   0
       455   1013.8977    362.5882 307.5029477  +6.5492781     3854.509      5512.28     5558.292      77.3945     154.6657     309.5164      1.527     3.67     830.2495      54.5953     530.5293        22     1.357     0.877  48.98   0
       456    944.8641    359.2358 307.5317363  +6.5483717     589.4994     741.7753     1196.713     77.51764     154.8506     309.7628      1.383     3.03     831.8726      54.5953     129.7552         5     0.918     0.342  45.46   0
       457    178.4120    358.5093 307.8501386  +6.5231309     828.5311     1095.185     911.5842      77.3945     154.6657     309.5472      1.338     3.39     834.0683      54.5953     184.1284        10     1.207     0.522  43.29   0
       458    895.0105    357.5103 307.5525033  +6.5474289     555.7981     718.0148      569.061      77.3945      154.604     309.5472      1.572     3.78     832.2224      54.5953     83.07404         6     1.232     0.333  50.77   0
       459    516.9843    355.7925 307.7095929  +6.5355596     567.3317     502.5072     111.5846     77.27116     154.6657      309.578      1.232     4.85     829.7675      54.5953     83.39703         5     1.180     0.565 -79.75   0
       460    449.6007    354.5381 307.7376252  +6.5338303     2577.179       3423.3      2825.14     76.89996     154.7274     309.4239      1.397     3.69     829.6262      54.5953     381.7614        16     1.164     0.805  50.50   0
       461    477.5358    353.8201 307.7260453  +6.5350585     3439.839     4730.772     4659.366     77.27116     154.9122      309.578      1.431     3.32     829.6509      54.5953     549.4977        16     1.201     0.739  54.53   0
       462    906.1761    353.6596 307.5479932  +6.5493895     879.4418     1156.706      822.431     77.27116     154.9122      309.578      1.438     3.40      831.982      54.5953     138.4391         9     0.999     0.677  45.15   0
       463    835.3651    350.3785 307.5775179  +6.5483920     35727.16     52046.17      53588.8     77.14763     154.7274     309.4856      1.591     3.48     832.0557      54.5953     5410.678        60     1.508     1.108  59.84   0
       464     53.0907    346.9453 307.9025808  +6.5237100     667.3093     617.9478     546.8324     77.51765     154.7274     309.8552      1.207     3.81     836.2059      54.5953      116.735         6     0.978     0.427  48.72   0
       465    327.3206    346.1234 307.7887001  +6.5332223     1009.345     1168.179     748.5027      77.8859     155.1583     309.8552      1.219     3.54     830.4571      54.5953     169.2321         8     1.011     0.517  41.20   0
       466    607.0320    342.8715 307.6726187  +6.5438950     2880.504      4056.76     4402.521     77.51765     154.9122     309.7012      1.439     3.24      829.665      54.5953     477.6511        18     1.287     0.738  44.62   0
       467     15.3839    343.3166 307.9183647  +6.5239448     1300.489     1894.681      1368.54     77.27116      154.604     309.6396      1.545     4.70     836.9319      54.5953     168.0046        16     1.284     0.860  44.34   0
       468    691.8176    336.4248 307.6376134  +6.5493794     89042.77     119657.2     124465.9      77.3945     154.7274     309.6704      1.460     3.78     830.7145      54.5953     13524.24        79     1.465     1.077  52.92   0
       469    849.7161    337.6641 307.5719795  +6.5541183      1442.74     1912.501     2140.808     77.76334     155.0353     309.7628      1.442     4.00     831.2965      54.5953     204.2992        12     1.091     0.735  52.96   0
       470     70.8360    336.0659 307.8955750  +6.5287959     1361.026     1854.484       1884.7     77.51765     154.9122     309.7936      1.433     3.65     835.8142      54.5953     206.6296        12     1.178     0.648  59.12   0
       471    933.2512    333.3593 307.5374210  +6.5586699     924.5641     1142.965     454.4639     77.64059     154.9122     309.7012      1.467     4.36     830.7453      54.5953     146.6561        11     1.286     0.625  62.24   0
       472    554.1042    333.1455 307.6949295  +6.5461471     2932.587     4111.921     4822.125     77.51764     154.8506     309.9475      1.474     3.56     828.6321      54.5953     440.0767        19     1.328     0.792  41.26   0
       473    381.5765    333.7481 307.7665768  +6.5401435     588.7446     827.4158     1155.079     77.14763     154.9122     309.6396      1.578     3.46     829.3858      54.5953     89.25769         5     0.756     0.459  72.18   0
       474     91.4118    332.1065 307.8871612  +6.5311196     7041.354     9683.905     10278.96      77.3945     154.6657     309.5472      1.489     3.43     835.3806      54.5953       1028.8        26     1.295     0.927  50.81   0
       475    752.6359    330.8761 307.6125339  +6.5536937     800.2925      946.845     1419.389     77.51765     154.9738     309.7628      1.375     4.23     831.0007      54.5953     128.4042         8     0.944     0.728  16.80   0
       476    537.5219    329.4222 307.7019421  +6.5471316     8372.406     11286.62     11649.28     77.27116     154.7274     309.7012      1.467     3.45     828.3165      54.5953     1351.693        28     1.346     0.862  49.03   0
       477    266.5282    327.0771 307.8145898  +6.5390544     3015.263     3980.136     4194.853      77.8859     155.1583      309.732      1.412     3.19     831.1899      54.5953     460.7045        18     1.209     0.783  44.49   0
       478    400.4092    324.5628 307.7590610  +6.5445644     29775.15     40224.84     41210.43      77.0239     154.6657     309.4856      1.466     3.41     828.8186      54.5953     4814.111        48     1.381     0.997  51.90   0
       479    579.1466    323.5408 307.6848474  +6.5509470      665.051     1070.162      1434.01     77.64059     154.8506      309.732      1.653     3.79     828.4669      54.5953     180.3662         6     1.194     0.345  60.54   0
       480    508.2711    323.2366 307.7142996  +6.5487103     1362.736     1780.055      2070.43     77.51765     154.9122     309.7936      1.396     3.64      827.992      54.5953     226.4243        10     1.088     0.618  39.45   0
       481    667.2239    322.2075 307.6483039  +6.5544307     398.2375     601.8704     478.9101     77.14763     154.7274      309.578      1.265     3.64     829.5242      54.5953     101.1044         5     1.265     0.301  59.39   0
       482    380.2116    322.7339 307.7675121  +6.5446452     1384.746     1956.803      2745.19     77.14763     154.7274     309.6088      1.514     3.46     829.1356      54.5953     197.1941        10     0.954     0.687  52.42   0
       483    479.4536    319.6918 307.7263888  +6.5492128     1301.911     1538.857     1892.413     77.51765     154.7274      309.886      1.268     3.27     827.8456      54.5953     232.2574        10     1.080     0.602  43.82   0
       484    795.1263    316.6588 307.5953563  +6.5609765     1075.021     1369.039     1819.339     77.76334     154.9122      309.732      1.458     4.73     830.6367      54.5953     146.4156         9     0.971     0.652  61.06   0
       485    489.4753    314.9154 307.7223853  +6.5515190     10009.83     13346.52     13685.37     77.76334     155.2197     309.7936      1.410     3.26     827.5593      54.5953     1621.724        28     1.280     0.878  52.32   0
       486    377.1199    316.8827 307.7689921  +6.5469577     988.8109     1364.641     1763.924     77.64059     155.1583     309.7936      1.530     4.36     829.0417      54.5953      148.854         8     0.926     0.585  45.06   0
       487    758.6760    313.7145 307.6105965  +6.5609801     3496.136     4794.484     5499.492     77.76334     155.2197     309.7936      1.497     3.65     830.3083      54.5953     604.2535        21     1.324     0.807  47.70   0
       488    914.1426    313.4516 307.5460212  +6.5662548      1061.24     1547.148     1595.927     77.64059     154.9122      309.732      1.439     4.57     829.7801      54.5953     174.3754         9     1.111     0.535  59.09   0
       489    706.0391    313.0541 307.6324847  +6.5595017     804.2882     1030.571     1122.241     77.64059     154.9738      309.732      1.309     3.64      829.592      54.5953     147.1443         7     0.918     0.484  42.85   0
       490    315.9561    311.6077 307.7945757  +6.5470928     1230.095     1821.632     1706.352     77.14763     154.7274     309.4547      1.548     3.58     829.8458      54.5953     179.8764        11     1.042     0.685  67.33   0
       491    874.9417    309.4583 307.5624391  +6.5666017     434.6855     738.0065     898.6993     77.64059     154.9122     309.7628      1.588     4.04     829.6505      54.5953     101.7761         5     1.101     0.424  64.73   0
       492    151.3240    305.3451 307.8631721  +6.5441736     1206.719      1575.87     1449.136     77.64059     154.9122      309.732      1.311     3.54     834.1569      54.5953     217.0365         9     1.100     0.542  47.81   0
       493    251.5649    305.2961 307.8215347  +6.5475467     690.3955     1176.044     778.0607     77.76334      154.789      309.886      1.631     4.00     831.1544      54.5953     106.4503         6     0.875     0.523  47.35   0
       494    379.3936    299.1262 307.7686414  +6.5543646     8566.159     11926.91     12292.21     77.27116     154.4806     309.6396      1.483     3.36      828.542      54.5953     1331.952        29     1.302     0.957  47.91   0
       495    235.1836    299.7224 307.8285260  +6.5493001     2429.652      3195.16     3122.673     77.27116     154.6657     309.6088      1.422     3.53      831.585      54.5953     338.0586        17     1.246     0.763  61.10   0
       496    747.2850    294.9540 307.6159536  +6.5683469     59913.55     81696.25     84553.42     77.64059     154.8506      309.732      1.438     3.47     829.4651      54.5953     8940.208        67     1.455     1.034  52.85   0
       497    732.6928    298.5372 307.6218961  +6.5663821     1182.038     1654.824     1267.735     77.64059     154.9738     309.7936      1.420     4.29     829.5115      54.5953     208.4034        10     1.087     0.684  53.18   0
       498    418.8926    294.6255 307.7523838  +6.5575412     2585.317     3691.181     3796.008     77.76334     154.6657      309.578      1.449     3.61     827.4581      54.5953     398.5435        17     1.292     0.722  51.88   0
       499    982.1932    291.9636 307.5184656  +6.5773854     1798.951     2666.517     2843.385     76.89996     154.6657     309.4856      1.468     3.82      827.537      54.5953     261.1062        16     1.331     0.705  44.72   0
       500    564.9390    291.8394 307.6918075  +6.5635620     1502.762     1693.007     1637.703     77.64059     154.9122     309.7936      1.307     3.99     826.6583      54.5953     242.1826        11     1.143     0.615  58.93   0
       501    923.0453    291.0504 307.5430679  +6.5757992     2521.086      3475.08     3587.801     77.76334      154.789     309.7628      1.412     3.47     828.5745      54.5953     407.7885        18     1.268     0.773  48.56   0
       502    456.1063    290.5225 307.7370621  +6.5604769     1274.282     1987.751     1994.154      77.3945     155.0968     309.7628      1.535     4.80     826.6881      54.5953     218.7984        13     1.176     1.064   6.72   0
       503    405.3120    290.1217 307.7581759  +6.5589474     2339.452     3322.241     3727.557      77.3945     155.1583     309.8552      1.477     3.54     827.6337      54.5953     345.3563        19     1.284     0.895  44.30   0
       504    284.9957    289.4326 307.8081788  +6.5552134     651.6832     906.9391     790.8016     76.89996      154.789     309.5164      1.383     3.59      829.722      54.5953     126.2293         7     0.941     0.575  61.66   0
       505    826.7365    284.5637 307.5832934  +6.5752783     1439.716     2110.048     2642.732     77.51765     154.9122      309.732      1.712     5.71     828.8478      54.5953     201.9947        14     1.618     0.595  53.47   0
       506    455.5298    285.2319 307.7374784  +6.5626420     867.1645     1325.592     1261.428     77.51765     154.9122     309.7628      1.463     5.31     826.4921      54.5953     129.7028         8     0.958     0.832 -75.30   0
       507    958.4122    282.3486 307.5286647  +6.5805660     546.8588     761.3845     581.8613      77.0239     154.8506     309.4547      1.711     4.03     827.6912      54.5953     89.19592         5     1.157     0.401  51.91   0
       508    181.9180    281.4330 307.8512650  +6.5550695     2537.058     3558.419     3728.824     77.51764     154.8506     309.7012      1.544     3.88     833.0543      54.5953     356.2896        19     1.291     0.836  52.47   0
       509    435.9704    281.6514 307.7457232  +6.5634676     1319.197     1686.005     2417.611      77.3945     155.0353     309.6396      1.532     3.73     826.7302      54.5953     208.2993        12     1.237     0.648  60.43   0
       510    745.6400    279.4821 307.6171525  +6.5746800     6842.916     9329.122     9772.543     77.64059     154.9738     309.6704      1.481     3.42     828.7418      54.5953     1107.872        28     1.331     0.887  56.82   0
       511    336.4699    279.0815 307.7871426  +6.5612068     743.3856     951.1761     889.5058      77.8859     155.1583     309.7628      1.460     6.00     828.9427      54.5953     107.5256        10     1.345     0.753  27.34   0
       512    217.5603    279.4678 307.8365251  +6.5570730     817.1279      1053.71      848.554     77.51765     154.8506     309.8244      1.373     3.94     831.8923      54.5953     147.4965         9     1.097     0.592  60.06   0
       513    762.0474    277.4214 307.6104051  +6.5760765     3034.289     4160.865     4305.255     77.27116     154.9122      309.578      1.447     3.70     828.6727      54.5953     476.3496        19     1.295     0.769  57.73   0
       514     78.1736    278.7484 307.8944497  +6.5527052     1173.004     1665.731     1940.086     77.27116     155.0353     309.6396      1.595     3.76     835.3553      54.5953     206.8338        11     1.207     0.619  47.76   0
       515    351.5515    272.3005 307.7811045  +6.5645101       1820.6     3185.977       3240.9     77.64059     154.8506     309.9167      1.865     5.94     828.5403      54.5953     238.3795        22     1.702     0.903  14.49   0
       516     65.2275    272.7947 307.9000272  +6.5547296     1417.035     1900.245     1655.714     77.14763     154.7274     309.5472      1.390     3.52     835.7083      54.5953      226.571        13     1.115     0.724  44.82   0
       517   1000.3105    268.2626 307.5117268  +6.5877720     6122.479     8796.853     8913.377     77.64059     155.0353     309.7936      1.541     3.56     826.4653      54.5953     881.3782        28     1.392     0.910  58.71   0
       518    639.9925    269.7856 307.6613647  +6.5751674     550.7603     784.1447     768.9293     77.27116     154.6657      309.578      1.594     4.55     826.8679      54.5953     117.8709         7     1.080     0.545  59.50   0
       519    478.2935    268.2257 307.7285902  +6.5704225     2500.166     3323.877     3562.668     77.76334     154.6657      309.578      1.399     3.46     825.7883      54.5953     379.3304        17     1.232     0.756  50.70   0
       520    240.9244    263.9611 307.8273390  +6.5642563     6643.667     9036.692     9747.498     77.51765     154.9122     309.7936      1.433     3.33     831.1518      54.5953      966.573        23     1.263     0.859  46.14   0
       521    805.5502    262.4488 307.5928313  +6.5837047     673.5785     892.3112       1247.7     77.64059      154.789     309.6704      1.165     4.31     828.1184      54.5953     139.6148         8     1.164     0.497  89.27   0
       522    908.8482    262.8119 307.5499053  +6.5869868     619.4332     958.8593     1012.351      77.0239      154.789     309.4239      1.410     4.76     827.8674      54.5953     97.34705         7     1.263     0.509  55.42   0
       523    931.8842    258.7726 307.5404695  +6.5894193     626.6279      756.512     885.8644     77.76334     154.6657     309.6088      1.230     4.68     827.6711      54.5953     93.24866         6     1.080     0.575  26.09   0
       524    112.8857    257.7775 307.8807339  +6.5625254     566.7728     699.1564     617.7482     77.64059     154.7274     309.6088      1.390     5.55     834.2772      54.5953     83.95312         8     1.104     0.788  50.23   0
       525    760.0409    257.0149 307.6119185  +6.5844350     823.9246     1078.217     991.4769     77.14763     154.7274     309.5164      1.223     3.94     827.7562      54.5953     165.5616         7     0.931     0.477  47.67   0
       526    217.5337    256.5677 307.8373033  +6.5665265     799.3066     1123.198     1125.598     77.51765     154.9738     309.6704      1.486     3.88     831.8436      54.5953     120.7553         8     1.086     0.519  51.83   0
       527    375.2115    254.6530 307.7718661  +6.5725861      1880.15     2727.789     2239.555      77.0239     154.8506     309.4547      1.508     3.84     827.3768      54.5953     285.9033        14     1.283     0.681  60.17   0
       528    961.8315    253.5842 307.5282006  +6.5925555     1313.586     1709.499     1778.751     77.27116     154.6657     309.6396      1.429     4.14     826.9086      54.5953     192.9966        12     1.067     0.847  86.63   0
       529    181.5079    251.8675 307.8524262  +6.5672620      654.132     969.7852     833.2204     77.51764     155.0353     309.7628      1.756     3.44     832.6594      54.5953     125.4604         7     1.024     0.455  41.66   0
       530    144.8944    250.6868 307.8676751  +6.5665243     2065.011     2948.762     3284.091     77.64059     155.2812     309.7936      1.490     3.52      833.478      54.5953     331.5195        17     1.200     0.830  42.39   0
       531    297.3177    250.6767 307.8043575  +6.5716259     1430.915     1813.974     1733.251     77.76334     155.1583     309.8552      1.317     3.22     829.3895      54.5953     240.3055        11     0.955     0.737  39.86   0
       532    554.3754    246.2047 307.6977194  +6.5820509      2455.44     3041.465     2956.132     77.14763     154.6657      309.578      1.311     3.35     825.4659      54.5953     444.0968        16     1.248     0.781  60.18   0
       533    898.1382    245.1517 307.5549422  +6.5939225     1799.484     2528.503     2761.361     77.64059     154.8506     309.7936      1.611     3.41     827.4329      54.5953     329.8325        15     1.264     0.658  51.99   2
       534    821.8328    245.8351 307.5866201  +6.5911052     497.1552     752.8038      890.012     77.27116     154.6657     309.4856      1.618     3.89     827.4931      54.5953     77.01532         5     1.034     0.419  44.95   0
       535    718.1371    243.7137 307.6297702  +6.5885327     5892.588     7959.651     8609.488     77.76334     155.0968     309.7628      1.436     3.79     826.8225      54.5953     896.3516        25     1.336     0.839  52.26   0
       536    658.8843    243.6109 307.6543895  +6.5866031     2496.203     3606.386      3801.14     77.27116     154.6657      309.578      1.512     3.93     826.3147      54.5953     350.6746        20     1.344     0.815  52.13   0
       537    956.0945    243.2496 307.5309277  +6.5966320     799.8897     1097.814       972.84     77.51765      154.789      309.886      1.383     4.34     826.7643      54.5953     112.7552         7     0.849     0.632  73.49   0
       538    373.6723    237.7533 307.7730708  +6.5795119     1027.036      1385.89      1493.71     77.64059     154.9738      309.732      1.428     3.80     826.9037      54.5953     189.1021        13     1.102     0.988  19.06   0
       539    914.0618    235.7129 307.5486408  +6.5983482     1161.364     1554.665      1554.68     77.64059     155.0968      309.732      1.370     4.12     827.1966      54.5953     163.7313        10     1.174     0.571  51.07   0
       540    217.5475    229.0590 307.8382191  +6.5778841     2770.845     3799.375     3433.173     77.64059     154.9122      309.732      1.449     3.41     831.7815      54.5953     426.4199        18     1.258     0.788  52.77   0
       541    860.2054    227.7095 307.5712818  +6.5998638     1854.055     2476.252     2579.919     77.27116      154.604     309.4856      1.403     3.66     826.9894      54.5953     305.6823        16     1.248     0.845  45.35   0
       542    750.7932    227.3217 307.6167498  +6.5963868     1968.393     2545.477     2642.553     77.27116     154.4188     309.5164      1.327     4.05     826.3104      54.5953      284.929        12     1.128     0.649  49.59   0
       543    571.1113    223.3150 307.6915309  +6.5920589     520.1937      671.244     486.8919      77.3945     155.1583     309.8244      1.571     4.20      825.199      54.5953     101.1891         5     1.164     0.501  67.16   0
       544    344.7893    223.4020 307.7855496  +6.5844724     457.0536     726.7463     657.7493     77.27116      154.604     309.5472      1.406     3.40     827.5764      54.5953     76.17517         5     1.221     0.274  55.10   0
       545    239.3445    222.6783 307.8293780  +6.5812473     699.0953     834.4035     633.9743     77.76334     154.9122     309.7628      1.256     3.86      831.229      54.5953     121.4245         7     1.093     0.563  36.71   0
       546    866.7978    221.7903 307.5687400  +6.6025267     532.3088     806.4385     1503.588      77.0239      154.604     309.5164      1.546     4.45     826.7868      54.5953     92.77618         5     0.824     0.682 -34.20   0
       547    451.5224    218.9061 307.7413598  +6.5898916     26024.52     35837.94     36830.47      77.3945     155.0968     309.7936      1.461     3.33     824.7724      54.5953     4209.501        46     1.385     1.020  51.13   0
       548    312.6982    220.3880 307.7989819  +6.5846447     804.2013     1000.863     643.4742      77.3945     154.6657     309.5164      1.454     4.44      828.809      54.5953     125.8151        10     1.005     0.747  50.29   0
       549    777.6006    217.8930 307.6059269  +6.6011711     14501.98     20640.34     22220.72     77.14763     154.4806     309.4239      1.509     3.45     826.3367      54.5953     2305.132        49     1.491     1.175  29.16   0
       550    716.0048    213.6705 307.6316575  +6.6008656     768.2944     1018.512     820.0526     77.14763     154.5423     309.6088      1.400     3.73     825.8622      54.5953     183.8671         9     1.252     0.517  61.75   0
       551    457.3358    213.5642 307.7391232  +6.5922910      1610.95     2128.722     2477.147     77.51765     154.8506     309.7628      1.465     3.58     824.6218      54.5953     279.2397        12     1.185     0.624  46.61   0
       552    139.6025    212.2371 307.8711625  +6.5822212     2761.527     3975.517     4388.558     76.77583     154.7274     309.5472      1.544     3.64     832.9935      54.5953      395.063        19     1.371     0.757  51.21   0
       553    114.4849    211.3548 307.8816263  +6.5817446     1340.113     2039.838     2128.467     77.64059     154.8506      309.732      1.663     3.72     833.7093      54.5953     218.2191        12     1.160     0.686  49.52   0
       554    166.6926    210.3503 307.8599721  +6.5839068      707.634     1267.511      1322.34     77.51765     154.7274      309.886      1.718     4.98     832.3125      54.5953     115.8853         8     1.262     0.556  58.36   0
       555    770.0740    209.9816 307.6093174  +6.6041872     721.8499     1256.454     1920.154     77.14763     154.8506     309.6396      2.163     5.30     826.1523      54.5953     118.5918         9     1.301     0.611   7.76   0
       556    914.1533    208.3365 307.5495136  +6.6096542     1548.201     1942.011      2184.45     77.51765      154.789     309.7936      1.428     4.02     826.0823      54.5953     243.7261        11     1.186     0.595  52.79   0
       557    612.3075    206.4886 307.6749779  +6.6003785     619.0519     860.6787     940.0013     77.64059     155.3426     309.8244      1.157     3.32     825.1855      54.5953     131.5394         5     1.006     0.317  69.45   0
       558    575.5662    204.6330 307.6903038  +6.5999205     5302.752      7145.66     7556.082     77.14763     154.6657     309.4856      1.436     3.38     824.7076      54.5953     909.8796        24     1.308     0.837  49.72   0
       559    295.9221    205.2912 307.8064565  +6.5903169     1216.718     1588.682     1433.224      77.3945     155.1583     309.7628      1.388     4.62       829.83      54.5953     220.4667         9     1.090     0.557  51.92   0
       560    538.1895    204.5747 307.7058337  +6.5986989     2478.865      3345.35     2971.503     77.27116     154.7274     309.6088      1.425     3.76     824.2912      54.5953     384.4342        14     1.152     0.726  50.11   0
       561    379.9978    203.8015 307.7715786  +6.5937404     1614.661     2107.647     1872.087      77.0239     154.4806     309.4239      1.344     3.51     826.0878      54.5953     261.9514        11     1.202     0.567  56.67   0
       562    936.4858    201.6042 307.5404592  +6.6131753     2913.088     4248.978     4416.785     77.14763     154.5423     309.4547      1.560     3.35     825.6615      54.5953     470.4353        17     1.278     0.737  57.64   0
       563    882.5825    201.0786 307.5628714  +6.6116023     12442.74     16867.04     17672.52     77.27116     154.6657     309.6704      1.434     3.36     825.7806      54.5953       1827.7        34     1.343     0.918  49.64   0
       564    557.6552    201.0936 307.6978631  +6.6007849     1098.814     1224.786     998.0745     77.51765     154.9122     309.9167      1.284     3.14      824.342      54.5953     166.6785        12     1.014     0.757  44.86   0
       565    310.0101    201.4215 307.8007334  +6.5923853     1071.159     1454.881     1225.784     77.27116     154.6657     309.5472      1.249     4.75     829.2613      54.5953     177.7621         9     1.055     0.606  51.41   0
       566    202.0278    201.3305 307.8455953  +6.5888128     840.6871     1008.997     1086.616      77.3945     154.9122     309.6396      1.428     5.09     831.8793      54.5953     116.0958        10     1.116     0.656  43.60   0
       567      8.7265    197.9310 307.9260102  +6.5837438     28254.74     39491.08     41286.08     77.76334     155.0353      309.732      1.485     3.34     837.9268      54.5953     3995.434        49     1.420     1.045  48.70  16
       568    969.2209    198.8003 307.5269523  +6.6154194     10449.36     14735.26     15113.63     77.27116      154.604     309.4239      1.512     3.43     825.0748      54.5953     1450.852        34     1.366     0.983  55.30   0
       569    680.6269    198.9547 307.6468460  +6.6057639     3180.173     4229.922     4366.821     77.14763     154.9738     309.6396      1.367     3.17     825.2902      54.5953     553.7233        17     1.192     0.747  57.61   0
       570    254.9097    198.7681 307.8237126  +6.5916392      1232.07     1461.218     1383.583     77.76334     154.7274      309.732      1.335     3.59     831.0367      54.5953     201.5924        10     1.059     0.623  66.15   0
       571    489.2234    193.8766 307.7265337  +6.6014830     2281.056     2782.456     2764.093     77.27116      154.789     309.7012      1.378     3.55     823.8851      54.5953     328.9638        15     1.186     0.732  54.28   0
       572    821.1991    190.6432 307.5887212  +6.6138711     2177.451     2891.118     3017.005      77.0239      154.604     309.3622      1.435     3.79     825.7856      54.5953     397.5152        15     1.325     0.677  50.03   0
       573    873.4797    189.6098 307.5670350  +6.6160350     2141.295     2711.946     2457.956     77.27116      154.604      309.578      1.239     3.38     825.2768      54.5953     355.2432        14     1.206     0.640  53.12   0
       574    620.5325    190.3290 307.6721001  +6.6073242     571.4642     392.5628     141.6912     77.64059     155.0353     309.7012      0.999     3.49     824.7585      54.5953     116.4019         5     1.040     0.338  68.07   0
       575    501.2566    189.7868 307.7216712  +6.6035728     2864.752     3817.312     4231.679      77.0239      154.789     309.4547      1.403     3.13     823.7629      54.5953     459.2177        16     1.253     0.688  50.20   0
       576    732.8108    187.0762 307.6255619  +6.6124047     44857.39     60856.87     63007.31     77.27116     154.5423     309.5472      1.426     3.49     825.6336      54.5953      6759.55        61     1.447     1.002  51.70   0
       577    335.7633    186.6120 307.7905303  +6.5993599     6152.598     12300.81     12987.58     77.14763     154.7274     309.4547      2.026     7.35     828.0955      54.5953     780.5103        39     1.876     1.115 -89.47   0
       578    966.5972    185.6712 307.5284789  +6.6207530     3095.783     4261.389     4755.758     77.14763     154.5423      309.578      1.491     3.41     824.6177      54.5953     486.9508        20     1.284     0.935  66.17   0
       579    900.7582    184.1665 307.5558829  +6.6191884     8308.749     11310.86     11589.76      77.3945     154.9122      309.578      1.449     3.48     824.9227      54.5953     1172.404        30     1.366     0.896  50.02   0
       580   1004.8605    184.2978 307.5126273  +6.6225896      1760.42     2427.712     2338.989      77.3945     154.9122     309.8552      1.508     3.86      824.235      54.5953     253.4241        13     1.163     0.719  61.93   0
       581    444.1631    183.2918 307.7456075  +6.6043498     5708.993     7602.351      7941.18     77.76334     154.8506     309.7628      1.415     3.54     823.8608      54.5953     919.6823        23     1.331     0.793  50.93   0
       582    218.5314    179.9964 307.8394541  +6.5981726     829.4991     1141.692     1348.068      77.0239     154.5423     309.5164      1.604     5.15     831.6976      54.5953     134.7479        11     1.136     1.016  66.26   0
       583    101.5744    174.7581 307.8882170  +6.5964212     5420.216     7677.693     7738.679     77.27116     154.8506     309.5472      1.462     3.25     833.7394      54.5953     826.5988        23     1.314     0.857  48.50   0
       584    271.8504    171.4307 307.8175903  +6.6034918     38248.13     52946.76     55129.61     77.27116     155.0353     309.6704      1.494     3.59     831.2503      54.5953     5316.316        55     1.423     1.046  50.95   0
       585    921.0707    173.5869 307.5477957  +6.6242310     965.0893     1076.994     1132.824     77.14763     154.6657     309.6088      1.370     4.99     824.3705      54.5953     141.9008         9     1.071     0.706  63.17   0
       586    247.1479    172.4702 307.8278179  +6.6022368      7500.45     10278.38     10907.56     77.51765      154.789     309.7012      1.471     3.56     831.4648      54.5953     1155.781        29     1.331     0.904  51.28   0
       587    701.1723    170.6885 307.6392527  +6.6181178     1229.703     1547.555     1521.246     77.76334     154.6657     309.6396      1.349     3.56     824.9094      54.5953     175.1465        10     1.148     0.584  69.53   0
       588    597.6770    172.3998 307.6821938  +6.6139651     619.9223      985.843     1321.022     76.89996     154.2953     309.4547      1.439     3.82     824.0233      54.5953     112.5581         6     0.858     0.512  43.61   0
       589    395.9237    166.8793 307.7661972  +6.6095158     57472.59     78320.68     80361.48      77.8859     155.1583     309.8552      1.445     3.40     824.8924      54.5953     8703.042        62     1.427     1.028  49.05   0
       590    151.8221    168.1270 307.8675651  +6.6008410     4525.462     6310.439     6776.137     77.27116     154.7274     309.6704      1.443     3.33     832.0657      54.5953     690.2305        22     1.212     0.892  57.35   0
       591    413.2755    167.3613 307.7589723  +6.6098960     1766.225     2386.416     2668.524     77.51765     154.9738     309.7936      1.489     4.26     824.0157      54.5953     252.3148        13     1.173     0.738  45.49   0
       592    299.9222    164.6164 307.8061563  +6.6072434     20739.29     28590.15     29433.67     77.27116     154.6657     309.6088      1.454     3.54       830.55      54.5953     2969.155        40     1.372     0.980  50.74   2
       593    307.4707    164.2790 307.8030317  +6.6076349     2243.545     3675.915      4283.75      77.8859     155.1583     309.7012      2.006     4.27     830.1141      54.5953     390.6765        24     1.773     1.072 -87.30   2
       594    735.2137    162.9917 307.6253663  +6.6224282     37391.77     49491.46     51052.72     77.27116     154.6657     309.6088      1.392     3.40     825.3863      54.5953     5827.647        47     1.391     0.936  50.55   0
       595    683.5928    164.8167 307.6467522  +6.6199570     986.0637     1178.802     1094.288     77.27116     154.6657      309.578      1.299     3.42     824.4771      54.5953     191.1002        10     1.160     0.655  34.32   0
       596    533.8009    165.2283 307.7089710  +6.6147972     535.4106     786.3739     1009.397     77.14763     154.6657     309.5472      1.738     4.26      822.983      54.5953     88.22321         5     0.790     0.654  29.57   0
       597    783.4941    163.5367 307.6052892  +6.6238090     1318.462     1704.099     2021.058     77.51765     154.9738     309.7936      1.255     3.54     825.4534      54.5953       220.09        10     1.156     0.590  49.49   0
       598     22.4369    163.8549 307.9214586  +6.5982715     681.5651     836.2122     170.1077     77.51765     154.9122     309.7628      1.172     3.38     837.4054      54.5953     125.4073         6     0.972     0.465  38.36   0
       599     51.9665    160.4497 307.9093055  +6.6006668     10355.37     14508.73     14663.91     77.51764     154.9122     309.6704      1.502     3.42     835.9372      54.5953     1492.216        36     1.373     1.005  51.74   0
       600    559.0100    161.2072 307.6986320  +6.6172977     538.7209     789.3992     908.4661     77.14763     154.7274     309.6088      1.698     4.68     823.0908      54.5953     96.47076         6     1.282     0.485  58.18   0
       601     85.7957    158.3770 307.8953215  +6.6026557     1690.459     2069.845      2157.66     77.27116     154.6657      309.578      1.322     3.99     834.2192      54.5953     228.9033        13     1.180     0.688  61.54   0
       602    993.7314    157.4518 307.5181436  +6.6333043     1200.635     1462.899     1271.961     77.51765      154.789     309.6704      1.362     3.94     823.4822      54.5953     192.1144        10     1.142     0.578  50.17   0
       603    961.1979    156.4361 307.5316943  +6.6326441     464.3415     559.0882     268.0155     76.77583     154.7274     309.5472      1.394     3.96     823.4693      54.5953     72.97717         6     1.252     0.358  61.05   0
       604    719.6650    150.9221 307.6322287  +6.6268940     754.3517     1036.397     875.0714      77.8859     154.9122     309.7012      1.348     4.26     824.5331      54.5953     114.6661         7     1.132     0.457  42.44   0
       605    569.2062    147.5961 307.6948503  +6.6232569     822.4911     939.4916     845.5942      77.0239      154.604     309.6396      1.255     4.28     822.8917      54.5953     138.4269         7     1.150     0.458  45.91   0
       606    994.7690    143.6030 307.5181730  +6.6390565     2123.742     3034.285     3484.065     77.14763     154.7274     309.5164      1.551     4.01     822.8122      54.5953     351.5862        16     1.513     0.673  52.50   0
       607    577.6465    141.1651 307.6915584  +6.6261934      1373.24     1960.693      1671.19     77.27116     154.8506     309.6088      1.568     4.45     822.8049      54.5953     207.9464        13     1.300     0.706  50.40   0
       608    585.9242    139.3312 307.6881805  +6.6272263     2319.988     2933.521     2493.646     77.76334     155.0353      309.732      1.359     3.36     822.8361      54.5953     362.1136        16     1.165     0.814  54.36   0
       609    263.4509    141.0404 307.8220976  +6.6157578     620.1218     991.1621     1453.087     77.64059     154.9122     309.7012      1.291     4.09     831.4745      54.5953     122.9536         5     0.879     0.543  48.78   0
       610    330.1422    139.3462 307.7944473  +6.6186861     1185.172     1562.946     1096.613     77.76334     154.9122      309.732      1.473     4.61      828.937      54.5953     169.2523        12     1.278     0.692  27.31   0
       611    270.7495    137.6667 307.8191784  +6.6173946      34931.7     48244.94     50276.48     77.51765      154.789     309.7012      1.478     3.40     831.4421      54.5953     5318.311        53     1.426     1.023  49.92   0
       612     15.8952    136.3698 307.9250989  +6.6093993     4911.585     6952.973     7397.437     77.76334     154.6657     309.7628      1.538     3.69     837.3936      54.5953     734.8087        29     1.498     1.157  86.89   0
       613    179.7644    135.6338 307.8570460  +6.6151909     1144.002     1620.125     1236.499      77.3945     154.6657     309.4856      1.558     4.28     831.6046      54.5953     176.3083        13     1.205     0.802  75.89   0
       614    702.3950    134.1433 307.6399633  +6.6332467     9048.579     12327.89     12951.38      77.0239      154.789     309.4547      1.434     3.20      823.414      54.5953     1420.028        33     1.326     0.937  48.38   0
       615    256.7004    132.7941 307.8251783  +6.6189366     835.4816     1379.091     1096.511      77.3945     154.5423     309.4547      1.559     5.97     831.4862      54.5953     138.0558        10     1.262     0.795  45.29   0
       616    113.1086    131.4133 307.8848792  +6.6147022     5356.329     7571.917     7469.592      77.3945     154.6657     309.5164      1.503     3.52     832.4321      54.5953     759.0818        27     1.335     0.946  51.15   0
       617    408.6447    129.9113 307.7621486  +6.6252030      499.648     546.0896    -525.0293     77.64059      154.789     309.7628      1.054     3.43      824.201      54.5953     97.83002         5     0.794     0.430  71.58   0
       618    641.1230    128.2168 307.6656179  +6.6336538     835.7314     1070.338     671.0215     77.14763     154.6657     309.6088      1.351     4.14     822.7791      54.5953     132.5253         8     1.056     0.499  54.44   0
       619    575.1629    128.7974 307.6930031  +6.6312167      875.248      1166.47     1637.098     76.77583     154.7274     309.5472      1.419     3.72     822.4283      54.5953     160.6091         9     1.020     0.690  74.97   0
       620    452.2067    128.4677 307.7440985  +6.6272528     1643.285     2180.852     2318.822     77.14763     154.6657     309.5472      1.392     3.35     822.9703      54.5953     273.0406        13     1.136     0.679  53.03   0
       621    383.8513    127.2899 307.7725369  +6.6254575      4297.05     6506.311     6288.113     77.64059     154.7274     309.8552      1.540     3.64     825.8248      54.5953     657.9689        27     1.427     0.945  58.66   0
       622    348.2679    126.2231 307.7873561  +6.6247095     3785.379     5343.136      5571.81     77.27116     154.8506     309.7012      1.469     3.70     828.1254      54.5953     604.8851        20     1.356     0.732  52.82   0
       623    102.6359    126.0790 307.8894089  +6.6165538     1988.072     2560.724     2349.179     77.51765     154.9738      309.732      1.336     3.39      832.444      54.5953     305.3325        15     1.208     0.743  47.43   0
       624    834.9364    126.0003 307.5851664  +6.6410166     468.4717     610.5063     1358.571     76.89996     154.6657     309.4856      1.090     3.73     822.8483      54.5953     76.20941         5     1.006     0.398 -29.61   0
       625    560.2585    125.9087 307.6992919  +6.6319126     859.4906     1372.764     2094.376     77.51765     154.8506     309.8552      1.744     4.77     822.2142      54.5953     96.96014        11     1.066     0.890  42.96   0
       626    663.9847    123.8329 307.6562657  +6.6362250     781.7031      900.226     1132.562     77.27116     154.6657     309.6088      1.238     4.63     822.6756      54.5953     146.8652         8     1.234     0.493  54.66   0
       627    738.8520    124.2625 307.6251456  +6.6385392     640.8243     904.0761      708.603     77.64059     154.8506     309.7012      1.407     3.42     823.2066      54.5953     101.8574         5     0.976     0.347  43.59   0
       628    994.9640    120.2560 307.5188681  +6.6487023     1708.175     2474.454      2475.06     77.51765     154.9122     309.7628      1.535     3.82      821.577      54.5953     242.2053        16     1.304     0.782  49.60   0
       629    721.1585    120.4249 307.6326249  +6.6395349     530.6238     659.6467     518.7731     77.27116      154.789     309.5164      1.266     4.97     822.8641      54.5953     85.68713         5     1.128     0.620  63.77   0
       630    200.1010    115.2528 307.8492802  +6.6242856     6248.329     8431.171     8370.401     77.51765     154.9122     309.9475      1.441     3.57     831.5467      54.5953     952.3975        25     1.330     0.840  49.33   0
       631     82.8745    115.0154 307.8979898  +6.6204596     2388.465     3332.976     3716.517     77.14763     154.6657     309.6088      1.448     3.38     833.0038      54.5953      370.144        17     1.205     0.794  51.43   0
       632    661.9359    113.8930 307.6574485  +6.6402606     7241.055     9620.503     9521.906     77.64059     155.0968     309.7936      1.395     3.44     822.2815      54.5953     1172.424        25     1.257     0.863  50.94   0
       633    810.1231    113.5053 307.5958921  +6.6453507     1256.268     1366.002     1167.007      77.3945     155.0353     309.7936      1.311     4.25     822.3903      54.5953     166.9501        12     1.077     0.732  58.41   0
       634    614.1239    111.1812 307.6774039  +6.6397879     10714.64      14510.7     15408.13     77.14763     154.6657     309.6704      1.421     3.59     822.1111      54.5953     1808.669        33     1.297     0.961  52.97   0
       635    248.6065    111.4599 307.8292555  +6.6274738     924.5248     1143.542     971.4866      77.0239      154.789     309.5164      1.510     4.98     831.4762      54.5953      129.346         9     1.274     0.552  57.62   0
       636    552.1527    110.7575 307.7031656  +6.6378978     818.1949     1157.536     1138.771     77.64059     154.8506     309.6396      1.453     4.41     821.7872      54.5953     146.9414         9     1.044     0.705  51.74   0
       637     12.6854    110.3977 307.9273044  +6.6200141     1046.507     1643.824     1772.739      77.0239     154.5423     309.4547      1.803     4.40     837.2649      54.5953     165.6793        12     1.128     0.911  72.05   0
       638    341.3026    106.9007 307.7908965  +6.6324542     4095.673     6393.001     6144.368     77.64059     155.3426      309.578      1.685     3.71     828.8455      54.5953     664.1167        28     1.380     1.162 -78.46   0
       639    523.0063    106.1837 307.7154280  +6.6388145     1994.281     2635.298     2503.842     77.27116     154.6657      309.578      1.361     3.63     821.8014      54.5953     331.4446        15     1.189     0.740  42.92   0
       640    987.3700    105.3314 307.5225196  +6.6546122     846.6231     1382.869         1702      77.3945     154.9122     309.7012      1.874     4.57     820.9092      54.5953     122.1741         9     1.077     0.737  78.89   0
       641    617.6501    102.7035 307.6762218  +6.6434055     61368.16     82366.16     85195.85     77.51765     154.8506      309.886      1.420     3.31     821.8283      54.5953     10531.13        62     1.407     1.001  49.84   0
       642    683.0261    103.2396 307.6490413  +6.6453611      456.337     566.7636     12.59681     77.27116     154.7274      309.578      1.044     2.31     821.8755      54.5953     119.6776         5     0.766     0.464  57.78   0
       643    296.7819     96.6490 307.8097365  +6.6351991     4034.308     5762.879     6023.767     77.14763     154.9738     309.5472      1.531     3.47     831.0144      54.5953     573.7318        23     1.310     0.942  55.88   0
       644    492.1570     93.9150 307.7286551  +6.6428509     600.3673     963.7076     642.5143     77.64059      154.789     309.7012      1.734     3.99     821.8427      54.5953     95.12708         6     1.005     0.454  51.47   0
       645    883.9349   1017.5603 307.5351553  +6.2745431     1254.806     2296.883     1993.332     77.64059     154.8506     305.4216      1.909     5.42     848.4721      54.5953     138.2577        19     1.345     1.057  64.88  16
       646    667.9661     89.8830 307.6557440  +6.6503742     1702.275     2109.523     1722.094     77.64059     154.9122     309.7012      1.372     3.40     821.5107      54.5953     253.0948        15     1.182     0.765  58.02   0
       647    682.0448     86.6232 307.6500032  +6.6521887     3656.368     4856.058     4748.538     77.14763     154.9122      309.578      1.376     3.68     821.4499      54.5953     602.1856        20     1.288     0.769  47.94   0
       648     53.9475     85.4159 307.9110008  +6.6317105     523.2029     681.0381     189.4118      77.0239     154.9738     309.4547      1.873     3.74     833.6324      54.5953      99.7243         6     1.262     0.318  52.23   0
       649    423.7245     77.6988 307.7576294  +6.6472626     4738.785     6249.354     6309.793     77.14763     155.0353     309.6704      1.391     3.21     823.6992      54.5953     738.9564        20     1.260     0.783  57.37   0
       650    878.4430     73.9477 307.5688228  +6.6639531     2305.014     3168.744     3513.068     77.64059     154.9122     309.7628      1.498     3.76     820.7025      54.5953     343.3561        16     1.227     0.745  49.12   0
       651    896.2925     72.9503 307.5614395  +6.6649577     4264.551     5887.368     5847.625     77.51765     154.7274      309.886      1.458     3.30     820.6733      54.5953     676.6355        21     1.289     0.826  55.65   0
       652    576.3864     73.5073 307.6943408  +6.6540846     781.9221     1147.033     1232.074      77.3945     154.6657     309.5472      1.356     3.30     821.1556      54.5953     154.3055         7     1.041     0.526  52.33   0
       653    588.3969     71.7080 307.6894107  +6.6552277     1960.325     2690.511     3151.718     77.27116      154.604     309.4856      1.494     3.35     821.1614      54.5953     325.0159        15     1.242     0.696  55.35   0
       654    608.6913     71.3300 307.6809912  +6.6560599     589.9373      767.399     283.9588     77.64059     155.0353      309.732      1.248     3.99     821.2117      54.5953     112.9833         6     0.902     0.506  49.17   0
       655    234.0312     71.0139 307.8366660  +6.6436846     902.3779     1276.412     1661.825     77.27116     154.6657     309.6704      1.345     4.05     830.7138      54.5953     145.1383         7     0.903     0.518  46.85   0
       656    387.2737     69.4797 307.7730489  +6.6494390     2224.302     2875.568     2435.984      77.8859     155.1583     309.7936      1.370     3.25      826.184      54.5953     372.8265        13     1.136     0.694  52.17   0
       657    134.9985     66.5905 307.8779590  +6.6421971     3623.327     4926.042     4670.792      77.0239      154.604     309.5164      1.425     3.32     830.6481      54.5953     555.4751        23     1.285     0.868  47.94   0
       658     16.9143     64.4055 307.9270917  +6.6391435     13568.12     19275.91     21324.51     77.14763      154.604     309.4547      1.530     3.59     833.8325      54.5953     1876.511        39     1.434     1.005  51.77   0
       659    283.2646     64.8411 307.8164176  +6.6478792     1623.557     2462.395     2749.626     77.64059     154.8506     309.8244      1.610     3.96     830.0693      54.5953      222.995        15     1.328     0.701  57.30   0
       660    751.8589     63.4176 307.6217694  +6.6640926     854.0358     1306.089     2347.197     77.27116      154.789     309.5164      1.771     3.98      820.666      54.5953     142.8129         8     1.067     0.663  35.24   0
       661    556.5745     63.6152 307.7029028  +6.6575084     795.3954     1132.743     873.8073      77.3945      154.789     309.6704      1.144     3.18      820.936      54.5953     156.5011         7     0.906     0.553  62.36   0
       662    543.7650     63.8554 307.7082170  +6.6569822     793.3822     1029.697     785.6649     77.51764     154.9122     309.7628      1.329     3.51     820.9016      54.5953     142.5494         8     0.954     0.593  32.10   0
       663    937.5751     62.9947 307.5446176  +6.6704390     686.3765      1150.41     937.8686     77.14763     154.6657      309.578      1.720     4.97     820.1495      54.5953     102.7394         7     0.873     0.800  45.51   0
       664    408.9084     59.8065 307.7643836  +6.6541549     1258.286     1444.507     1577.783     77.27116      154.604     309.5472      1.356     4.28     824.7679      54.5953      227.442        10     1.186     0.544  59.50   0
       665    885.3026     59.6015 307.5664502  +6.6701040     620.1067       1005.8     888.1949     77.14763     154.6657     309.3931      1.481     2.98      820.293      54.5953     129.5446         6     0.847     0.491  47.98   0
       666    818.6513     58.7873 307.5941713  +6.6682253     7022.839     9704.174     10315.54      77.0239     154.8506     309.4547      1.434     3.27     820.2638      54.5953     1176.543        25     1.289     0.866  53.52   0
       667    763.7636     59.1423 307.6169655  +6.6662537      3719.51     4943.336     5527.445     77.64059     154.9122      309.732      1.394     3.53     820.4884      54.5953     535.0397        21     1.238     0.834  49.10   0
       668     88.1866     59.6213 307.8976415  +6.6435067      647.493     932.4066     1000.586      77.3945     154.6657     309.6396      1.443     4.09     830.8209      54.5953     106.3641         6     0.765     0.625  47.92   0
       669    909.7850     59.0129 307.5562971  +6.6711601      469.903     352.9535     246.9365     77.51765      154.604     309.6704      1.232     3.93     820.2638      54.5953     77.29816         6     0.934     0.474  52.72   0
       670    750.3062     58.1219 307.6225911  +6.6662274     563.5367     973.8916     1861.813      77.3945     155.0968     309.7936      1.977     2.89     820.5473      54.5953     136.0853         5     0.803     0.452  35.78   0
       671    525.9954     57.2100 307.7158221  +6.6591334     1372.208     1793.977     2276.913     77.14763     154.6657     309.6088      1.304     2.82     820.8481      54.5953      279.298        12     0.998     0.731  53.06   0
       672     57.1311     56.2119 307.9106583  +6.6438739     3564.598     5055.464     4982.109     77.14763     154.7274     309.6088      1.468     3.46     831.7386      54.5953     566.4355        20     1.246     0.831  54.28   0
       673    645.8109     56.3193 307.6660691  +6.6634936     677.2123     789.9688     538.7988     77.27116     154.6657      309.578      1.452     5.29     820.9825      54.5953     105.7726         9     1.254     0.630  63.90   0
       674    418.3162     55.7826 307.7606094  +6.6561303     1203.165     1496.494     1640.575     77.27116      154.604     309.6704      1.392     3.11     824.2297      54.5953     223.0601        11     1.043     0.761  52.15   0
       675     41.8638     56.9444 307.9169767  +6.6430599     1056.672     1573.491     1150.118     77.76334     154.9122      309.732      1.520     2.97      832.321      54.5953     174.8976         9     0.904     0.669  28.15   0
       676    580.9966     52.6535 307.6931216  +6.6628480     1375.473      1810.78     1694.955      77.0239     154.6657     309.3622      1.347     3.55     820.8401      54.5953     238.2178        10     1.125     0.561  52.59   0
       677    696.5972     90.6922 307.6438211  +6.6509931     1223.933     1612.467     1545.298     77.14763      154.604     309.4856      1.425     3.21     821.5018      54.5953     202.3458        13     1.096     0.780  57.90   0
       678    758.3312     46.4693 307.6196451  +6.6713052     2284.354     3332.493     3907.184     77.64059     155.0353     309.7012      1.584     3.60     820.1795      54.5953      359.915        20     1.393     1.032  66.06   0
       679     72.0655     47.4363 307.9047481  +6.6479972     940.6283     1138.248     540.0088     77.51764     154.9122     309.7936      1.382     3.65     830.8015      54.5953     157.4112         9     1.053     0.658  66.08   0
       680    398.9426     46.6701 307.7689636  +6.6592457     1209.474     1520.226     1456.407     77.76334     154.9122     309.7012      1.358     4.99     825.5919      54.5953     170.7582        10     1.022     0.690  51.51   0
       681    650.1807     46.4277 307.6645835  +6.6677230     646.6899     639.8029     603.8415     77.27116     154.7274     309.6396      1.142     3.45      820.828      54.5953     104.4973         5     0.800     0.430  21.25   0
       682     96.2428     45.6156 307.8947643  +6.6495587     978.2718     1256.737     1362.304     77.14763     154.6657     309.5164      1.426     4.48     830.1289      54.5953       170.18        10     1.024     0.725  48.71   0
       683     84.9719     40.5324 307.8996176  +6.6512798     10531.21     14759.57     15175.11      77.3945     154.8506     309.6704      1.488     3.40     830.2307      54.5953     1482.936        34     1.411     0.949  50.62   0
       684    414.0551     40.2461 307.7628994  +6.6624024     3021.767     3960.559     4040.353     77.64059     154.9122     309.7628      1.398     3.64     824.7043      54.5953     467.8624        17     1.194     0.738  45.73   0
       685    235.1409     40.3365 307.8372327  +6.6563869     684.3928     1030.223     291.5541     77.76334     154.8506     309.7628      1.625     5.90     829.7838      54.5953     96.91492         8     1.088     0.900  45.13   0
       686    251.6771     34.4020 307.8305610  +6.6593899     1737.352     2493.472      3329.03      77.0239     154.4188     309.5472      1.541     3.20     829.3173      54.5953     264.9811        14     1.119     0.787  35.98   0
       687    657.5847     33.6022 307.6619350  +6.6732647     663.4332     872.0549     594.5243     77.27116     154.5423     309.5472      1.515     3.39     820.6424      54.5953     133.4006         6     1.029     0.467  57.56   0
       688    627.7810     32.3922 307.6743590  +6.6727717      21283.6     28374.99     29500.22     77.27116      154.604      309.578      1.436     3.44     820.6115      54.5953     3369.562        40     1.347     0.941  49.58   0
       689    527.5439     28.4716 307.7161388  +6.6710499     6135.029     7866.641     8055.957     77.51765     154.8506     309.7012      1.365     3.17     820.3004      54.5953     1063.139        23     1.245     0.809  53.36   0
       690    245.7488     28.9507 307.8332068  +6.6614423     2200.071     2962.299     3543.277     77.76334      154.789     309.6704      1.445     3.62     829.2571      54.5953      338.177        16     1.228     0.770  43.60   0
       691    206.6006   1016.2376 307.8164094  +6.2525255     1993.888     3347.172     3628.893     76.77583     154.7274     309.5472      1.776     4.27     851.2546      54.5953     267.2864        21     1.535     0.863  52.66  16
       692    499.0616     25.7386 307.7280646  +6.6712284     548.1247     770.2109     674.0035     77.64059     154.9122     309.7628      1.428     3.33     820.2344      54.5953     106.4655         5     0.791     0.504  56.28   0
       693    742.7682   1014.3577 307.5938720  +6.2711751     674.9709      1548.91     1877.919     77.14763      154.789     309.5472      2.745     6.49     850.2419      54.5953     125.0624        13     1.648     0.716  71.06  17
       694    253.7046     24.5865 307.8300475  +6.6635100     10600.21     14165.72     15060.49      77.3945     154.6657     309.5472      1.444     3.34     828.9749      54.5953     1671.465        30     1.293     0.915  46.99   0
       695     19.0245     24.3539 307.9275598  +6.6557492     2656.137      3628.32     3825.788     77.27116     154.9122     309.6088      1.446     3.49     830.1588      54.5953     393.6484        20     1.288     0.820  50.44   0
       696    910.8515     23.8890 307.5570228  +6.6856970       2328.9     3285.719     3559.085     77.64059     154.7274     309.8552      1.461     3.41     819.2401      54.5953     366.5606        19     1.232     0.875  67.53   0
       697    313.4951     24.7530 307.8051996  +6.6654400      1184.17     1771.966     1913.429     77.51765     154.8506     309.8552      1.741     3.68     828.4422      54.5953      191.998        10     1.092     0.623  40.34   0
       698    546.1330     23.6239 307.7085769  +6.6736710     772.1533     873.6912     855.5255     77.27116     154.8506     309.6704      1.206     4.63     820.2513      54.5953     143.3689         8     1.157     0.536  41.54   0
       699    518.1906     24.0858 307.7201717  +6.6725487       708.68     820.7969     1064.752     77.27116      154.604      309.578      1.276     3.88     820.2131      54.5953     137.6525         5     0.875     0.494  38.71   0
       700    241.5154     21.1237 307.8352279  +6.6645321     3486.074     4803.986     4969.407     77.76334     155.2197     309.7936      1.474     3.34     829.0784      54.5953     487.9396        19     1.268     0.794  45.24   0
       701    294.7102     19.5764 307.8131779  +6.6669494     1036.083     1568.552     2351.619     77.64059     154.7274     309.6088      1.918     5.42     828.1483      54.5953     165.9909        11     1.244     0.679  58.16   0
       702    424.6679   1013.5815 307.7259653  +6.2609028     4044.734     6525.267     7276.586     77.27116     154.8506     309.6704      1.803     3.78     851.7891      54.5953     480.4953        31     1.612     1.027  47.55  16
       703    710.0403   1013.3016 307.6074952  +6.2705228     6923.003     11097.76     11405.62     77.64059      154.789     309.9475      1.697     3.82      851.248      54.5953     874.5699        35     1.488     1.119  40.34   0
       704    702.1391   1012.2589 307.6108104  +6.2706905     1109.096     1795.132     2354.946     77.64059     154.8506     309.7628      1.713     5.27     851.4821      54.5953     133.6692        14     1.253     0.812  45.03   0
       705    742.0016   1008.4882 307.5943857  +6.2735730     1156.859     1910.662      1762.99     76.89996     154.5423     309.4547      1.666     5.80      850.225      54.5953     181.9083        14     1.395     0.765  53.88   0
       706    949.5548   1002.8223 307.5084002  +6.2828060     5476.783     10529.09     11430.52     77.27116     154.9122      309.578      2.002     4.79     846.6052      54.5953      607.713        44     1.746     1.340  52.59   0
       707    704.3290   1003.1929 307.6102031  +6.2745065     977.1946     1710.826     2999.522     77.14763     154.4806     309.6704      2.013     5.00     851.2457      54.5953     148.9248        10     1.162     0.692  39.26   0
       708    233.8833   1002.8267 307.8055316  +6.2589741      1282.58     2018.521     2178.892     77.51764     154.6657     309.6704      1.637     4.32     851.8088      54.5953     192.1058        17     1.292     0.996  58.48   0
       709    709.4517   1000.8214 307.6081552  +6.2756560     2638.754      4286.97     4773.225     77.14763     154.9738     309.5472      1.713     3.95     851.0693      54.5953     351.9256        21     1.327     0.995  61.95   0
       710    432.3739   1001.7853 307.7231599  +6.2660300     874.7673     1315.202     1441.682      77.3945     154.7274     309.6704      1.771     5.79      851.735      54.5953     103.7896        10     1.209     0.781  23.04   0
       711    725.0419   1000.0027 307.6017096  +6.2765124     904.2325     1500.611     1899.122      77.0239      154.604     309.4547      1.802     5.07     850.6163      54.5953     125.3723        10     1.101     0.694  24.76   0
