#   1 NUMBER                 Running object number                                     
#   2 X_IMAGE                Object position along x                                    [pixel]
#   3 Y_IMAGE                Object position along y                                    [pixel]
#   4 ALPHA_J2000            Right ascension of barycenter (J2000)                      [deg]
#   5 DELTA_J2000            Declination of barycenter (J2000)                          [deg]
#   6 FLUX_APER              Flux vector within fixed circular aperture(s)              [count]
#   9 FLUXERR_APER           RMS error vector for aperture flux(es)                     [count]
#  12 FLUX_RADIUS            Fraction-of-light radii                                    [pixel]
#  13 FWHM_IMAGE             FWHM assuming a gaussian core                              [pixel]
#  14 BACKGROUND             Background at centroid position                            [count]
#  15 THRESHOLD              Detection threshold above background                       [count]
#  16 FLUX_MAX               Peak flux above background                                 [count]
#  17 ISOAREA_IMAGE          Isophotal area above Analysis threshold                    [pixel**2]
#  18 A_IMAGE                Profile RMS along major axis                               [pixel]
#  19 B_IMAGE                Profile RMS along minor axis                               [pixel]
#  20 THETA_IMAGE            Position angle (CCW/x)                                     [deg]
#  21 FLAGS                  Extraction flags                                          
         1    629.4466     28.9177 307.6804210  +6.6762594     3224.813     5615.453      6561.27     77.81606     155.2623      310.432      1.993     5.34     822.6741     54.71869      501.566        33     1.913     1.063  77.53   0
         2    698.1669     19.7752 307.6521763  +6.6823342     1924.486     2693.028     2593.709     77.19798     155.0153     310.2159      1.491     3.83     821.9435     54.71869     281.8506        16     1.278     0.793 -79.13   0
         3    263.6615     14.7249 307.8328709  +6.6698489     823.7038     1486.519     1984.028     78.06193     155.2623      310.432      1.980     5.65      829.707     54.71869     119.5672        10     1.040     0.881 -86.88   0
         4    186.3548     12.4786 307.8650642  +6.6681771     11728.44     17023.76     17915.44     77.81606     155.2623     310.4012      1.576     3.23     830.3523     54.71869     1517.681        39     1.397     1.096 -73.30   0
         5    932.0590     10.2981 307.5553144  +6.6940631     4414.552     6294.005     6165.485     77.56942     155.2006     310.5555      1.527     3.22     818.6078     54.71869     661.1082        24     1.218     0.999 -80.60   0
         6    530.5229     10.7590 307.7221322  +6.6804429      3134.25     4581.605      4301.18     77.69284     155.2623     310.4937      1.536     3.27      821.923     54.71869     465.3317        23     1.275     0.976 -77.62   0
         7    732.8635      8.8075 307.6381287  +6.6880232     2004.865     2684.103     2704.879     77.19798     155.0153     310.2468      1.394     3.21     820.7264     54.71869      337.037        11     1.035     0.663 -77.52   0
         8    468.8864      9.1828 307.7477937  +6.6790271     1951.995     2781.844     2415.581      77.4458     155.0153     310.3703      1.459     3.22      822.056     54.71869     290.6149        16     1.148     0.832 -71.64   0
         9    996.7455      6.4700 307.5285654  +6.6978019     2152.779     3254.887     3179.514     77.69284     155.1388     298.7621      1.632     3.54     816.8578     54.71869     325.1946        20     1.352     0.821 -78.20  16
        10    827.8715      7.9446 307.5986827  +6.6915555     478.6372     638.6429     674.7285     77.69283     155.2006     308.6678      1.416     4.02     819.1974     54.71869     73.95673         6     0.981     0.470 -50.68   0
        11    792.2012      5.7756 307.6135762  +6.6912590     520.2128     524.3942       939.18      77.4458     154.9534     292.1466      1.047     3.37      819.348     54.71869     89.94781         6     0.755     0.557 -51.08  16
        12    716.1140      3.0408 307.6452816  +6.6898439     7961.149      11046.3     10999.13     77.81606     145.2511     259.6043      1.465     3.19     821.0557     54.71869     1146.495        30     1.300     1.020 -69.79  24
        13    636.4155      2.4465 307.6784154  +6.6874221     4136.936     5518.872     5436.234     77.32199     138.4286     250.6666      1.455     3.33     822.3541     54.71869     556.3989        22     1.160     0.984 -75.05  24
        14    338.3569      1.9599 307.8022682  +6.6776286     1072.673      1541.19     1997.178     74.28856     132.1975     243.4533      1.481     4.09     829.2957     54.71869     150.3555        10     1.043     0.749 -62.90  24
        15    391.6085      1.2922 307.7801663  +6.6796922     498.3507     679.6218     605.5779     66.81956     122.4917     232.7082      1.122     3.04     825.6807     54.71869     124.4951         5     0.934     0.397 -15.18  24
        16    757.5575    993.9043 307.5948216  +6.2821132     7945.024     12254.24     13082.31     77.81606     155.2006     310.5555      1.667     3.33     852.6664     54.71869     943.5753        39     1.534     1.139 -79.62   0
        17    898.9235   1023.1582 307.5351522  +6.2747548      1217.26     1629.115     1748.252      73.3802     130.8864     241.9136      1.394     3.57     852.0419     54.71869     177.2639        11     0.984     0.820 -16.67  24
        18    800.5474   1023.7517 307.5759738  +6.2712256     563.3959     520.1623     757.7538     66.81956     122.1784     232.2962      0.998     3.77     851.1177     54.71869      118.314         6     0.943     0.432  -0.23  24
        19    591.7745   1022.4014 307.6626910  +6.2648031     73123.64     99183.42     102635.6      77.4458     140.1482     252.9874      1.506     3.50     855.2756     54.71869     9317.614        63     1.343     1.208 -25.44  24
        20    221.5469   1022.0491 307.8163966  +6.2525355     2130.186     3254.407     3400.693     77.93909     144.2582     258.0867      1.614     3.66     856.1351     54.71869     262.8226        19     1.224     0.937 -62.54  24
        21    553.0462    994.4732 307.6797068  +6.2750379     4414.417     6724.517     7848.828     77.69283      155.324      310.432      1.727     3.46     855.4749     54.71869     587.8663        30     1.514     1.062 -66.72   0
        22    303.4725    993.1174 307.7833615  +6.2672314     15338.44     23467.51     25849.66     78.06193     155.5705     310.4629      1.701     9.74     855.3355     54.71869     2139.041        61     2.085     1.269 -41.76   0
        23    818.9642    993.6990 307.5693347  +6.2842493      1029.79     1798.063     2069.509     77.81606     155.1388     310.6172      1.925     6.88     851.0851     54.71869     119.9561        15     1.246     1.139 -30.84   0
        24    427.7696    993.7064 307.7317409  +6.2711575     1194.638     1784.372     1855.975     77.93909     155.0153     310.3703      1.588     3.97     855.6221     54.71869     166.9903        11     1.106     0.678  83.84   0
        25    129.8755    993.7080 307.8554070  +6.2611563     498.8903     831.4157     110.5717     77.81606     155.3857      310.432      1.705     5.27     852.4445     54.71869     88.36371         5     1.003     0.783 -76.94   0
        26    274.2996    990.6286 307.7955560  +6.2672798     1015.774     1594.873     1385.305     77.81606     155.0153     310.4012      1.683     3.42     855.2917     54.71869     138.1469        10     1.023     0.663 -77.53   0
        27    918.9074    987.4357 307.5280512  +6.2901712     8408.986     13892.49     14817.06     77.93909     155.1388     310.4937      1.795     3.69     850.8159     54.71869     1005.099        42     1.514     1.250 -80.56   0
        28    550.2180    986.7327 307.6811409  +6.2781391     8687.393     12965.88     14500.84      77.4458     155.2006     310.3394      1.620     3.26     855.3849     54.71869       1146.1        34     1.394     1.078 -76.95   0
        29    892.5144    983.6236 307.5391364  +6.2908646     11852.28     19846.07     21447.72     77.81606     155.0153     310.3085      1.839     3.78     850.7549     54.71869     1409.907        53     1.560     1.429 -65.95   0
        30     48.9370    986.3773 307.8892538  +6.2614608     406.8938     698.4603     279.0204      77.4458     155.2623     310.3394      1.926     4.19     852.3269     54.71869     77.64368         5     1.073     0.466  62.18   0
        31    605.2198    984.2897 307.6583886  +6.2809889     1344.506     2095.862     2812.697     77.69284     155.0153     310.2776      1.787     4.57     854.3053     54.71869     177.5773        15     1.310     0.784 -74.58   0
        32      1.9480    985.6288 307.9087851  +6.2601885     577.5024     638.5393     357.1827     74.03017      132.125     243.2958      1.393     4.89     852.3069     54.71869     82.54657         5     1.239     0.547 -50.04  24
        33   1014.2927    983.0267 307.4885973  +6.2951724     4214.865     7329.914      7726.55     77.93909     155.0153     310.2776      1.849     4.16     847.8214     54.71869     472.4821        34     1.460     1.251 -74.22  16
        34    536.5223    982.5434 307.6869675  +6.2794102     4390.923     6544.787     7946.037     77.81606     155.2623     310.4012      1.767     3.33     855.3983     54.71869     606.4642        28     1.410     1.134 -86.13   2
        35    645.9980    982.1589 307.6415307  +6.2832330     1366.969      1997.58     1924.261     77.19798     155.0153     310.1541      1.483     4.71     854.1069     54.71869     197.9496        14     1.316     0.794 -62.37   0
        36    801.6621    980.8746 307.5769476  +6.2889665     744.0822     1223.503     1701.806     78.06193     155.2623      310.432      1.772     5.69      851.075     54.71869     101.9447         9     1.600     0.569 -73.74   0
        37     71.4169    981.2297 307.8800956  +6.2643424     932.7834      1580.71     1578.628      77.4458     155.0153     310.3703      1.781     3.94     852.2673     54.71869     139.0076        10     1.139     0.767 -53.65   0
        38    489.6234    979.1968 307.7065501  +6.2792211     2237.588     3314.662     3747.122      77.4458     154.9534     310.2776      1.569     3.70     855.3568     54.71869     302.9482        21     1.375     0.890 -85.81   0
        39    398.5860    978.1104 307.7443809  +6.2766184     615.9465     1028.341     1067.215     77.56942     155.0771     310.3085      1.660     5.57     855.2734     54.71869     91.94159         6     1.107     0.845 -29.63   0
        40    924.2097    971.1854 307.5263937  +6.2970578      42012.5     69099.91     73530.89     77.56941     155.0153     310.3703      1.770     3.72     850.1866     54.71869     5296.141        77     1.652     1.360 -78.63   0
        41    231.4740    969.5746 307.8140438  +6.2745344     1816.135     2705.439     2592.872      77.4458     155.1388     310.3703      1.620     4.25     854.4823     54.71869     253.2432        14     1.319     0.725 -67.41   0
        42    119.3934    968.6678 307.8606031  +6.2711423     716.2253     937.1814     425.1737     77.32198     155.0153     310.2468      1.303     3.99      852.177     54.71869     118.3809         6     0.949     0.479 -83.43   0
        43    630.3903    967.4374 307.6485045  +6.2887892     853.5184     938.3279     606.8167     77.19798     155.0771     310.1232      1.415     4.94     853.8791     54.71869     161.6902        11     1.276     0.581 -48.90   0
        44    822.2283    964.9148 307.5689438  +6.2962431     2232.351     3495.581     3707.617     77.93909     154.9534     310.3085      1.638     3.66     850.8226     54.71869     300.1428        20     1.236     0.981 -79.50   0
        45    770.3909    962.8053 307.5905360  +6.2953826     6587.771      10464.9     11227.46     77.19798     155.0153     310.2776      1.721     3.49     851.8785     54.71869     809.3408        38     1.557     1.119 -77.23   0
        46    738.3671    963.7994 307.6037981  +6.2939020        414.2     672.9359     341.3057     77.07376     155.0771      310.185      1.437     3.38     852.7405     54.71869      78.5744         5     0.750     0.440 -71.08   0
        47    556.9944    962.3488 307.6791467  +6.2884338     1071.736     1456.389      1273.63     77.32198     155.0771     310.0923      1.499     5.46      854.738     54.71869     144.9109        11     1.173     0.717 -78.75   0
        48    239.9152    961.7908 307.8108018  +6.2780317     1498.505     2425.278     2362.678      77.4458     154.9534     310.2776      1.603     4.03     854.3068     54.71869       223.08        12     1.183     0.689 -70.97   0
        49    204.1497    961.4532 307.8256609  +6.2769696     825.8962     1217.902     954.0789     77.93909     155.2006     310.4629      1.574     5.17     853.4764     54.71869     110.6077         9     1.134     0.667 -84.15   0
        50    958.5294    958.0076 307.5125858  +6.3036436     6434.325     11027.14     11277.37     77.32198     154.8916     310.3394      1.829     3.77     848.5733     54.71869     762.0312        41     1.516     1.300 -70.16   0
        51     64.8017    959.7465 307.8835668  +6.2729896     2848.577     4397.834     4763.833     77.19798     155.0153     310.0305      1.618     3.49     851.9657     54.71869     385.5061        20     1.324     0.850 -67.24   0
        52    214.8494    953.9534 307.8214718  +6.2804256     805.8763     1125.669     750.1336     77.81606     155.1388     310.4937      1.371     3.80     853.5852     54.71869     124.6985         6     0.905     0.472 -57.44   0
        53    932.5115    949.8774 307.5236600  +6.3061327     2152.914     3624.716     3688.077     77.81606     155.5089     310.4937      1.759     4.52     849.1759     54.71869     287.7856        26     1.529     1.122 -75.14   0
        54    640.6103    951.9639 307.6447808  +6.2955200     721.0339     1074.528     748.6469     77.32198     155.0771     310.2159      1.414     3.29     853.5998     54.71869     128.2521         6     0.973     0.732 -87.06   0
        55    265.2648    945.6768 307.8008209  +6.2855360      4571.23     6699.267     7592.152     77.93909     155.2623      310.432      1.618     3.45     854.1976     54.71869     630.5458        28     1.324     1.054 -76.82   0
        56    792.0760    945.7812 307.5821034  +6.3031361     1387.551     2177.223      2364.45     77.32198     155.0153     310.3703      1.644     4.22     851.2351     54.71869     185.4033        17     1.332     0.903 -71.04   0
        57    653.0513    945.5294 307.6398316  +6.2985929     4876.765     7119.565     7354.906     77.69283     155.2006     310.4629      1.587     3.42     853.4838     54.71869     646.6905        27     1.348     1.017 -77.36   0
        58   1002.9112    945.3596 307.4945822  +6.3103456     600.7327     937.9442     1188.514     77.81606     155.2006     310.4629      1.481     3.84     846.3929     54.71869     95.95599         5     0.888     0.476   4.57   0
        59    475.2767    943.4946 307.7137064  +6.2934813     1286.781     1949.471      1710.33     77.56942     155.3857     310.4937      1.613     3.97     854.7469     54.71869     185.5341        17     1.231     0.904 -79.81   0
        60     33.8488    943.2316 307.8969739  +6.2787666     2162.357     3445.298     3739.507     77.56941     155.2623     310.3703      1.650     3.79     851.6309     54.71869      330.056        24     1.505     0.936 -74.99   0
        61    884.9510    942.2515 307.5436617  +6.3076945     936.5851     1350.532     1207.592     77.93909     155.1388     310.4012      1.587     4.40     849.5038     54.71869     124.0127        10     0.924     0.864  28.91   0
        62    956.4134    939.2729 307.5140911  +6.3113085     876.7966     1253.225     1131.786     77.32198     154.9534     310.2159      1.502     4.45     847.8699     54.71869     113.6967         9     0.944     0.703 -72.06   0
        63    301.2803    939.6259 307.7860727  +6.2892434     1010.559     1443.311      1628.89     77.69284     155.0771      310.432      1.506     4.29     854.5068     54.71869     148.1204        12     1.133     0.834  89.74   0
        64   1009.2493    937.1079 307.4922266  +6.3139640     846.5426     1713.833     2088.829     77.69283     155.1388     310.5863      2.291     7.47     845.7894     54.71869     112.5315        15     1.620     0.964 -70.55   0
        65    577.7977    938.0089 307.6713273  +6.2991799     1723.139     2657.192     2290.906     77.19798     154.9534     310.2468      1.540     2.90      853.894     54.71869     304.5262        15     1.082     0.846  87.16   0
        66     66.6637    935.4761 307.8836130  +6.2830728     828.1969     1160.005     1311.474     78.06193     155.2623     310.4012      1.183     4.22     851.6189     54.71869     191.9541         8     1.301     0.421 -68.63   0
        67    617.0611    934.2800 307.6551514  +6.3020336     1340.891     1848.913     2156.756     77.93909     155.2623      310.432      1.540     4.69     853.3019     54.71869     174.9342        12     1.095     0.788 -64.83   0
        68     61.3763    933.7862 307.8858651  +6.2835926     534.1373     766.1335     979.3751     77.56942     155.0771     310.3703      1.825     4.61     851.5834     54.71869     75.10638         5     0.834     0.724  14.04   0
        69    296.7521    932.0009 307.7882094  +6.2922396     1521.217     2084.568     2179.972     77.19798     154.8916     309.9996      1.487     3.40     854.3689     54.71869     243.7976        16     1.191     0.837 -79.30   0
        70    564.7482    930.4063 307.6770004  +6.3018820     680.7421       844.98     372.1534     77.32198     155.0771     310.0923      1.378     4.33     853.9468     54.71869      86.5639         7     0.976     0.547 -57.88   0
        71    763.5885    928.5834 307.5945073  +6.3092852     1024.727     1553.845     1178.894     77.56942     154.9534     310.3394      1.630     4.50     851.5856     54.71869     131.5536        11     1.002     0.809 -72.27   0
        72    901.2991    924.7612 307.5374597  +6.3154617     7048.191     10745.93     11091.65     77.81606     155.1388      310.648      1.655     3.53     848.8132     54.71869     875.0779        33     1.398     1.101 -75.18   0
        73    139.0356    925.5439 307.8539034  +6.2896074     610.1289     981.2927     1116.356     77.69283     155.2623     310.4629      1.442     3.32     851.7753     54.71869     89.88342         6     0.782     0.497   2.64   0
        74    437.2520    922.0002 307.7302157  +6.3010816     2251.143     3371.772     3630.413     77.07376     154.7678     309.9996      1.570     3.61     854.3376     54.71869     368.4257        18     1.262     0.884 -77.86   0
        75    338.8367    920.2833 307.7711321  +6.2984900     10187.52     14883.08     15334.23     77.81606     155.2006     310.3703      1.559     3.47     854.3394     54.71869     1510.967        38     1.419     1.071 -67.65   0
        76    606.0196    921.9293 307.6601502  +6.3067636     645.1363     771.6702     460.8107      77.4458     155.1388     310.3703      1.344     4.95     853.1613     54.71869     87.60449         7     1.079     0.644 -59.89   0
        77    258.9534    919.2247 307.8043322  +6.2962456     7475.403     10783.66     11743.07      77.4458     155.2623     310.3085      1.529     3.36     853.6082     54.71869     1099.684        29     1.321     1.043 -72.25   0
        78    177.0549    917.8547 307.8383790  +6.2940600     565.5328     731.6527     1058.103     78.06193     155.2623      310.432      1.512     3.84     852.0247     54.71869     84.86157         5     0.810     0.522  58.75   0
        79    586.9114    913.7512 307.6683581  +6.3095007     1342.959     1948.246     1967.533     77.81606     155.1388     310.5246      1.548     4.36     853.2812     54.71869     186.9718        14     1.266     0.732 -80.78   0
        80    770.9044    913.4667 307.5919766  +6.3157713     726.3022     1339.466     1344.488     77.81606     155.3857     310.4629      1.923     6.30      851.153     54.71869     93.40649        10     1.194     0.934  72.30   0
        81    917.0931    910.0656 307.5313940  +6.3220565     1155.665     1426.453     1725.131     77.81606     155.4473      310.432      1.372     3.91     848.3151     54.71869     203.7493        12     1.132     0.711  81.18   0
        82    220.7173    908.8467 307.8205559  +6.2992462     606.5187     1035.597      742.304     77.81606     155.2623      310.432      1.617     4.82     852.8647     54.71869     105.5667         6     1.134     0.692 -75.21   0
        83    873.6187    908.4813 307.5494975  +6.3212598      722.324     1045.595      1128.55      77.4458     154.9534     310.3703      1.482     5.30     848.9257     54.71869      113.983         9     1.290     0.615  82.77   0
        84    415.5344    908.1495 307.7396981  +6.3060723     660.8952     832.0853     793.5618     77.69283     155.2006      310.432      1.341     4.32     854.0891     54.71869     82.40527         6     1.077     0.493 -85.27   0
        85    920.9915    906.3987 307.5298981  +6.3237006     525.9185     932.8276     1206.484     77.19798     154.9534     310.2159      1.771     4.74     848.1837     54.71869     112.0327         5     1.110     0.575  78.70   0
        86    984.6015    905.0784 307.5035315  +6.3263672     797.5151     1425.978     2001.055     77.07376     154.7059     310.2159      2.218     6.25     845.8681     54.71869      117.481        11     1.189     0.931 -34.38   0
        87    753.4266    903.3034 307.5995739  +6.3193836     1817.284     2798.993     3061.825     77.93909     155.0153     310.3703      1.743     3.91     851.2942     54.71869     239.4446        17     1.227     0.874 -79.55   0
        88    576.9782    903.4974 307.6728266  +6.3134018     744.3412     1137.452      1753.13     77.69283     155.0771     310.2468      2.302     4.27     853.1654     54.71869     130.0284         8     1.214     0.601 -73.37   0
        89    846.6503    903.6038 307.5608580  +6.3223734     539.7604     959.9381      592.603     77.19798     155.0153     310.0305      1.820     4.83     849.3902     54.71869     87.99744         6     1.174     0.563 -63.12   0
        90      3.7878    900.4465 307.9108982  +6.2954195     752.8222     1060.381     1047.275     77.19798     151.6409     269.3494      1.588     4.79     850.0741     54.71869     136.4026         8     1.187     0.793  82.28  16
        91    984.9602    898.6296 307.5035983  +6.3290419     1208.948     2328.616     2782.971     77.32198     154.9534     310.3085      2.114     5.49     845.7528     54.71869     174.7433        17     1.284     1.042  86.37   0
        92    617.5322    899.4255 307.6561259  +6.3164404     766.4728     1129.165     1864.125      77.4458     155.1388     310.3394      1.909     4.58     852.7313     54.71869     110.4809         8     1.251     0.476 -56.76   0
        93    538.5318    898.8186 307.6889460  +6.3140464     1193.407     1718.677     1684.125      77.4458     155.1388     310.3703      1.450     4.09     853.3679     54.71869     195.3296        12     1.269     0.671 -85.15   0
        94    629.3418    898.9915 307.6512373  +6.3170148     644.6805     819.1995      738.272     77.19798     155.2006     310.1541      1.269     3.85     852.6437     54.71869     111.6793         7     0.984     0.613 -73.91   0
        95    672.0617    896.2004 307.6335941  +6.3195962     2629.892     3993.166     4059.801     77.07376     155.0153     310.1232      1.555     3.89     852.2123     54.71869     390.4396        18     1.269     0.865 -67.63   0
        96     68.5214    892.2395 307.8843012  +6.3009864     2998.463     4680.337      4728.18     77.69284      155.324      310.432      1.683     3.74     850.5075     54.71869     385.5644        25     1.447     1.002 -77.56   0
        97    832.5729    892.4407 307.5670768  +6.3265126     802.8242     1200.135     1662.646      77.4458     155.0771     310.2776      1.604     3.77     849.4464     54.71869       131.31         9     1.098     0.837  78.95   0
        98     86.1090    891.7746 307.8770153  +6.3017700     1965.146     2909.634     3670.373     77.93909     155.0153     310.2776      1.661     3.78     850.7086     54.71869     297.1543        19     1.276     0.910 -71.75   0
        99    950.0050    891.7003 307.5183436  +6.3307373     837.3724     1095.308     665.3347     77.56941     154.8916     310.0923      1.621     5.07     846.9872     54.71869     112.1388        10     0.973     0.748 -83.89   0
       100    212.0968    891.3065 307.8247260  +6.3061986     2459.533     3381.551     3260.827     77.81606     155.8167     310.3394      1.502     3.60     852.5924     54.71869     362.1145        15     1.105     0.849 -83.23   0
       101    968.7651    889.2060 307.5106378  +6.3323929     470.6601     736.0969      1223.55     77.07376     155.0153     310.2159      1.686     3.15     846.1873     54.71869      82.5329         5     0.821     0.638 -39.09   0
       102    245.9775    887.9582 307.8107728  +6.3087191     837.9407     1347.345     1222.516      77.4458     155.0771     310.2159      1.912     4.56     853.2476     54.71869     130.6848         9     1.158     0.602 -84.57   0
       103    666.5363    885.4388 307.6362493  +6.3238548     7399.659     10635.56     10731.68     77.81606     155.2006     310.4937      1.569     3.32     851.9438     54.71869     984.7211        31     1.351     1.040 -73.48   0
       104    350.9586    887.7240 307.7671955  +6.3123398     1019.931     1503.159     1738.422     77.69283     155.2623     310.4629      1.697     4.26     853.9241     54.71869     155.3329        11     1.030     0.777 -61.87   0
       105    804.4410    886.1207 307.5789689  +6.3281826     685.3317     1052.112     983.5748     77.69283     155.2623      310.432      1.645     3.88     849.8778     54.71869     108.9684         7     1.019     0.905 -32.85   0
       106     26.4889    883.6781 307.9020402  +6.3031068     1234.961     1869.911     1723.553     77.56942     155.5089     310.5555      1.613     4.08     849.7014     54.71869     181.3523        14     1.305     0.779 -67.54   0
       107    904.4451    881.8647 307.5375895  +6.3332785     2685.548     4544.846     4617.869     77.81606     155.2006      310.432      1.829     4.20     848.0239     54.71869     353.4729        25     1.450     1.084 -78.83   0
       108     39.5461    882.1069 307.8966725  +6.3041950     1149.314     1828.851     1870.351     77.69283     155.2006     310.6172      1.680     4.70     849.8226     54.71869     162.2689        12     1.359     0.661 -64.00   0
       109    456.1248    882.6346 307.7237039  +6.3179677     749.4627     984.7394     560.8804     77.69283      155.324     310.4012      1.359     4.87     853.2129     54.71869     103.6706         8     1.034     0.650 -60.75   0
       110    349.5824    878.5308 307.7680763  +6.3160893     17718.74      25779.1     27153.05     77.32199     155.1388     310.3394      1.595     3.38     853.7969     54.71869     2385.631        47     1.459     1.111 -75.61   0
       111     84.1665    879.5635 307.8782339  +6.3067463     1426.996     1889.668     2339.223     77.56942     155.0153      310.185      1.501     4.06     850.3878     54.71869     193.6985        13     1.129     0.772  82.01   0
       112    220.5074    878.0939 307.8216796  +6.3119363     1374.719     1834.956     1611.321     77.81606     155.7552      310.432      1.475     3.79     852.8261     54.71869     209.7885        13     1.202     0.765 -67.76   0
       113    400.2051    877.4521 307.7470951  +6.3182327     711.6631     923.7563     1295.876     77.19798     155.0153     310.0923      1.400     4.16     853.5482     54.71869     91.66858         6     1.071     0.462 -58.10   0
       114    112.8705    869.1717 307.8666678  +6.3120022     1648.666     2393.197     1988.409     77.56941     155.2623     310.4012      1.557     3.41     850.4344     54.71869     277.0317        19     1.302     0.877 -71.91   0
       115    427.2617    869.4017 307.7361325  +6.3224638     1192.445     1809.964       1516.1     77.19798     155.0771     310.1541      1.500     4.18     853.1826     54.71869     179.7511        12     1.207     0.659 -72.29   0
       116    507.6228    866.0673 307.7028796  +6.3265337     668.8839     1098.295     1560.282      77.4458     155.2006     310.3703      1.768     4.75     852.3894     54.71869     98.62701         6     1.360     0.470 -67.51   0
       117    680.8810    865.3696 307.6309669  +6.3326209     809.7512     1000.711     1315.242     77.69283     155.1388     310.4012      1.765     5.16     851.2473     54.71869     104.7261         9     1.202     0.625 -68.62   0
       118    894.7128    863.3310 307.5422509  +6.3406062     1991.469     3208.083     3384.127     77.81606     155.5089     310.4629      1.717     4.18     847.8224     54.71869     248.3811        21     1.381     0.999 -68.08   0
       119    828.9145    862.3448 307.5696041  +6.3388169     3246.367     4890.833     5126.742     77.81606     155.2623     310.5863      1.616     3.61     848.8952     54.71869     441.4357        27     1.410     1.058 -77.30   0
       120    865.4246    862.8938 307.5544263  +6.3398092     2202.814     3081.094     3036.801     77.93909     155.0153     310.2776      1.532     3.69     848.3374     54.71869     314.6265        18     1.241     0.887 -76.00   0
       121     96.3662    862.8006 307.8737347  +6.3140776     2606.014     3674.115     4071.124     76.94935     155.0771      310.185      1.523     3.25     850.1903     54.71869     339.5226        18     1.191     0.864 -73.76   0
       122    564.6544    853.7917 307.6796129  +6.3335121     355604.2     515621.3     539597.5     77.32198     155.2006     310.1541      1.549     3.22      851.884     54.71869     48130.81       180     1.624     1.304 -74.02   0
       123    344.6728    860.4203 307.7707244  +6.3234020     711.1531     1059.476       1040.3      77.4458     155.1388     310.4012      1.579     4.21     853.4407     54.71869     108.6473         7     0.953     0.531 -59.48   0
       124    459.2372    860.4335 307.7231583  +6.3272385     627.8205     665.9557     1121.121     77.56942     155.0153     310.2159      1.361     4.17     852.4656     54.71869     95.95831         5     0.877     0.565 -51.95   0
       125    408.8545    856.3362 307.7442145  +6.3272411     8157.726     11841.87     12489.33     77.93909     155.2006     310.4012      1.539     3.28     852.8531     54.71869     1255.764        33     1.386     1.059 -81.51   0
       126    652.4426    856.9346 307.6430576  +6.3351524     1293.926      1888.36     1988.208     77.81606     155.2006     310.4629      1.543     3.81     851.3843     54.71869     176.6298        14     1.159     0.804 -59.62   0
       127    352.0941    854.7335 307.7678346  +6.3259990     13414.92     19587.39     20440.66     77.69283     155.4473      310.432      1.555     3.36     853.2803     54.71869     1901.256        43     1.418     1.120 -71.26   0
       128    670.5744    851.0154 307.6357279  +6.3382029     3740.034     5409.963     5702.303     77.56941     155.1388     310.3703      1.514     3.28     850.9579     54.71869     496.8967        22     1.234     0.969 -77.22   0
       129    903.0299    850.0121 307.5392435  +6.3463831     5302.696     8427.686     9281.692     77.32198     155.0153     310.3085      1.694     3.50     847.2924     54.71869     673.9662        33     1.387     1.158 -70.74   2
       130    742.2267    847.7844 307.6060857  +6.3419327     665.9399     996.8166     786.1473      77.4458     155.0771     310.3394      1.570     4.93     850.3235     54.71869     141.8511         9     1.319     0.521 -77.64   0
       131    645.2859    844.9668 307.6464308  +6.3398544     3594.019     5065.425     5300.161     77.81606     155.1388      310.432      1.466     3.09     851.1032     54.71869     504.4994        20     1.175     0.916 -74.36   0
       132    635.6398    844.4206 307.6504543  +6.3397572     1145.515     1806.786     2387.286      77.4458     155.0771      310.185      1.741     4.89     851.1715     54.71869     145.5273        12     1.324     0.678 -86.91   3
       133    638.2094    839.6215 307.6495485  +6.3418247     2253.939     3711.664     4602.514      77.4458     155.0153     310.2468      2.003     3.56     851.0145     54.71869     338.2938        23     1.379     0.977 -89.95   2
       134    833.6650    844.1699 307.5682405  +6.3464798     1830.275     2604.795     2498.014     77.56942     155.3857     310.3703      1.556     3.41      848.499     54.71869     267.2329        17     1.183     0.900 -82.41   0
       135    187.6531    844.6025 307.8364488  +6.3246603      625.912     903.3682     1024.784     77.19798     155.0153     310.0305      1.584     5.91      851.238     54.71869       119.72         7     1.232     0.799 -69.29   0
       136    960.7354    843.0699 307.5155155  +6.3511745     825.2933     1401.148     1513.647     77.81606      155.324      310.432      1.759     4.66      845.528     54.71869     108.6091        10     1.024     0.847  36.62   0
       137    921.7705    837.7574 307.5318723  +6.3520683      3190.42     5139.786     4918.316      77.4458     155.2006     310.3085      1.660     3.70     846.4319     54.71869     435.5424        29     1.457     1.088 -84.51   0
       138    331.8312    838.5057 307.7767939  +6.3320193     1088.439     1412.781     1814.777     77.93909     155.0771      310.432      1.467     3.15     852.7674     54.71869     164.8432        10     0.964     0.675 -80.97   0
       139    379.9434    833.6676 307.7569809  +6.3356310     2770.849     3965.688     3615.523     77.93909     155.2006     310.4012      1.495     3.34      852.229     54.71869     422.7883        22     1.405     0.891 -74.43   0
       140    516.2976    823.2681 307.7007163  +6.3444955     3328.737     4672.098      4520.71     77.81606     155.3857     310.4012      1.469     3.31     850.7299     54.71869     504.9486        22     1.290     0.862 -71.56   0
       141    860.9930    822.5780 307.5576167  +6.3563074     1168.299     1768.938     2087.552     77.32198     155.0771     310.2468      1.761     3.99     847.7378     54.71869     174.1352        14     1.255     0.713 -87.73   0
       142    581.4635    821.2186 307.6737278  +6.3475240     788.6909     1006.029     653.9086      77.4458     155.2623     310.3085      1.232     3.98     850.5245     54.71869     123.8174         7     0.991     0.457 -76.93   0
       143    563.0718    819.5910 307.6814189  +6.3475802      6557.47     9691.655     10720.22     77.32198     154.8297     310.2468      1.584     3.39     850.4833     54.71869      965.306        27     1.343     0.976 -71.92   0
       144    569.8681    818.9357 307.6786190  +6.3480783     1282.709     2188.592     2562.205     77.81606     155.2623     310.4629      1.858     4.30     850.4421     54.71869     166.3082        16     1.229     0.933 -57.47   0
       145    480.7061    818.5102 307.7156541  +6.3452675     1621.597     2457.357     2076.243     77.81606     155.7552     310.4629      1.506     3.61     850.7361     54.71869     265.4911        15     1.251     0.801 -63.44   0
       146    274.3787    819.6480 307.8012827  +6.3378767     708.0178     971.4913     1226.139      77.4458     155.2623     310.3085      1.488     3.82     851.9526     54.71869     112.9591         7     1.093     0.483  87.31   0
       147    898.8113    817.8898 307.5420706  +6.3595055     1445.765     1993.755     1438.762     77.56941     154.9534     310.2468      1.462     3.74     846.4598     54.71869     192.6118        13     1.210     0.715 -65.57   0
       148    122.4522    817.7649 307.8644242  +6.3335490      1416.78     1932.797      2036.46     77.69284     155.2623     310.3703      1.547     3.76     849.7416     54.71869     194.0239        13     1.131     0.790 -70.52   0
       149    698.4702    816.1180 307.6253161  +6.3535446     895.3821     1365.404     1456.798     78.06193     155.5089     310.4629      1.497     6.21     849.7615     54.71869     136.2762        12     1.507     0.718  88.51   0
       150    533.7730    813.4639 307.6937899  +6.3491289     21532.93     30460.73     31887.49      77.4458     155.2623     310.3394      1.545     3.39     850.2513     54.71869     3082.024        46     1.405     1.088 -72.86   0
       151    375.2465    815.1539 307.7595541  +6.3431175     827.6959     1082.402     708.8197     77.81606     155.1388      310.432      1.406     3.40     851.5797     54.71869     141.3126         8     0.878     0.675  -3.91   0
       152    180.2070    813.3506 307.8405942  +6.3373131     627.5981     814.8817     367.4752     77.32198     155.0771     310.0614      1.497     4.31     850.5299     54.71869     110.8818         7     1.104     0.601 -39.73   0
       153    947.4312    811.6320 307.5220917  +6.3637114      3911.08     6089.192     5931.847     77.32198     155.0153     310.1541      1.665     3.50     844.9786     54.71869     485.5978        26     1.375     1.015 -70.23   0
       154     67.6050    809.5446 307.8874732  +6.3350980     628.9033     892.7399     774.4216     77.19798     155.0771     310.1541      1.502     4.34     849.1239     54.71869     100.3579         5     0.980     0.767  86.68   0
       155    419.6996    808.9543 307.7413057  +6.3471680     719.2258     1146.594     1080.869     77.81606     155.2623      310.648      1.685     4.60     850.4824     54.71869     128.7059         7     1.133     0.530 -64.70   0
       156     44.1984    803.8580 307.8973831  +6.3366582     1649.006      2555.64     2448.024     77.19798     154.9534     310.1541      1.634     3.70     849.0375     54.71869     219.9164        16     1.206     0.843 -70.92   0
       157    326.2959    802.1902 307.7803149  +6.3468275      3559.03     5037.358     5016.822     77.56942     154.8916     310.2159      1.498     3.10     851.5812     54.71869     544.2412        23     1.299     0.941 -67.78   0
       158    791.9164    798.0375 307.5871214  +6.3641332     58297.23     84920.15     89006.86     77.81606     155.2006     310.3703      1.524     3.40     848.2166     54.71869     8310.199        74     1.494     1.200 -72.19   0
       159    588.9534    802.9608 307.6712311  +6.3553131     575.1068     957.1888     1870.634     77.69283     155.2623     310.2776      1.506     3.79      849.783     54.71869     77.29553         5     1.048     0.393  57.45   0
       160     26.2256    800.2289 307.9049676  +6.3375516      2282.87     3101.525     3022.311     77.32198     155.0771     310.3085      1.442     3.75     849.0026     54.71869     296.4128        20     1.392     0.825 -73.88   0
       161    635.9307    801.7626 307.6517655  +6.3573800     481.3779      771.031     685.7397     77.69283     155.2623     310.5246      1.488     3.77     849.7347     54.71869     93.75604         5     0.799     0.511 -54.59   0
       162    730.5131    799.7351 307.6125608  +6.3613803      687.168     1090.085     1829.657     77.81606     155.4473     310.4629      1.790     4.96     848.8036     54.71869     92.64178         8     1.102     0.632 -53.03   0
       163    435.1956    796.5944 307.7352874  +6.3527908     884.1528     1210.251     968.1376     77.19798     154.9534     310.3085      1.447     4.74     849.9935     54.71869     127.1594        10     1.204     0.634 -76.51   0
       164    248.6814    774.4927 307.8134738  +6.3556573       767470      1729784      1903936     77.56942     155.5705     310.4937      2.242     4.42     850.2831     54.71869     63783.91       631     2.874     2.043 -83.54   4
       165    914.0844    784.7254 307.5368391  +6.3737086     7043.219     10417.51     10762.04     77.93909     155.5705     310.4937      1.596     3.30     845.1261     54.71869     943.6291        33     1.381     1.089 -76.60   2
       166    720.1689    792.6329 307.6170942  +6.3639670     22581.79     33380.44      35999.5     77.32198     155.0153     310.1541      1.594     3.30     848.7466     54.71869     3248.205        52     1.518     1.147 -74.13   3
       167    713.8732    789.1207 307.6198261  +6.3652066     94606.55     136053.5     142404.1     78.06193     155.5089     310.4629      1.524     3.38     848.6895     54.71869     13540.76        86     1.519     1.195 -75.59   3
       168    407.8031    790.3646 307.7468707  +6.3544445     1491.273     2262.708     2610.278     76.94935     155.0771     310.2159      1.639     5.27     849.9964     54.71869     203.7297        15     1.450     0.719 -75.20   0
       169    358.7610    789.9239 307.7672482  +6.3529814     21769.55        31887     33454.52     77.69283     155.2623     310.4629      1.541     3.30     850.9607     54.71869     3138.889        50     1.450     1.128 -75.78   0
       170    420.6260    787.7925 307.7416330  +6.3559364     23623.73     34524.49     36674.26     77.32198     155.1388     310.2776      1.546     3.29     849.7677     54.71869     3224.123        50     1.447     1.110 -73.85   0
       171    917.2181    793.1919 307.5352544  +6.3703173     8819.822     13348.75     14457.73      77.4458     155.0153     310.2776      1.619     3.31     845.1423     54.71869     1230.623        38     1.433     1.147 -78.01   2
       172    647.4097    789.4177 307.6474136  +6.3628612     916.4341     1213.143     1399.873     77.56942     155.0153     310.3085      1.470     4.06     849.1506     54.71869     130.4052         7     0.994     0.473 -81.11   0
       173    957.7877    786.7586 307.5186238  +6.3743270     2004.395      3189.76     3379.377     77.19798     155.0771      310.185      1.672     3.77     844.3152     54.71869     298.5304        22     1.327     0.974 -80.03   0
       174    624.7307    787.8951 307.6568815  +6.3627310     416.6861     589.2133     497.6955     77.69283      155.324     310.4629      1.122     3.45     849.1035     54.71869     92.85919         5     1.015     0.340 -47.47   0
       175    887.3022    785.5109 307.5479338  +6.3724904      827.881     1025.317     1160.061     77.81606     155.6937      310.432      1.451     4.92      846.048     54.71869     110.3504         9     1.059     0.646 -82.64   0
       176    654.6643    783.6906 307.6445935  +6.3654685     6972.788     9897.815     10286.73     77.69284     155.4473     310.4937      1.518     3.29     848.9221     54.71869     983.0487        29     1.303     1.000 -68.24   0
       177    144.5882    784.1916 307.8563663  +6.3481548     466.5918     696.1453     543.5192      77.4458     155.0771     310.3703      1.373     4.44     849.5448     54.71869      68.6308         5     1.188     0.473 -82.79   0
       178    443.2800    781.6963 307.7324318  +6.3592130     1806.212     2652.963     2671.316     77.56942     155.5089     310.5246      1.574     3.28     849.6057     54.71869     259.2279        13     1.107     0.741 -66.01   0
       179    168.3642    781.4242 307.8465879  +6.3500967     784.5904     863.2838     315.7624      77.4458     155.0771     310.2159      1.240     3.72     849.8141     54.71869     141.3369         7     0.875     0.648 -67.38   0
       180    607.6141    776.0764 307.6643856  +6.3670380     1101.408     1451.527     1533.821      77.4458     155.0153     310.2468      1.427     3.67     848.5506     54.71869     167.0859        12     1.215     0.704 -74.78   0
       181    882.5895    775.7213 307.5502185  +6.3763753     693.8855     995.3118     806.9361      77.4458     155.0153     310.2776      1.515     3.58     845.9005     54.71869     120.8154         7     0.957     0.484 -83.88   0
       182    689.8344    773.7269 307.6303242  +6.3707588     2672.371     3964.787     4130.344     77.69283     155.2006     310.4012      1.590     3.60     848.3532     54.71869     364.1724        21     1.269     0.935 -64.28   0
       183    423.5508    770.4966 307.7410005  +6.3631757      58678.3     82997.42     86938.16     77.69284     155.2006     310.5863      1.568     3.30     849.3109     54.71869     7967.432        74     1.484     1.207 -65.84   0
       184    158.7614    774.6376 307.8508039  +6.3525759     972.1674      1626.42     1767.962     77.56942     155.1388     310.3085      1.792     5.20     849.5887     54.71869     126.8597        10     1.245     0.614 -56.39   0
       185    133.9932    774.2675 307.8611001  +6.3518960     1022.419     1771.476     1616.524     77.32198     155.0153     310.2468      1.734     4.40     849.1138     54.71869     173.5271        13     1.313     0.899  79.51   0
       186     75.2271    772.3638 307.8855637  +6.3507053     537.6513     734.5944     1051.628     77.32198     154.9534     310.2159      1.475     4.87     848.4032     54.71869     88.45135         5     1.072     0.627 -63.93   0
       187    966.4882    771.7045 307.5155147  +6.3808330     740.6179     1091.247     1167.721     77.81606     155.6321     310.4937      1.605     3.73      843.936     54.71869     117.3455         7     0.961     0.493  84.32   0
       188    541.3323    769.5101 307.6921282  +6.3675300     7705.023     10955.92     11153.46     77.93909     155.3857     310.4012      1.552     3.15     848.3448     54.71869     1045.393        31     1.343     1.023 -69.56   0
       189    458.1733    768.0814 307.7267058  +6.3653336     4816.524     6859.152     7848.832     77.69283     155.0771      310.432      1.525     3.51     849.2319     54.71869     662.2224        25     1.242     0.993 -75.84   0
       190    786.5339    766.1705 307.5904246  +6.3771111     12447.58     17978.92     18730.85     77.56942     155.2623     310.3703      1.552     3.19     847.6398     54.71869     1638.366        39     1.375     1.133 -67.35   0
       191    454.6475    761.5494 307.7283895  +6.3679124       2543.9     3354.489     3401.492     77.81606     155.1388      310.432      1.492     3.35     849.0777     54.71869     354.7949        20     1.188     0.944 -82.96   0
       192     15.8853    761.8934 307.9105556  +6.3530311     1157.786     1332.115     1558.688     77.69283     155.6937     310.5246      1.411     3.11     848.1891     54.71869     160.8644        11     0.874     0.835 -84.72   0
       193    808.3630    760.3514 307.5815554  +6.3802430     1515.597      2073.26     1496.957     77.69284     155.2006     310.3394      1.473     3.03     847.3044     54.71869     245.5253        15     1.060     0.859 -65.53   0
       194    144.3090    758.0687 307.8573635  +6.3589309     12332.85      18008.8     19280.44     77.81606     155.3857      310.432      1.548     3.24     848.9228     54.71869     1747.766        44     1.417     1.172 -58.35   2
       195    136.4144    755.3004 307.8607347  +6.3598084       3239.2     4868.521     5587.131     77.81606     155.0153     310.1232      1.698     3.34     848.7146     54.71869     432.1628        27     1.330     1.201 -76.67   3
       196    136.5802    749.0352 307.8608773  +6.3624008     2071.084     3014.236      2842.86     77.32198     155.0771     310.2159      1.496     3.93     848.5942     54.71869     252.5807        18     1.240     0.936 -72.24   3
       197    152.3681    758.4512 307.8540044  +6.3590440     3274.439     4930.021     4609.513     77.69284      155.324     310.3703      1.609     3.55     849.0623     54.71869      435.785        23     1.302     0.963 -71.03   0
       198    981.0704    754.7610 307.5100264  +6.3883151     1560.134     2566.437     3592.868     77.69283     155.2623     310.4937      2.408     4.56     843.3145     54.71869     214.9663        16     1.419     0.843 -78.20   0
       199    932.1461    754.7261 307.5303434  +6.3866978     6667.546      10158.4      10563.6     77.69283     155.2623     310.4012      1.609     3.37     844.2809     54.71869     940.2604        37     1.443     1.138 -72.92   0
       200    687.6643    752.2759 307.6319452  +6.3795431     1867.936     2557.491     2418.402     78.06193     155.2623     310.4012      1.500     3.24     847.4626     54.71869     260.3842        16     1.179     0.822 -80.85   0
       201    574.4197    751.4844 307.6789950  +6.3760806     2579.062     3704.308     4292.849      77.4458     154.9534     310.4012      1.564     3.42     847.4083     54.71869     335.1978        19     1.279     0.854 -65.46   0
       202    422.1066    751.4638 307.7422405  +6.3709856     1227.266     1609.264     1858.754     77.81606      155.324     310.4937      1.478     3.77     848.8324     54.71869     174.3025        12     1.046     0.869  80.92   0
       203    926.3766    746.8338 307.5330034  +6.3897640     3167.314     4798.509     5272.396     77.32198     155.0153     310.2159      1.638     3.34     844.3166     54.71869     429.2712        22     1.272     0.982  87.33   0
       204    986.6125    745.7914 307.5080251  +6.3922035     1862.323     2966.235     3356.472      77.4458     155.0771     310.3703      1.712     3.71      842.975     54.71869     279.7115        19     1.223     1.021 -79.78   0
       205    955.7302    746.2161 307.5208350  +6.3909982     3127.378     4581.908     4227.618     77.32198     155.1388     310.3394      1.541     3.45     843.6583     54.71869     406.4807        22     1.243     0.978 -75.86   0
       206    678.6658    745.8390 307.6358977  +6.3818999     1537.934     2131.558     2201.139     77.69283     155.2006     310.5246      1.462     3.47     847.1982     54.71869     226.3973        16     1.200     0.830 -84.44   0
       207    825.6512    743.9471 307.5749263  +6.3875936     1069.593     1610.024     1504.979     77.93909     155.1388     310.4629      1.454     3.84     846.4585     54.71869     174.9044        10     1.033     0.704  71.98   0
       208    901.3737    741.9775 307.5435485  +6.3909348     724.1467     1062.446     1039.596     77.32198     155.0771     310.3703      1.419     3.80     844.6579     54.71869     127.2885         6     0.857     0.483 -88.26   0
       209    251.3170    740.8035 307.8135148  +6.3696554     1999.245     3105.646     3765.552     77.32198     154.8916     310.1232      1.675     3.75     849.4857     54.71869     276.5348        19     1.277     0.937 -70.03   0
       210    829.0953    741.1587 307.5735895  +6.3888600     2965.202     3243.449      3380.06     77.81606     155.2006     310.5555      0.515     0.00     846.2933     54.71869     2009.407         8     0.495     0.403  26.44   0
       211    688.4612    737.8805 307.6320973  +6.3855135     771.6731     1104.412     1260.702     77.93909     155.2623      310.432      1.391     4.51     846.8875     54.71869     133.1253         7     1.031     0.560  67.81   2
       212    690.3510    732.9911 307.6314767  +6.3875955     1049.649     1552.738     1886.456     77.32198     155.0771     310.1232      1.776     5.11     846.8182     54.71869     172.4486        10     1.355     0.547 -71.74   2
       213    944.0241    736.3033 307.5260277  +6.3947007     1203.145     1751.269      1990.29     77.93909     155.0153     310.3085      1.655     4.36     843.7796     54.71869     159.4882        13     1.157     0.775 -79.57   0
       214    271.3322    736.4925 307.8053494  +6.3721075     679.2606     1124.127     1097.561     77.69284     155.3857     310.4629      1.891     3.74     849.3796     54.71869      111.734         6     0.891     0.470 -88.09   0
       215    166.5325    736.1703 307.8488748  +6.3687194     950.3864     1217.941     951.9726     77.56942     155.2623     310.4012      1.375     3.60     848.7431     54.71869     156.1473         9     0.911     0.769  85.91   0
       216    970.5797    734.0275 307.5150765  +6.3965261     2489.714     3625.105     3541.167     77.32198     155.0771     310.3703      1.509     3.10     843.1004     54.71869     382.8918        22     1.276     0.946 -66.53   0
       217    917.8579    735.0283 307.5369360  +6.3943542     1197.812     1611.774     1824.209      77.4458      155.324     310.3394      1.450     3.35     844.2693     54.71869     209.1976         9     0.927     0.698 -73.86   0
       218    278.8328    734.8641 307.8022899  +6.3730317     6792.968     6678.784     6798.225     77.69283      155.324     310.4012      0.619     1.05     849.3504     54.71869     3576.183         8     0.547     0.462 -49.21   0
       219    286.9160    734.1012 307.7989593  +6.3736181     1752.226     1769.994     1644.986     77.81606     155.6937     310.5246      0.473     1.94     849.3208     54.71869     1291.857         5     0.418     0.281 -20.66   0
       220    481.0601    729.1830 307.7185107  +6.3821612     512.6611     741.6523     861.6722     77.32198     155.2006      310.185      1.591     5.00     848.1492     54.71869     92.58618         6     1.338     0.529  80.69   0
       221   1012.3288    727.2782 307.4979656  +6.4007049     1758.031     2504.215     2405.296     78.06193     155.5089     310.4012      1.524     3.38      842.113     54.71869     222.0786        15     1.113     0.856 -71.53   0
       222    411.0128    728.4868 307.7476200  +6.3801004     653.3731     722.1394     290.3519      77.4458     155.0771     310.3394      1.244     2.81     848.1462     54.71869     103.1772         6     0.769     0.498   4.11   0
       223    813.7075    726.0069 307.5804872  +6.3946021     1161.351     1552.736     1275.705      77.4458     154.9534     310.2468      1.464     3.70     846.2271     54.71869     185.4342        12     1.119     0.775 -81.27   0
       224    638.8790    726.7623 307.6530592  +6.3884455     761.7532     866.6038     763.3083     77.69283      155.324      310.432      1.304     2.60     846.6849     54.71869     131.4261         8     0.815     0.637 -50.31   0
       225    900.1680    723.3159 307.5446741  +6.3985999     1594.147     2285.443      2053.65     77.81606     155.0771     310.3394      1.519     3.17     844.2499     54.71869     242.2898        15     1.103     0.874  89.67   0
       226    874.4795    718.3501 307.5555078  +6.3997928     949.3134     1297.674     1660.966     77.81606      155.324      310.432      1.568     3.73     844.5511     54.71869     136.2438        10     1.071     0.670 -74.26   0
       227    856.8731    714.5047 307.5629478  +6.4007928     1705.874      2370.72     2208.629     77.69283     155.3857      310.432      1.475     3.38     844.8185     54.71869     259.4644        15     1.071     0.950 -80.53   0
       228     55.9596    713.3782 307.8955552  +6.3744105     2647.309     3929.156     4639.729      77.4458     155.0771     310.2468      1.639     3.35     847.3984     54.71869     401.9454        21     1.316     0.863 -72.91   0
       229    119.9815    712.0305 307.8690179  +6.3771208     1059.947     2088.248     2155.544      77.4458     155.0771     310.3085      2.096     7.49      847.493     54.71869     148.9399        20     1.760     0.893  80.61   0
       230    573.5646    708.9479 307.6807791  +6.3936147     698.5587     782.6112     617.4778     77.69283     155.2623     310.3703      1.202     3.36     846.5362     54.71869     121.5983         6     0.788     0.494  85.82   0
       231    668.7198    701.9998 307.6414991  +6.3996680     6683.125     9494.213      9898.39     77.07376      154.644     310.1541      1.476     3.18     846.4886     54.71869     978.5928        27     1.274     0.977 -74.13   0
       232    615.3744    701.2252 307.6636770  +6.3982029     1447.074      2189.77      2414.74     77.32198     155.0771     310.3085      1.601     3.30     846.4736     54.71869     216.2289        13     1.101     0.767 -84.84   0
       233    537.1920    701.5809 307.6961303  +6.3954384     763.6946     1256.261     1186.508      77.4458     154.9534     310.2776      1.781     3.13     846.5873     54.71869     110.9281         7     0.811     0.631 -77.98   0
       234    526.4684    701.7135 307.7005787  +6.3950244     946.8625       1424.9      1281.22     77.81606     155.5089     310.4629      1.610     4.17     846.7392     54.71869     134.2534         7     1.018     0.488  83.17   0
       235    131.5826    697.8727 307.8646787  +6.3833564     3898.611     5648.112     5664.174     77.32198     155.2006     310.3394      1.513     3.33     847.2698     54.71869     526.2627        24     1.381     0.887 -77.91   0
       236   1005.5599    697.4065 307.5017757  +6.4128132      2583.48     3740.911     3623.054     77.19798     154.9534     310.1232      1.556     3.30      842.098     54.71869     342.3624        22     1.343     0.928 -75.70   0
       237    642.4691    697.5814 307.6525482  +6.4006141     2273.516     3244.063     4328.077      77.4458     155.1388     310.3703      1.625     3.51     846.4529     54.71869     327.1179        16     1.253     0.808 -78.30   0
       238    318.3481    697.7645 307.7871318  +6.3896760     788.7461     1041.277     1066.409     77.69284     155.2623     310.3703      1.407     2.80     847.4235     54.71869     146.6069         8     0.882     0.618 -78.62   0
       239    253.9977    697.6044 307.8138576  +6.3875814     632.8907     709.6382      727.772     77.19798     154.8297      310.185      1.523     4.75      847.729     54.71869     77.75897         7     0.887     0.721 -65.76   0
       240    785.5153    694.1552 307.5932619  +6.4068117     21653.97     30705.42     31851.13     77.81606     155.2006      310.432      1.514     3.14     845.4512     54.71869     2891.161        46     1.396     1.083 -69.66   0
       241    915.4922    693.9474 307.5392939  +6.4112374     3785.393     5715.448     6180.984     77.69283     155.1388      310.648      1.601     3.36     843.3133     54.71869     498.4676        26     1.431     0.948 -77.17   0
       242    512.8922    694.3360 307.7064643  +6.3976157     995.2155     1422.496     1171.571     77.81606     155.4473     310.4937      1.383     4.16     846.7678     54.71869     162.9198        10     1.195     0.591 -57.27   0
       243    484.6712    694.1213 307.7181902  +6.3967587      1453.97     2129.444     2069.471     78.06193     155.5089     310.4012      1.563     3.23      847.082     54.71869     196.4138        14     1.129     0.759 -80.54   0
       244    330.2578    693.8722 307.7823176  +6.3916829       852.26     1119.629      1264.79     77.93909     155.2623     310.4012      1.450     4.68     847.1066     54.71869     129.6201         8     0.945     0.758  58.10   0
       245     93.8294    690.4290 307.8806059  +6.3851598      513.575     758.2829     536.0076     77.32198     155.0153      310.185      1.291     3.48     846.9243     54.71869     98.05609         5     0.951     0.367  84.52   0
       246    648.5511    688.2650 307.6503354  +6.4046643     955.3961     1409.622     1701.233     77.69284     155.1388     310.4012      1.471     5.73     846.3732     54.71869     122.1387        11     1.249     0.740 -70.56   0
       247    259.0121    687.6873 307.8121098  +6.3918444     6674.743     9615.299     10118.33      77.4458     155.0153     310.3085      1.517     3.11     847.3047     54.71869     991.2795        30     1.362     0.990 -65.63   0
       248    666.0789    686.9034 307.6431025  +6.4058129      7599.02     10873.55     12114.38     77.56942     155.5089     310.5246      1.498     3.10     846.3662     54.71869      1160.58        32     1.358     0.997 -74.47   0
       249    361.3600    686.8594 307.7696388  +6.3956221     781.3417     1077.467     900.9121     77.81606     155.2623     310.4937      1.334     5.21     846.5118     54.71869     120.9882         8     1.248     0.614 -62.07   0
       250    925.9910    679.5630 307.5354157  +6.4175270     1256.997     1850.953     1835.214     77.19798     155.0153      310.185      1.521     3.75     842.7501     54.71869     188.5333        12     1.114     0.751 -87.87   0
       251    737.8050    675.3599 307.6137047  +6.4129776     3794.064     5474.602     5478.557     77.07376     155.0153     310.1541      1.501     3.56     846.2467     54.71869     539.3633        25     1.331     0.942 -89.48   0
       252   1004.0855    672.0045 307.5032378  +6.4232525     8935.761     13329.79     13572.56     77.32198     154.8916     310.1232      1.561     3.22     841.9717     54.71869     1297.749        36     1.423     1.064 -76.21   0
       253    942.4482    672.3713 307.5288222  +6.4210454     2697.313     4014.689     4230.381      77.4458      155.324     310.3394      1.660     3.54     842.3971     54.71869     339.0894        18     1.170     0.957 -78.83   0
       254      3.3446    674.0934 307.9187288  +6.3888588     653.2206      878.191     891.9968     77.69283     148.1897     263.8145      1.366     4.28     847.4111     54.71869     97.80634         7     0.857     0.609 -66.34  16
       255    693.0383    675.8627 307.6322778  +6.4112732     1049.179     1546.426     1544.345     77.81606     155.2623     310.4937      1.422     3.19     846.2814     54.71869     168.7381        10     0.930     0.690  88.03   0
       256     23.0028    671.6843 307.9106477  +6.3905153     1873.268     3055.582     3818.886     77.19798     154.8916     310.1541      1.883     3.88     847.2356     54.71869     287.2095        21     1.290     1.124  27.40   0
       257    992.2435    671.7539 307.5081640  +6.4229611     518.9565     1026.768     812.6258     77.81606     155.2623     310.3703      2.246     3.87      842.054     54.71869     94.37799         5     1.011     0.424  85.91   0
       258    440.2614    669.6273 307.7374552  +6.4053833     642.0095        835.3     627.0231      77.4458      155.324     310.3703      1.406     4.70     846.0457     54.71869     92.29761         8     0.947     0.662 -22.84   0
       259     81.4230    666.7335 307.8865572  +6.3945256     27428.24     39671.31     41375.51      77.4458     155.2623     310.3703      1.560     3.18     846.6995     54.71869     3635.826        53     1.444     1.139 -73.51   0
       260    542.7068    667.7506 307.6949772  +6.4095912     2245.744     3043.565      3790.54     77.69284     155.1388     310.5555      1.539     3.46     846.1661     54.71869      327.233        16     1.200     0.772 -73.07   0
       261    280.2126    667.3774 307.8039909  +6.4009419     489.7923     543.2223     171.5918     77.56942     155.0771     310.3394      1.077     3.46     846.3724     54.71869     73.84442         5     0.781     0.442  17.97   0
       262    932.7287    663.9771 307.5331395  +6.4241871     1219.289      1825.92     1317.177      77.4458     155.1388      310.432      1.499     4.19     842.2845     54.71869      154.097        12     1.104     0.923 -78.34   0
       263    511.5244    664.7004 307.7080286  +6.4098060     1513.006     2077.067     2148.562     77.32198     155.3857     310.3394      1.538     3.14     846.2428     54.71869     237.2948        15     1.057     0.870 -53.30   0
       264    551.7550    661.8231 307.6914191  +6.4123417     1079.275     1492.602     1746.058     77.32198     155.2623     310.2776      1.464     4.28     846.0592     54.71869     150.7032        10     1.107     0.617 -69.71   0
       265    727.5408    659.0383 307.6185146  +6.4193735     3804.754      5210.62     5173.178     77.81606      155.324     310.4937      1.421     3.02     845.6832     54.71869     526.4249        21     1.159     0.949 -66.53   0
       266    749.4923    657.2131 307.6094599  +6.4208609     4581.533     6264.171     6137.391     77.56942     155.0153     310.2159      1.465     3.12     845.2869     54.71869     626.6874        23     1.239     0.952 -75.17   0
       267    580.8996    655.2000 307.6795390  +6.4160522     3531.955     5110.137     5400.229     77.32198     154.8916     310.0305      1.507     3.10     845.8581     54.71869     546.0204        24     1.274     0.961 -73.53   0
       268    417.0994    655.5436 307.7475472  +6.4104216     1426.556     1967.903     1275.672     77.56941     155.2623      310.648      1.474     4.22     845.5152     54.71869     258.2076        13     1.333     0.661 -59.53   0
       269   1022.3280    653.4493 307.4962828  +6.4315220     5390.724     7547.753     7669.604     77.81606     141.3057     254.3472      1.543     3.25     841.3785     54.71869     734.2206        27     1.367     0.971 -78.20  24
       270    241.5383    654.7408 307.8204761  +6.4048603     1956.853     2649.618     2842.158     77.81606     155.2006     310.4629      1.429     3.29     845.9692     54.71869     292.9767        17     1.195     0.815 -67.54   0
       271    987.7125    652.3036 307.5106965  +6.4308410     8576.938     12378.31     13269.63     77.81606     155.6321     310.4629      1.572     3.23     841.6094     54.71869     1251.223        33     1.362     1.051 -79.31   0
       272    324.9669    653.8039 307.7858641  +6.4080487     1665.361     2194.709     1883.554     77.07376     155.1388     310.2159      1.361     3.14     845.3885     54.71869     258.7075        13     1.068     0.746 -87.22   0
       273    707.7351    651.1422 307.6270043  +6.4219715     902.1247     1337.865     1446.223     77.93909     155.2006     310.4629      1.477     3.91     845.3629     54.71869     171.9603         7     1.053     0.416 -63.30   0
       274    146.1967    645.6715 307.8603719  +6.4054003     25656.35     36838.11     37633.27     77.32198     154.8916     310.2776      1.540     3.19      846.201     54.71869     3682.065        52     1.445     1.116 -65.55   0
       275     99.3675    648.6127 307.8797179  +6.4026109     845.2831     1201.287     981.5042     77.32198     155.0153     310.3394      1.527     3.86     846.3374     54.71869     159.4164        10     1.143     0.692 -59.73   0
       276    814.3642    646.3790 307.5828834  +6.4275019     1261.293     1677.041     1842.142     77.32198     155.0153      310.185      1.550     3.96     843.6682     54.71869     177.7555        15     1.283     0.795 -81.37   0
       277    433.0136    646.6204 307.7412390  +6.4146395     3118.067     4616.622      4826.95     77.56941     154.9534     310.3394      1.533     3.19     845.4979     54.71869     462.3597        22     1.260     0.893 -75.64   0
       278    650.2946    645.7901 307.6510374  +6.4222600     538.7453     500.6628     118.9333      77.4458     154.8916     310.2159      1.272     4.51        845.3     54.71869     98.41052         6     0.913     0.632  23.83   0
       279    365.5771    640.6904 307.7694422  +6.4148259     832.2319     1275.687     1841.802     77.81606     155.0771     310.3085      1.807     5.04     844.7581     54.71869     113.4047        11     1.295     0.678 -55.59   0
       280    982.6874    635.2909 307.5133526  +6.4376979      7161.99     11348.89     12376.84     77.56942     155.6937     310.5555      1.704     3.31     841.2485     54.71869     1041.894        41     1.473     1.262  68.00   0
       281    576.1778    630.5049 307.6823295  +6.4260904     52496.52     73432.37     76845.01     77.81606     155.0771     310.2776      1.533     3.15     845.3845     54.71869     7334.042        65     1.438     1.144 -72.09   0
       282    940.5956    632.1921 307.5309367  +6.4375735     692.7736     899.2664     780.4026     77.19798     154.9534     310.2776      1.411     4.20     841.5216     54.71869     104.3405         7     0.941     0.542 -38.00   0
       283    535.7051    630.7032 307.6991300  +6.4246531     846.4545     1335.837     1349.023     77.81606     155.8167     310.2776      1.609     4.28     845.6395     54.71869      140.476         7     1.026     0.521 -63.79   0
       284    183.6523    627.2296 307.8454408  +6.4142738     2868.513     4123.406     4411.542     77.56942     155.3857     310.3394      1.527     3.54     845.5603     54.71869     410.3832        23     1.380     0.893 -71.22   0
       285    506.4406    627.2866 307.7113976  +6.4250833     627.6747     1055.922     1020.907     77.81606     155.2623     310.4629      1.624     4.26     845.6168     54.71869     107.4723         7     1.194     0.448 -51.17   0
       286     27.3042    634.4355 307.9101199  +6.4060390     1371.774     1817.048     1950.975     77.93909     155.1388     310.5555      1.522     3.75     846.9052     54.71869     163.9984        15     1.068     0.936 -53.27   0
       287     76.3435    621.2404 307.8902025  +6.4131375     1469.494     2042.524     2165.199     77.81606      155.324     310.4629      1.529     3.40     846.2391     54.71869     209.7146        13     1.133     0.775 -82.45   0
       288    473.4576    614.3123 307.7255308  +6.4293348     68416.87     95943.79     99861.45     77.81606     155.2006     310.5555      1.533     3.06     845.3049     54.71869     9022.693        78     1.479     1.177 -71.02   0
       289     16.8642    616.0024 307.9150777  +6.4132980     1820.217     2806.436     3093.369     77.19798     155.0771     310.2159      1.656     3.74     846.8826     54.71869     267.2146        16     1.172     0.877  74.60   0
       290    659.3442    611.4279 307.6484330  +6.4367506     923.0263     1412.751     1043.505      77.4458      155.324     310.3085      1.493     4.92     843.9501     54.71869     138.5223        12     1.310     0.726 -67.84   0
       291    148.0199    609.3907 307.8608390  +6.4204410     1724.281     2462.168     1727.382      77.4458     155.0153     310.2776      1.578     3.67     845.5657     54.71869     221.2084        16     1.119     0.909 -81.56   0
       292    943.0255    607.2615 307.5307622  +6.4479483      774.742      883.432     821.0436      77.4458     155.2006     310.3703      1.310     4.93     840.9253     54.71869     126.2302         9     1.014     0.678 -59.68   0
       293    619.5222    606.0697 307.6651504  +6.4376304     934.7502     1398.793     1062.577     78.06193     155.5089     310.4012      1.637     4.32     844.3018     54.71869     128.7993        11     1.101     0.753  86.96   0
       294    427.2832    606.6901 307.7449622  +6.4309339     900.7579     1108.869     727.2384     77.56942     155.5089     310.4937      1.351     3.15     844.5681     54.71869     151.9428         7     1.008     0.445 -61.39   0
       295     19.8598    605.2006 307.9141988  +6.4178586     672.9125     1003.163     1189.533     77.07376     155.0771     310.1232      1.661     4.59     846.7627     54.71869     108.8058         7     1.071     0.559 -73.48   0
       296    327.3801    605.2059 307.7864990  +6.4281949     516.1921     468.5805     881.2664      77.4458     154.9534     310.2468      1.165     3.08     843.3583     54.71869     87.82904         5     0.734     0.449  71.37   0
       297    318.8777    603.5812 307.7900844  +6.4285802     2357.222     3417.243     3701.798     77.32198     155.0153     310.4012      1.579     3.53     843.3459     54.71869     318.3821        18     1.238     0.871 -77.53   0
       298     26.4476    603.7200 307.9115133  +6.4186917     631.8821      960.691     1181.945     77.81606     155.2623      310.432      1.535     3.42     846.6724     54.71869     97.32269         5     0.765     0.443 -68.71   0
       299    471.1417    602.0605 307.7269047  +6.4343158     869.8658     1432.738      2263.62     77.93909     155.2006     310.4629      1.995     3.70     844.9352     54.71869     163.5558         8     0.960     0.711 -78.79   0
       300    745.5359    597.8711 307.6130935  +6.4452305     5728.427     8194.323     8249.948     77.81606     155.2623     310.4937      1.504     3.16     843.3958     54.71869     752.2809        28     1.371     0.951 -76.47   0
       301   1016.4056    593.9493 307.5007328  +6.4558920     1016.989     1571.552      1143.38     77.32198     155.0771     310.0614      1.560     3.92     839.3467     54.71869     153.0336        12     1.262     0.670  80.47  16
       302    799.0228    593.1291 307.5910397  +6.4489759     15032.15     21133.65     22180.39      77.4458     155.1388      310.432      1.483     3.27     842.8384     54.71869     2338.094        38     1.308     1.063 -75.41   0
       303    541.3604    593.1252 307.6980447  +6.4403580     1227.254     2018.685     1998.455     77.69283     155.2623     310.4629      1.862     4.01     844.7307     54.71869     185.9578        16     1.329     0.829 -75.72   2
       304     44.0985    592.6392 307.9045581  +6.4238608     604.0176      949.175     638.0197     77.81606     155.1388      310.648      1.807     5.34      846.262     54.71869     103.4412         7     1.377     0.585  79.84   0
       305    622.9039    591.0663 307.6642499  +6.4439383     3079.945     4232.266     4500.293     77.81606      155.324     310.4629      1.452     3.07      843.819     54.71869     495.0756        20     1.199     0.880 -73.32   0
       306    940.0222    587.4675 307.5326722  +6.4560210     1260.844     1993.648     2598.509      77.4458     155.2006     310.4012      1.802     3.81     840.2693     54.71869     187.6586        12     1.225     0.626 -78.10   0
       307    235.4271    584.8877 307.8253687  +6.4334957       1213.3     2088.265     2649.708     77.93909     155.0153     310.3394      2.150     4.89     843.8456     54.71869      159.058        15     1.403     0.731 -69.07   0
       308    199.0000    586.0005 307.8404581  +6.4318121     742.7227     1251.963     1777.124     77.19798     154.8297     310.1232      1.709     4.96     844.3204     54.71869     92.09875         8     1.022     0.681  87.55   0
       309    381.7148    584.7771 307.7646233  +6.4384529     1001.888      1365.68      1335.26     77.81606     155.0153     310.3394      1.408     3.13     843.3581     54.71869     146.2037        11     0.904     0.822  60.83   0
       310    875.1016    576.5101 307.5600010  +6.4583786     3140.713     4466.566     4504.899     77.81606     155.6937     310.4012      1.563     3.24     841.2154     54.71869     473.9314        20     1.184     0.935 -81.22   0
       311    170.7126    576.3222 307.8525314  +6.4348572     689.5438     941.7198     1700.187     77.81606     155.5705     310.5555      1.356     4.38     844.3725     54.71869     101.0972         7     0.979     0.557 -61.77   0
       312    833.7526    573.7213 307.5772670  +6.4581494     2699.143      3593.62     3629.602     77.81606      155.324     310.4012      1.429     3.13     841.8116     54.71869     424.0764        19     1.255     0.823 -73.91   0
       313    804.8116    569.7581 307.5894192  +6.4588191     2852.444     4370.498     5344.427     77.19798     155.0771     310.1541      1.666     3.03     842.1841     54.71869     431.1755        24     1.261     1.049 -40.88   2
       314    814.4177    565.0253 307.5855884  +6.4610941     168924.5     239250.9     249988.3      77.4458     155.1388     310.3703      1.510     3.10     841.8982     54.71869     22105.21       112     1.510     1.214 -72.95   2
       315    747.3557    570.1146 307.6132689  +6.4567518     699.3787     925.1741     1395.931     77.81606     155.1388     310.4012      1.388     3.89     842.9054     54.71869     98.70892         6     1.015     0.427 -76.42   0
       316    261.8144    568.7517 307.8149548  +6.4410444     8294.535     11940.42     11983.62     77.19798     155.2006     310.1541      1.500     3.30     843.2264     54.71869     1168.156        32     1.332     1.029 -75.34   0
       317    196.0531    563.2363 307.8424497  +6.4411119     62047.76     90687.67     96399.56     77.69283     155.2623     310.4629      1.566     3.20     843.7758     54.71869      9123.02        89     1.629     1.235 -64.70   0
       318    744.2430    564.9864 307.6147336  +6.4587651     657.5068     844.7709     1528.115     77.19798     155.0771      310.185      1.357     2.50     842.8577     54.71869     125.1123         7     0.723     0.657 -63.38   0
       319    120.0880    559.5031 307.8741217  +6.4400988       6621.9     9777.653     10074.84     77.81606     155.6937     310.4629      1.607     3.33     844.2461     54.71869     930.2913        34     1.371     1.102 -75.18   0
       320    985.2496    556.7899 307.5149157  +6.4701962     1326.359     1846.702     1500.833     77.32198     155.1388     310.1232      1.454     3.51     837.8466     54.71869     199.9336        12     1.138     0.711 -87.26   0
       321   1006.1766    555.9127 307.5062537  +6.4712562     792.0353     1234.136     1169.014     77.81606     155.0771     310.3085      1.674     5.47     837.1335     54.71869     120.2091        10     1.193     0.709 -68.51   0
       322    234.3919    554.9987 307.8268064  +6.4458014     712.1629     1208.049     1081.759     77.19798     154.9534     310.2159      1.612     4.39     843.2712     54.71869     111.4205         8     1.128     0.486 -87.69   0
       323    850.9802    552.2628 307.5708314  +6.4675848     4856.865     6774.175     6859.679      77.4458     155.2623     310.2776      1.487     3.27     840.8242     54.71869     755.6406        25     1.288     0.964 -79.23   0
       324    369.4556    550.4349 307.7708706  +6.4522208     18286.28     26085.86     27423.08     77.69284     155.2623     310.4629      1.576     3.21      842.535     54.71869     2263.288        46     1.447     1.113 -71.68   0
       325    459.8134    550.7508 307.7333352  +6.4551210     841.2285     1226.214     750.7795     77.19798     155.2006     310.1541      1.413     4.04     843.0215     54.71869     139.8292         9     0.951     0.670 -64.54   0
       326    171.2742    549.4060 307.8532063  +6.4459890     1957.766     2741.316     3224.384      77.4458     154.8297     310.3394      1.549     4.02     843.5851     54.71869     272.6341        16     1.221     0.863 -66.51   0
       327    915.8017    548.4578 307.5440375  +6.4713197     513.8697      598.216     614.2926     77.19798     154.9534     310.1541      1.583     3.75     839.5383     54.71869     86.14337         5     1.055     0.383 -83.57   0
       328    246.3386    547.1927 307.8221083  +6.4494257     1006.234     1419.475     1171.289     77.19798     155.0771     310.2159      1.550     5.43     843.0122     54.71869     151.2299        11     1.328     0.671 -76.02   0
       329    804.8619    545.7055 307.5902047  +6.4687519      6223.29     8956.301     8868.963     77.69283      155.324     310.4629      1.520     3.24     841.5762     54.71869     942.0366        27     1.313     0.977 -70.63   0
       330    108.3321    546.7603 307.8794337  +6.4449645     978.8012     1509.462     1472.885     77.69284     155.2006     310.5246      1.571     4.71     843.9323     54.71869      151.566        10     1.250     0.699 -54.94   0
       331    535.7956    545.3746 307.7019609  +6.4598871     6952.654     9906.589     10334.04     77.32198     155.0153     310.2776      1.557     3.20      842.995     54.71869     1023.325        30     1.283     1.060 -77.09   0
       332    176.5795    546.1058 307.8511145  +6.4475300     705.8594     1112.725      1901.46     77.69283     155.0771     310.2776      1.376     3.75     843.4613     54.71869     139.9216         6     0.822     0.491  85.93   0
       333    393.9360    541.9128 307.7609910  +6.4565608     1672.929     2490.219       2252.9     77.81606     155.3857     310.4629      1.529     3.66      842.316     54.71869     249.8306        15     1.136     0.878 -88.97   0
       334    182.7856    538.4808 307.8487944  +6.4508868     6944.188     9967.791     9754.732      77.4458     155.0153     310.2468      1.551     3.32     843.2387     54.71869     1040.898        28     1.356     0.992 -74.90   0
       335    580.5027    538.3719 307.6836293  +6.4642757     2479.076     4100.106     3767.906     77.93909     155.0153     310.4012      1.776     4.38     842.4086     54.71869     313.9926        24     1.498     0.963 -48.33   0
       336     54.4295    537.1313 307.9021430  +6.4471261     5305.847     8060.318     8230.403     77.56942     155.2623     310.3703      1.612     3.06       845.04     54.71869     747.4526        31     1.415     1.039 -77.91   0
       337    863.8348    538.2459 307.5659624  +6.4738015     622.4631     856.1458     1021.985      77.4458     155.2006     310.3085      1.399     4.63     840.0455     54.71869     115.2192         6     0.973     0.626 -77.45   0
       338    821.4659    538.0649 307.5835650  +6.4724613     1489.611     2031.007     2515.702     77.81606     155.2623     310.4629      1.378     3.52     840.8917     54.71869     214.3488        13     1.254     0.664 -73.54   0
       339    278.0464    534.9239 307.8093542  +6.4555563     90643.25     133248.9     139598.2     77.69283      155.324     310.4629      1.546     3.24     842.2634     54.71869     12714.97        87     1.532     1.223 -69.48   0
       340    567.6582    532.4286 307.6891634  +6.4662995     1094.237     1433.701     1521.922      77.4458      155.324     310.3394      1.525     4.80     842.2456     54.71869     142.4455        11     1.237     0.615 -74.44   0
       341    261.7362    530.0723 307.8162911  +6.4570116     1501.568     2156.734      2028.53     77.81606     155.2623     310.4629      1.489     3.84     842.2267     54.71869     216.2363        14     1.232     0.748 -77.82   0
       342    977.3926    528.6555 307.5191205  +6.4815507      1774.44     2485.919     2203.958     77.32198     155.0771     310.1541      1.539     3.30     837.2679     54.71869     301.0959        14     1.161     0.716 -65.91   0
       343    801.1428    527.3830 307.5923637  +6.4761928     17304.69     24304.59     25242.97     77.32198     155.2006      310.185      1.497     3.04     840.7376     54.71869      2636.51        42     1.354     1.069 -69.88   0
       344    504.8011    525.7795 307.7154918  +6.4669391     42249.55     67048.62     71245.55      77.4458     154.9534     310.1541      1.698     3.33     842.1042     54.71869     5451.526        74     1.547     1.391 -48.57   0
       345    655.2850    524.3211 307.6530435  +6.4725803     1017.549     1564.291     1806.195     77.81606     155.5705     310.5246      1.758     3.36     841.7141     54.71869     146.2345        14     1.082     0.863 -57.29   0
       346    217.3060    522.0057 307.8350144  +6.4588493     1870.846      2758.01     2971.893     77.56941     154.9534     310.2159      1.567     4.02     842.4904     54.71869     266.4702        20     1.453     0.841 -71.34   0
       347     52.7162    522.4475 307.9033505  +6.4531309      1313.25     1892.276     1961.378     77.81606     155.2623     310.4629      1.543     3.97     844.6819     54.71869     217.1835        16     1.269     0.900 -66.26   0
       348    726.8872    519.6060 307.6234643  +6.4769220     1359.206      1885.01     1701.757     77.32198     154.9534     310.1541      1.568     3.63     841.6371     54.71869     212.5336        12     1.062     0.807 -75.08   2
       349    675.0134    520.8013 307.6449682  +6.4746936     1503.711     2217.416     2379.741      77.4458     154.9534     310.2159      1.553     3.87     841.6108     54.71869     220.9577        12     1.136     0.699 -76.51   0
       350    664.7648    520.7234 307.6492273  +6.4743829     3260.633     4614.667       5350.5     77.69284      155.324     310.4629      1.530     3.04     841.6083     54.71869     460.1888        23     1.288     0.949 -55.58   0
       351    103.1526    521.8650 307.8824251  +6.4550688      593.478     858.0121     1197.864     77.69283     155.2006     310.4937      1.377     3.98     843.6085     54.71869     101.3929         6     0.794     0.572 -33.54   0
       352    402.4415    516.5978 307.7583110  +6.4672982      1857.45     2602.425     2633.378     77.19798     155.0153     310.1541      1.412     3.28     841.3268     54.71869     270.8732        18     1.217     0.889 -66.64   0
       353     83.7963    518.0207 307.8905932  +6.4560047     736.0662     1228.165     1695.291      77.4458     154.9534     310.2159      1.493     4.17     843.8954     54.71869     110.0443         6     0.827     0.631 -82.52   0
       354    513.9965    514.0012 307.7120690  +6.4721104     2149.799     3115.845     3278.485     77.19798     154.8297      310.185      1.531     4.14     841.5416     54.71869     315.2904        21     1.320     1.025 -67.07   0
       355    333.9470    514.6334 307.7868228  +6.4658108     4094.101     6006.527     5979.176     77.69283     155.2006     310.3703      1.535     3.37     841.1303     54.71869      564.123        26     1.339     0.956 -82.92   0
       356    149.1429    513.2827 307.8636159  +6.4601592     27253.32     39807.05     41270.18     77.81606     155.2623     310.4937      1.563     3.23     843.0757     54.71869     3855.579        53     1.440     1.156 -68.04   0
       357    877.0184    513.2617 307.5613241  +6.4845575      1555.23     2108.358     2375.162      77.4458     155.2006     310.3085      1.511     3.88     838.8392     54.71869     236.6248        16     1.272     0.839 -83.05   0
       358    114.3362    511.5041 307.8781306  +6.4597228     2901.477      4470.65     4897.693     77.69284     155.3857      310.432      1.727     3.49      843.379     54.71869     364.2147        24     1.373     0.991 -58.40   0
       359    974.6218    507.9491 307.5209644  +6.4900079     5369.925     7616.989     7683.672     77.32198      155.324     310.3085      1.501     3.03     837.0082     54.71869     802.1608        26     1.292     1.003 -70.23   0
       360    351.3493    509.6822 307.7797625  +6.4684392     1202.137      1633.78     1892.556     77.81606      155.324     310.4629      1.420     3.92     840.8813     54.71869     163.1267        12     1.114     0.730 -78.79   0
       361    548.1215    500.4408 307.6983524  +6.4788525     1426.181       1921.5     2285.825     77.69283     155.2623     310.4629      1.450     2.85     840.8845     54.71869     270.9354        12     1.041     0.732 -53.49   0
       362     13.4145    497.5794 307.9205118  +6.4620749     26754.48     38676.36     40627.04     77.56942     155.0153     310.3394      1.577     3.19     844.7042     54.71869      3414.41        55     1.469     1.164 -73.14   0
       363    446.1633    494.4291 307.7408992  +6.4779176     45195.25     64902.32      67843.6      77.4458     155.0153     310.2468      1.553     3.18     840.5421     54.71869     6270.544        65     1.470     1.177 -67.90   0
       364    654.1773    494.1543 307.6545166  +6.4849987     12863.86     18355.03     18543.13      77.4458     155.2623     310.2776      1.518     3.13     840.6561     54.71869     1877.296        38     1.378     1.046 -69.83   0
       365      1.5255    492.1314 307.9256332  +6.4639238     1115.938     2215.803     3603.801     70.17659     126.4937     236.6683      2.508     7.00     844.6331     54.71869     205.3379        17     2.141     0.641 -87.74  24
       366    294.0624    494.6880 307.8040589  +6.4727067     1090.119     1655.517      1609.28     77.69283     155.4473     310.4629      1.704     3.43     840.2477     54.71869     159.9849        10     1.002     0.730  88.91   0
       367    211.3368    492.0022 307.8385053  +6.4710363     19747.61     30853.06     31765.59     77.19798     155.0153     310.2159      1.652     3.31     841.6794     54.71869     2424.864        50     1.451     1.241 -88.49   0
       368    176.9585    492.8231 307.8527547  +6.4695418     1684.527     2480.852     2054.035      77.4458     155.0771     310.2159      1.518     3.76     842.3262     54.71869     218.6295        14     1.186     0.766 -82.78   0
       369    987.9378    492.6142 307.5159471  +6.4967837     1184.141     1655.485     1762.796     77.32198     155.0771     310.2468      1.575     3.32     836.6208     54.71869     201.5009        13     1.017     0.867 -77.59   0
       370    828.4193    492.0797 307.5822187  +6.4916805      998.468     1508.098      1047.15      77.4458     154.9534     310.3703      1.582     4.68     838.6462     54.71869     128.4208        13     1.262     0.695 -56.71   0
       371    916.6365    491.7751 307.5455893  +6.4947516     938.6845     1506.206     1542.135      77.4458     155.0771      310.185      1.626     3.62     837.4746     54.71869     131.2464         9     0.860     0.769  -4.72   0
       372    576.0265    490.8391 307.6870857  +6.4837515     2839.165     4166.393      4280.33      77.4458     155.0771     310.2776      1.530     3.29     840.5054     54.71869     414.3912        22     1.341     0.898 -58.50   0
       373    949.8163    488.0445 307.5319334  +6.4973990     5134.922     7224.719     7522.016     77.32198     155.1388     310.2159      1.452     3.25     836.9584     54.71869      786.864        25     1.312     0.916 -76.53   0
       374    622.9960    486.4153 307.6677268  +6.4871506     6903.327     9552.527     10223.32      77.4458     154.8916     310.2776      1.472     3.10      840.374     54.71869     1014.962        28     1.297     0.971 -72.02   0
       375    110.5031    487.0228 307.8805489  +6.4697015     1214.995     1957.224     2438.226     77.81606     155.0153     310.2468      1.822     4.80     843.0681     54.71869     165.4072        10     1.110     0.667 -83.32   0
       376    972.3787    480.3498 307.5228200  +6.5013287     3706.969     5157.121      5543.94     77.32198      155.324     310.3085      1.504     2.99     836.5825     54.71869     513.8098        22     1.261     0.900 -82.20   0
       377    535.1315    477.7991 307.7045086  +6.4877658     7754.483     11367.04      11957.9     77.32198     154.8297     310.2468      1.541     3.22      839.823     54.71869     1122.757        33     1.364     1.028 -72.01   0
       378    410.8041    479.6471 307.7560818  +6.4828350     703.5427      1007.73     1332.548     77.19798     155.0153     310.1232      1.718     4.69     839.9103     54.71869     105.3829         7     1.125     0.554 -76.41   0
       379    381.2582    477.8174 307.7684142  +6.4825992     2564.776     3664.356     3962.502      77.4458     155.2006      310.185      1.492     3.31     839.6372     54.71869     375.1884        20     1.253     0.841 -80.91   0
       380    750.6713    477.8230 307.6149881  +6.4949690      696.292     809.4684     579.7556      77.4458     155.1388      310.432      1.258     3.82      839.575     54.71869     124.2382         6     1.025     0.408 -75.69   0
       381    891.5925    473.5637 307.5566011  +6.5014350     3380.498     4927.228     5520.448     77.19798     155.0771      310.185      1.556     3.11     837.1876     54.71869     544.8117        22     1.369     0.806 -81.91   0
       382    544.5118    474.2653 307.7007315  +6.4895391     793.5598      1091.35      1408.63     77.81606     155.4473      310.432      1.490     4.11     839.5943     54.71869      112.237         7     0.982     0.492  83.93   0
       383    239.3572    472.9882 307.8275097  +6.4798284     623.0788     813.9922     1190.362     77.19798     155.0771     310.1541      1.430     4.30     840.4374     54.71869     81.19049         7     0.776     0.679 -86.91   0
       384    899.0369    468.1594 307.5536902  +6.5039149     2393.354     3470.353     3569.307     77.56942     155.2623     310.3085      1.493     3.60     836.9354     54.71869     358.4879        19     1.345     0.828 -80.50   0
       385    118.0750    467.4329 307.8780658  +6.4780443     784.4066     1286.147     1421.514     77.69283     155.2623     310.4012      1.876     5.07     842.5059     54.71869     105.1694         9     1.533     0.474 -73.63   0
       386    938.4316    467.2094 307.5373596  +6.5056219     1391.906     1882.068     1780.797     77.32198     155.0771     310.2776      1.478     3.64      836.451     54.71869     226.0001        14     1.210     0.751 -66.04   0
       387    722.9427    463.9968 307.6269687  +6.4997506     3040.846      4267.48     4346.832     77.19798     155.1388     310.1541      1.474     3.12     839.0676     54.71869     485.2568        20     1.294     0.887 -63.24   0
       388    749.9611    464.2412 307.6157388  +6.5005530     519.6101     826.9076     673.7222     77.56941      155.324     310.3085      1.461     3.80     838.7661     54.71869     68.18549         5     0.831     0.499 -55.64   0
       389    433.9661    462.5501 307.7470377  +6.4906709     1055.101     1396.398     1587.537     77.69283     155.2623     310.3703      1.458     4.98     839.1038     54.71869     139.0628        10     1.174     0.707 -76.79   0
       390     84.7339    462.9277 307.8920643  +6.4787825     2096.406     3119.023     3262.418     77.81606      155.324     310.4629      1.514     3.34     842.8698     54.71869     326.4033        18     1.163     0.862 -76.29   0
       391    393.9305    461.9761 307.7636846  +6.4895650     3958.821     5879.983     5952.228      77.4458     155.1388     310.3703      1.502     3.10      839.009     54.71869      634.265        25     1.248     1.040 -71.81   0
       392    621.6111    458.6545 307.6692346  +6.4985663      10734.4     15046.05     15554.44     77.19798     155.2006     310.1232      1.508     3.13     838.6641     54.71869      1470.44        34     1.282     1.038 -74.24   0
       393    784.3431    455.2765 307.6017592  +6.5054036      17676.6     24855.25     25196.35     77.81606     155.2006     310.3703      1.513     3.13     837.7034     54.71869     2447.572        41     1.374     1.066 -66.87   3
       394    788.2311    450.7782 307.6002953  +6.5073909     1514.139     2157.998     2272.181     77.32198     155.0771     310.2776      1.493     3.68     837.4653     54.71869      216.131        14     1.076     0.899 -85.46   3
       395    304.1527    455.4946 307.8011892  +6.4892276      3032.27     4418.289     4332.317     77.69284     155.2006     310.5555      1.549     3.37     838.6094     54.71869     398.4966        23     1.295     0.956 -69.11   0
       396    427.9016    454.8293 307.7498163  +6.4936552     587.1259     757.2715    -44.03568     77.93909     155.0153     310.4629      1.335     2.78     838.7334     54.71869     104.6083         5     0.763     0.503 -53.00   0
       397    813.3610    452.6174 307.5897961  +6.5074711     1324.511     1829.538     2276.331      77.4458     155.1388     310.2159      1.442     3.83     837.2766     54.71869     219.1114        15     1.224     0.824 -83.83   0
       398    402.7312    451.9206 307.7603681  +6.4940119     591.6694      919.684     1205.905     77.93909     155.4473     310.4012      1.732     4.95     838.5958     54.71869     76.57953         7     1.102     0.629 -69.19   0
       399    387.0804    452.1615 307.7668601  +6.4933874     1676.052     2280.203     3065.016     77.69283      155.324     310.4012      1.584     3.39     838.5453     54.71869     248.9418        13     1.078     0.771 -62.62   0
       400    969.4938    450.2149 307.5250271  +6.5136750     2132.178     2921.391       2913.5     77.56942     155.0153     310.2776      1.403     3.54     835.4702     54.71869     284.4225        16     1.163     0.782 -72.61   0
       401    375.5247    448.1297 307.7717952  +6.4946643     827.8937     1287.263      1617.55     78.06193     155.3857      310.432      1.604     4.43     838.3419     54.71869     140.0937         8     1.001     0.666 -57.59   0
       402    121.7595    447.0291 307.8772244  +6.4865924     4511.175      6939.82      7428.95      77.4458     155.0771     310.3085      1.611     3.45     841.8674     54.71869      636.713        30     1.375     1.061 -76.50   0
       403   1023.0496    445.1229 307.5029529  +6.5175634     3465.431      4903.39     4958.697     74.41742     132.3423     243.3746      1.515     4.08     834.3511     54.71869      457.973        22     1.412     0.898  79.95  24
       404    759.8947    446.0666 307.6122227  +6.5083892     2614.287     3718.234     4338.819     77.81606     155.3857      310.432      1.536     3.18      837.576     54.71869     395.7081        21     1.239     0.978 -61.30   0
       405    357.7734    442.0389 307.7793728  +6.4965833     3230.144     4778.549     4775.261      77.4458     155.0771     310.2776      1.513     3.27     838.0519     54.71869     505.3596        23     1.491     0.846 -66.27   0
       406    279.7497    444.2144 307.8117043  +6.4930654     1632.273     2442.477      2619.07     77.19798     155.2623     310.1541      1.636     3.27     838.4203     54.71869     243.2098        15     1.107     0.840  87.43   0
       407    713.6761    439.8614 307.6316276  +6.5094060     1727.035     2376.099     2596.071     78.06193     155.2623      310.432      1.456     3.76     837.6259     54.71869     230.9319        17     1.309     0.775 -66.54   0
       408    987.1874    439.1934 307.5180469  +6.5188159     672.3865     944.0676     722.8414      77.4458     155.0771     310.3394      1.533     4.44     834.7134     54.71869      123.296         7     1.076     0.520 -72.31   0
       409    245.4303    437.8047 307.8261739  +6.4945589     780.2147     1064.283     1010.338     77.32198     155.0771     310.2159      1.435     4.35     838.9776     54.71869      140.165        10     1.147     0.718 -63.37   0
       410    417.3864    437.8994 307.7547534  +6.5002926     627.3127     994.7743     423.0446     77.56942     155.0153      310.185      1.789     4.35     837.9862     54.71869     88.09363         7     1.072     0.503 -42.40   0
       411    554.8817    432.4941 307.6978289  +6.5071331     1045.012     1566.208     1953.916     77.56941     155.5089     310.5246      1.766     3.68     837.1012     54.71869     176.7341        12     1.184     0.651 -70.67   0
       412    456.2411    433.3381 307.7387694  +6.5034789     600.3892     782.6303     849.8338     77.81606     155.2623     310.4629      1.321     3.75     837.4466     54.71869     94.92499         5     0.968     0.417 -83.83   0
       413    839.8971    430.0645 307.5795304  +6.5176694     1558.597     2275.167     2364.507     77.81606     155.3857     310.4629      1.468     3.75      836.325     54.71869     256.6537        15     1.267     0.784 -79.89   0
       414    477.3916    430.7636 307.7300715  +6.5052510     1451.804     2275.588     1834.327     77.32198     155.0153     310.2159      1.561     3.72     837.1688     54.71869     198.2745        15     1.166     0.926 -49.86   0
       415    825.5698    428.9271 307.5855194  +6.5176605     2187.155     3061.553     3530.295     77.69283     155.2623     310.4012      1.477     3.30     836.3424     54.71869     306.7195        18     1.191     0.887 -66.98   0
       416    722.8373    426.9770 307.6282549  +6.5150322     15809.16     22568.59     24097.78      77.4458     155.0153     310.2159      1.483     3.14     836.7443     54.71869     2426.925        40     1.350     1.075 -74.11   0
       417    625.1283    428.8293 307.6687758  +6.5109985     717.4547     1024.472     891.0526     77.69283     155.2623     310.4012      1.613     4.67     836.6165     54.71869     102.7311         9     0.966     0.705 -19.02   0
       418    643.9050    422.9828 307.6611733  +6.5140408     2714.983     3832.957     4942.594     77.69283     155.0771     310.2776      1.525     3.26      836.511     54.71869     400.4032        20     1.190     0.963 -52.52   0
       419    716.3605    421.6705 307.6311232  +6.5170066      848.044     977.8039     1682.016     77.69284     155.2623     310.4937      1.619     4.42     836.4996     54.71869     139.1425         7     1.016     0.665  75.59   0
       420    619.1854    419.8277 307.6715465  +6.5145161     5639.325     8159.585     8624.705      77.4458     155.0771     310.3394      1.522     3.52     835.8945     54.71869     803.7363        20     1.245     0.874 -63.95   3
       421    615.3523    417.4753 307.6732177  +6.5153591     15709.79     22876.37     24538.67     77.69284      155.324      310.432      1.587     3.14     835.6114     54.71869     2145.292        45     1.415     1.142 -72.76   3
       422    948.0671    416.9239 307.5350414  +6.5267059      4212.41     5796.218     5713.873     77.93909      155.324     310.4012      1.428     3.08     834.7534     54.71869     641.4943        20     1.154     0.913 -78.89   0
       423    387.2465    412.7958 307.7681167  +6.5096462     30217.68     44103.01     46071.36     77.19798     155.0153     310.1232      1.539     3.14      836.851     54.71869     4283.638        55     1.446     1.141 -67.71   0
       424    424.2328    414.5729 307.7526951  +6.5101533     633.4139     780.8033     946.1113     77.32198     155.0153     310.2468      1.248     4.47     836.8433     54.71869     94.31073         7     1.019     0.557 -54.73   0
       425    903.5573    412.2351 307.5536862  +6.5271566     1475.211     2277.752     3165.574     77.56942     155.2623     310.2468      1.815     3.82     835.3624     54.71869     265.7697        17     1.295     0.930  80.44   0
       426    133.1735    412.3089 307.8736562  +6.5013113     2395.711     3496.097     3560.178     77.93909     155.0153     310.2776      1.568     3.53     840.6331     54.71869     341.5989        17     1.235     0.838 -85.56   0
       427    916.9188    407.2913 307.5483020  +6.5296438     5451.802     7614.345     7310.905     77.56942     155.5089     310.4937      1.486     3.10       835.11     54.71869     832.4665        27     1.308     0.951 -72.63   0
       428    598.4298    408.6093 307.6805443  +6.5184532     782.9521      1048.09      1736.56     77.32198     155.0771     310.2468      1.381     4.40     835.2712     54.71869     121.1334         8     0.968     0.640 -85.19   0
       429     66.4646    407.9354 307.9015091  +6.5008722     1590.302     2587.912     3363.089     77.81606     155.2623     310.4629      1.920     3.53     842.0368     54.71869     215.0381        16     1.188     0.834 -74.79   0
       430    972.5142    405.2296 307.5252786  +6.5323499     676.1345     883.9133     324.1614     77.93909     155.0153     310.3085      1.384     4.09      833.597     54.71869       119.33         7     1.008     0.474 -79.75   0
       431    244.7629    403.3341 307.8276135  +6.5087685     14704.81     21262.18     21741.68     77.69284     155.2006     310.4937      1.558     3.23     837.9263     54.71869     2028.362        45     1.411     1.129 -70.49   0
       432    739.6412    397.2487 307.6222730  +6.5278685     711.8199     873.2762     1558.837     77.81606     155.2006     310.3703      1.202     3.79       835.71     54.71869     121.8705         5     1.001     0.413 -74.47   0
       433     80.4927    397.0827 307.8960496  +6.5058251     892.9222     1476.883      1609.75     77.56941     155.5705     310.5555      1.653     5.04     841.4076     54.71869     122.6977        11     1.260     0.709  77.82   0
       434    968.2325    395.6316 307.5273784  +6.5361701     1083.763     1276.606     1932.334     77.32198     155.0153     310.1541      1.184     2.53     833.3737     54.71869     190.4623        10     0.879     0.725  61.22   0
       435    707.5749    396.0516 307.6356323  +6.5272905     920.4216     1420.691     1943.545      77.4458     155.2623     310.3394      1.673     3.67     835.7589     54.71869     138.0377         8     0.813     0.692 -16.13   0
       436    144.9291    392.0153 307.8694590  +6.5100854     5210.161     8007.419     8364.152     77.32198     155.2006     310.3394      1.599     3.52       839.89     54.71869     715.1376        31     1.443     1.039 -71.71   0
       437    357.8201    392.8053 307.7810118  +6.5169124     1223.304     1702.953     1719.132      77.4458     154.9534     310.2468      1.435     3.27     836.0215     54.71869     183.0795        12     1.109     0.688 -60.84   0
       438    190.5523    393.0907 307.8504741  +6.5111756      865.764     1197.212     1057.575     77.81606     155.1388     310.5555      1.620     4.31     838.8852     54.71869     128.3975         7     0.968     0.641 -64.62   0
       439    250.0259    390.8204 307.8258495  +6.5141119     1536.529     2176.754     2178.842      77.4458     155.0771     310.3394      1.516     3.40     837.6183     54.71869     241.8064        14     1.133     0.809 -59.96   0
       440    442.3899    391.0203 307.7459465  +6.5204867     796.9662      1267.06     1374.122      77.4458     154.9534     310.2776      1.672     5.25     835.6391     54.71869     118.5651         9     1.279     0.653 -32.48   0
       441    638.4314    390.2502 307.6645464  +6.5273725     547.0737     884.7986     1313.365     77.69284      155.324     310.3703      1.673     3.46     834.8823     54.71869     90.12152         5     0.729     0.473  74.73   0
       442    167.0535    387.6819 307.8604164  +6.5126187     2497.227     4002.702     3995.078     77.81606     155.2623     310.4937      1.669     4.54      839.323     54.71869     345.4954        22     1.639     0.814 -78.13   0
       443    831.4528    388.5803 307.5844287  +6.5345158     811.4658     1223.215     1337.359     77.32199     155.2623     310.2468      1.637     4.62     835.3818     54.71869     120.8679         8     1.128     0.538 -53.51   0
       444    562.7214    386.8918 307.6961058  +6.5262242     913.0437     1237.266     786.3869     77.56942     155.5089     310.4937      1.458     3.16     834.4794     54.71869     143.3566         7     0.860     0.552 -64.78   0
       445    390.5223    382.6241 307.7677721  +6.5222135     2236.833     3109.543     2990.232      77.4458     155.1388     310.4012      1.437     3.14     835.5248     54.71869     335.9739        17     1.201     0.800 -58.47   0
       446    278.7487    383.2288 307.8141759  +6.5182113     859.6693      1149.51     852.1879      77.4458     155.3857     310.3394      1.537     3.87     837.0143     54.71869     152.4224         8     1.048     0.624  89.05   0
       447      9.2903    382.6243 307.9261098  +6.5093972     848.1303     1082.969     1318.106     77.93909     155.0771     310.2776      1.372     4.31     842.5884     54.71869     114.4412         9     0.914     0.766 -39.74   0
       448    979.3621    381.5397 307.5232273  +6.5423598     1010.773     1245.287     1854.095     77.81606      155.324      310.432      1.545     3.04     832.3511     54.71869     153.2073         9     0.963     0.618 -79.88   0
       449    324.9968    380.6319 307.7950548  +6.5208367     557.3071     830.6459     1798.702     77.07376     155.0771     310.2159      1.855     4.15     836.0941     54.71869     110.3308         6     1.116     0.441 -74.57   0
       450     40.8253    376.7733 307.9132104  +6.5128748     3206.659     5339.055     5528.921     77.32198     155.0771     310.3085      1.736     4.17     841.7076     54.71869     433.2857        27     1.634     0.961 -61.18   0
       451    597.9885    378.0698 307.6817539  +6.5310477     577.4463     755.6685     939.0894     77.32198     155.0771     310.2468      1.386     4.78      833.815     54.71869     79.70416         6     0.871     0.745 -40.33   0
       452    444.3283    376.1872 307.7456406  +6.5266760     7498.021     11123.59     11123.95     77.32198     154.8916     310.2468      1.568     3.08     834.9896     54.71869     995.7976        34     1.316     1.123 -70.76   0
       453    777.1072    375.1416 307.6074528  +6.5382487      2159.61      3150.52     3565.816     77.69283     155.2006     310.5555      1.556     3.58     835.2498     54.71869     315.4203        16     1.260     0.763 -80.36   0
       454    784.9885    373.5903 307.6042312  +6.5391526     13869.05     19436.28     20732.92     77.56941     155.0771     310.4012      1.501     3.20     835.1935     54.71869     2087.003        42     1.372     1.060 -72.23   0
       455    205.2267    374.9745 307.8449906  +6.5191486     450.0038     599.6211     540.0167     77.32198     155.0771     310.2776      1.174     3.83     838.1545     54.71869     76.69244         5     0.819     0.514  31.68   0
       456    348.2030    372.2935 307.7856972  +6.5250584     1141.621      1506.25     1103.472     77.56942     154.9534     310.1541      1.489     4.89     835.2615     54.71869     157.4269        10     1.080     0.627 -65.38   0
       457    959.6385    365.8542 307.5319452  +6.5481783     692.3777     887.3928     741.0283     77.81606      155.324      310.432      1.197     3.99     832.4979     54.71869     119.6792         7     0.967     0.470 -83.35   0
       458    909.8613    363.8296 307.5526895  +6.5473533     682.4688     883.9152     710.0479     77.56941     155.2623     310.4012      1.346     3.84     834.1923     54.71869     115.3147         6     1.271     0.333  85.60   0
       459    193.4793    364.1319 307.8502356  +6.5232303     884.6744     1198.599     1560.236     77.93909     155.5089      310.432      1.573     4.51     838.1736     54.71869     120.9605         9     1.095     0.604 -57.81   0
       460    464.6853    360.2681 307.7377211  +6.5339313      2433.02     3428.359     3453.814     77.93909     155.5089     310.4629      1.520     3.01     834.2209     54.71869      365.288        18     1.154     0.896 -76.82   0
       461    921.1127    359.9673 307.5481453  +6.5493235      799.752     1071.057     1405.465     77.93909     155.0771      310.432      1.446     4.83     833.9226     54.71869     117.4516        10     1.185     0.653  82.62   0
       462    850.3628    356.5044 307.5776494  +6.5483913     35494.19     51507.93     53508.52     77.93909     155.1388     310.5555      1.574     3.26     834.7727     54.71869     4894.237        61     1.545     1.118 -75.54   0
       463    492.6273    359.7003 307.7261343  +6.5351024       3281.7     4711.263     4594.856     77.81606     155.0153     310.3394      1.550     3.31     833.9433     54.71869     412.5891        23     1.276     1.003 -65.34   0
       464    342.3828    352.2668 307.7887893  +6.5331316     914.9349     1294.667     1251.117     77.32198     155.2006     310.3085      1.526     4.59     834.6689     54.71869     132.9575         8     0.980     0.610 -82.72   0
       465     68.1164    352.5580 307.9026939  +6.5237914     745.2972     1226.534     986.0123     77.81606     155.2623     310.3703      1.715     4.26     840.4611     54.71869     112.4522         7     0.886     0.601 -83.06   0
       466    622.1904    348.7802 307.6726855  +6.5439512     2822.906     4099.865     4397.552      77.4458     154.9534     310.2776      1.517     3.09     832.8328     54.71869     395.2415        19     1.167     0.916 -77.28   0
       467     30.1158    349.2346 307.9185890  +6.5238840     1254.871     1913.404      2027.38     77.81606     155.2006     310.4012      1.625     4.08     841.1653     54.71869     180.2727        16     1.218     0.912 -86.00   0
       468    962.7982    349.2467 307.5311889  +6.5551408     490.3064     787.0748     797.9802     77.19798     154.9534     310.0305      1.863     4.42     831.6863     54.71869     77.18408         5     0.772     0.720  52.97   0
       469    706.8439    342.4801 307.6377343  +6.5493851     86186.91     120331.9       125688     77.81606     155.2623     310.4012      1.536     3.33     834.1733     54.71869      12826.6        84     1.474     1.198 -69.42   0
       470    864.9164    343.7867 307.5720304  +6.5541283     1386.227      1901.93     2264.668      77.4458     155.0771     310.2776      1.434     3.67     834.0994     54.71869     200.3544        12     1.039     0.786  82.20   0
       471     86.1121    342.0849 307.8955735  +6.5287211     1499.407     2284.208     2366.104     77.56942     155.4473     310.4937      1.602     3.54      839.934     54.71869      218.475        14     1.119     0.817 -63.01   0
       472    569.3344    339.1966 307.6949624  +6.5461383     2705.953     3896.071      4263.07     77.07376     155.0153     310.2159      1.572     3.15     832.0687     54.71869     374.3136        20     1.307     0.867 -70.31   0
       473    948.3661    339.6343 307.5375057  +6.5586282     869.1511     1079.321     1233.275     77.56942     155.0153      310.185      1.122     3.48     832.0162     54.71869     176.8525         7     0.958     0.468  82.06   0
       474    106.5242    337.9566 307.8872350  +6.5311125     6494.899     9667.893      10096.1     77.69283      155.324     310.4629      1.583     3.28     839.4637     54.71869     834.6965        34     1.366     1.096 -75.75   0
       475    552.6088    335.3862 307.7020378  +6.5471513     7480.688     10454.42     10806.58     77.56942     155.0153     310.3394      1.481     3.10      831.789     54.71869       1084.9        28     1.312     0.989 -63.41   0
       476    776.9830    336.2040 307.6088107  +6.5543215      496.866      846.783     906.8475      77.4458     154.8297     310.2776      1.642     3.49     834.0846     54.71869     94.61389         5     0.800     0.497  54.03   0
       477    281.4567    332.9801 307.8147452  +6.5390487     2790.752     4100.238      3555.88      77.4458     155.2006     310.2468      1.532     3.44     835.9052     54.71869     366.6911        21     1.210     0.976 -73.58   0
       478    415.4731    330.5186 307.7591632  +6.5445638     28051.11      40320.2     42021.77     78.06193     155.5705     310.4629      1.587     3.15     832.8542     54.71869       3591.4        53     1.444     1.169 -70.16   0
       479    594.4070    330.0393 307.6848558  +6.5507588     713.2999     869.9332     436.8409     77.19798     154.9534     310.1541      1.471     4.10     831.9335     54.71869     112.9702         6     1.058     0.624 -72.52   0
       480    523.2283    329.3904 307.7144432  +6.5486424     1467.649      1921.42      1783.69      77.4458     155.0771     310.3085      1.432     3.45      831.772     54.71869     224.8206        13     1.167     0.732 -59.14   0
       481    395.4732    328.5160 307.7675379  +6.5447196     1230.408     1898.214     3058.315     77.93909     155.5705     310.4629      1.961     3.23     832.9564     54.71869     187.2038        14     1.046     0.913 -33.16   0
       482    494.5964    325.8817 307.7264541  +6.5491315     1243.283     1635.322     1829.132     77.32198     154.8916     310.1541      1.412     3.32     832.0353     54.71869     187.9414        13     1.071     0.823 -67.90   0
       483    392.3364    323.2103 307.7690195  +6.5468050     766.2079     1266.885     2012.763     77.32198     155.0771     310.2776      1.772     4.65     832.6866     54.71869     113.1351         8     0.995     0.618  72.61   0
       484    810.4943    322.7800 307.5953409  +6.5609840     892.4375     1269.641     1295.092     77.69284     155.0771     310.2776      1.457     2.90     833.2913     54.71869     163.8221         7     0.908     0.481 -79.73   0
       485    504.5499    320.9184 307.7224867  +6.5515144     9245.593     13336.47     13732.48     77.81606      155.324     310.4629      1.527     3.07     831.5995     54.71869     1301.814        33     1.342     1.049 -73.30   0
       486    645.9786    321.9105 307.6637072  +6.5558416     476.2238     828.3635     1119.839     77.81606     155.0771     310.3394      1.817     3.92      832.443     54.71869     98.24658         5     1.266     0.348  66.71   0
       487    773.5458    319.5235 307.6107980  +6.5610938     3460.888     4723.581       4947.2     77.93909     155.2623      310.432      1.473     3.04     833.3522     54.71869     502.7638        22     1.201     0.932 -72.28   0
       488    928.9360    319.4892 307.5462516  +6.5662976     1115.212     1436.484      1479.18     77.69283     155.4473     310.4629      1.501     3.52     831.6971     54.71869     163.6312        13     1.055     0.837 -71.23   0
       489    721.2830    319.1883 307.6325186  +6.5594849     828.9775     1083.307     929.2925      77.4458     155.0153     310.2776      1.281     3.78     833.2571     54.71869     136.0379         8     0.913     0.636 -81.43   0
       490    330.9961    317.8152 307.7946798  +6.5469736     1274.798     1862.139     2099.141      77.4458     154.8916     310.2776      1.511     3.36     833.7557     54.71869     213.2158        12     1.101     0.700  86.52   0
       491    266.5866    311.2840 307.8216532  +6.5475069     637.3199     766.4708     767.0914      77.4458     155.0771     310.2776      1.355     4.17     835.4267     54.71869     104.3959         7     1.021     0.487  85.33   0
       492    166.5588    311.1437 307.8632051  +6.5442024      1196.73     1533.695     2061.339     77.69283     155.2623     310.4629      1.589     3.40     838.1362     54.71869     160.0829        12     0.970     0.868 -51.77   0
       493    250.2127    305.6685 307.8286436  +6.5492752     2252.948     3137.645     3770.271     77.32198     155.1388     310.3394      1.539     3.34     835.6605     54.71869     310.2399        22     1.330     1.009 -77.29   0
       494    394.4521    305.0527 307.7687522  +6.5543729     7940.254     11681.54     11260.96     78.06193     155.1388     310.4629      1.562     3.18     831.7424     54.71869     1049.316        32     1.380     1.053 -69.68   0
       495    747.9257    304.8134 307.6219340  +6.5663109     1083.768     1457.966     1423.846     77.32198     155.0153     310.2468      1.527     3.59      832.698     54.71869      165.814        12     1.113     0.804 -79.12   0
       496    762.3201    301.0199 307.6160820  +6.5683584     58046.49     81726.73     84780.83     77.56941     154.9534      310.432      1.480     3.05       832.48     54.71869     8248.224        62     1.412     1.118 -72.49   0
       497    433.9494    300.3953 307.7525030  +6.5576208     2439.586     3576.327     3900.528     77.19798     155.0771     310.0614      1.542     3.25     830.9335     54.71869     358.7861        18     1.161     0.929 -65.05   0
       498    997.2042    298.0599 307.5186107  +6.5774230     1726.919     2453.433     2506.802     77.19798     155.1388      310.185      1.474     3.21     828.8474     54.71869     268.2851        15     1.131     0.813 -77.85   0
       499    938.0665    297.1811 307.5432061  +6.5758132     2491.765     3405.294     3649.182      77.4458     155.2623     310.3394      1.436     3.39     830.2391     54.71869     375.4062        17     1.291     0.792 -86.49   0
       500    580.0096    297.9457 307.6919149  +6.5635276     1265.838     2097.272     2278.465     77.19798     155.2006     310.1541      1.796     3.68     830.6385     54.71869     195.3557        15     1.248     0.768 -64.12   0
       501    470.7509    296.8426 307.7373361  +6.5603218      1275.67     1783.251     1805.412     77.81606     155.2006     310.4012      1.561     3.57     830.5488     54.71869     189.4323        14     1.157     0.789  84.96   0
       502    420.4897    295.9970 307.7582419  +6.5589853     1973.943     3194.041     3174.878     77.19798     154.9534     310.1232      1.682     3.38     830.7772     54.71869     298.7722        20     1.203     1.012  82.31   0
       503    300.3663    295.4120 307.8081574  +6.5551947     707.2305     1017.887     684.2835     77.32198     155.0153     310.2776      1.311     2.91     833.9598     54.71869     125.2967         6     0.843     0.481 -88.10   0
       504    470.4945    291.1996 307.7376324  +6.5626431     784.6617     1093.078     659.7775     77.32198     154.8916     310.0305      1.290     3.99     830.1935     54.71869     142.1162         7     0.978     0.466 -77.86   0
       505    841.6733    290.5725 307.5834694  +6.5753237      1459.29     1994.359     1834.419     77.56942     155.2006     310.3703      1.492     3.48     831.0791     54.71869     220.2418        12     1.019     0.763  86.93   0
       506    451.0916    287.6713 307.7458108  +6.5634492      1380.58     1863.157     1948.246     77.69283     155.4473      310.432      1.487     3.57     830.1632     54.71869     181.3524        12     1.091     0.706 -77.09   0
       507    196.9328    287.3487 307.8513921  +6.5550480     2389.511     3476.183     3456.411     77.69283     155.1388      310.432      1.542     3.18     836.8251     54.71869     366.6223        20     1.182     0.990 -80.76   0
       508    760.7562    285.6216 307.6172483  +6.5746639     6618.691     9308.787      9937.08     77.32198     155.1388     310.2468      1.484     3.21     831.7584     54.71869     974.8571        27     1.295     0.936 -71.66   0
       509    232.3234    285.0676 307.8367690  +6.5571795     728.2312     1091.332     1140.332     77.93909     155.3857     310.4012      1.692     5.78     835.6116     54.71869     112.2111         9     1.171     0.804 -60.97   0
       510     93.2786    284.4631 307.8945433  +6.5527525      1255.24     2085.354     2691.905     78.06193      155.324      310.432      1.994     4.59     838.8974     54.71869      157.869        13     1.263     0.797 -89.94   0
       511    777.2374    283.4538 307.6104748  +6.5761099     2772.416     3748.496     3696.448     77.69284     155.2623     310.4629      1.449     2.96     831.6145     54.71869     425.6584        19     1.125     0.901 -70.05   0
       512    351.6767    284.9996 307.7871955  +6.5612167     784.6517     1185.852     1128.329     77.07376      154.644     310.1541      1.595     4.79     831.8597     54.71869     94.88269         9     1.068     0.609 -36.26   0
       513    479.6686    282.7165 307.7341072  +6.5664532     664.1568      731.376     372.3338     78.06193     155.5089     310.4629      1.330     4.79     829.8313     54.71869     96.71851         7     0.986     0.660 -89.44   0
       514    365.5591    278.4330 307.7816503  +6.5643939     1498.601     2223.777      2447.14     77.56942     155.2623     310.2776      1.615     3.80     831.4145     54.71869     235.4164        13     1.235     0.713 -87.07   3
       515    368.2592    277.9767 307.7805441  +6.5646729     1246.653     2127.919     2322.239      77.4458     155.2623     310.3085      1.943     4.11     831.3688     54.71869     186.1442        12     1.142     0.744 -65.44   3
       516     80.1532    278.7585 307.9001877  +6.5546659     1443.017      2072.24     1768.601     77.69283     155.2623     310.3085      1.524     3.30     839.1932     54.71869     197.4744        15     1.078     0.884 -82.44   0
       517   1015.3519    274.4007 307.5118640  +6.5877969     6414.102     9042.492     9420.431     77.19798     154.8916     309.9996      1.508     3.01     827.7434     54.71869      875.679        28     1.281     0.995 -71.24  16
       518    493.3653    274.2900 307.7287013  +6.5703915     2206.638     3222.559     3352.818     77.93909     155.2006      310.432      1.556     3.53     829.4508     54.71869       286.03        21     1.320     0.930 -62.51   0
       519    654.9712    274.8690 307.6615521  +6.5755652     483.0692     700.4359     697.7356     77.56942     155.2623     310.3703      1.686     5.13     830.6578     54.71869     71.26526         5     1.148     0.647 -87.92   0
       520    256.0209    269.8945 307.8274376  +6.5642405     6241.757      9222.78     9779.598     77.69283     155.0771     310.2776      1.539     3.29     834.8359     54.71869     901.2222        31     1.392     1.015 -67.71   0
       521    264.3582    270.6365 307.8239495  +6.5642143     501.8243     794.9182     1383.738     77.56942     155.2623     310.3085      1.788     3.83     834.6835     54.71869     92.59143         5     1.046     0.403 -74.34   0
       522    775.2740    263.2189 307.6119694  +6.5843990     974.9838     1439.351     1333.492      77.4458     155.2006     310.3394      1.604     4.37     830.6552     54.71869     151.5497        11     1.056     0.907 -13.73   0
       523    233.4407    262.7609 307.8370574  +6.5664269     718.5449     1344.982     421.7198     77.56942      155.324     310.3085      1.736     4.63     835.1576     54.71869     163.8968         8     1.282     0.773 -32.14   0
       524    390.1362    260.6076 307.7720419  +6.5725784     1886.616     3050.659     2814.496     77.32198     155.0153     310.2776      1.678     3.60     830.6273     54.71869     282.5977        17     1.128     1.008  62.79   0
       525    976.9414    259.6523 307.5283140  +6.5926054     1170.904     1521.146     1706.338     77.81606     155.2623      310.432      1.403     3.55     828.1048     54.71869     154.5236        13     1.002     0.856 -84.99   0
       526    159.8230    256.6436 307.8678426  +6.5664773     1923.876     2847.146     2888.421     77.32198     155.1388     310.2468      1.539     3.03     837.0504     54.71869     307.3175        19     1.240     0.880 -71.50   0
       527    312.4186    256.1940 307.8044732  +6.5717917     1285.923     1828.228     1648.651      77.4458     154.9534     310.2776      1.495     3.73     833.1958     54.71869     183.2159        15     1.143     0.892  73.37   0
       528    913.2463    251.3898 307.5550508  +6.5938916     1872.032     2659.042     2238.764     77.32198     155.1388     310.1232      1.521     4.41     829.0465     54.71869     268.8977        16     1.186     1.029  64.84   0
       529    569.5643    252.0772 307.6977959  +6.5821161     2461.954      3423.38     3249.889     77.69283      155.324     310.4629      1.441     3.17     828.8119     54.71869      364.213        18     1.124     0.920 -76.35   0
       530    733.1581    249.7395 307.6299170  +6.5885564     5472.021     7495.879     7914.059     77.81606     155.2623     310.5246      1.475     3.14     829.9953     54.71869     778.7606        25     1.291     0.936 -66.46   0
       531    674.0316    249.6270 307.6544823  +6.5866251     2470.344     3318.263     3117.272     77.32198     155.0153     310.2468      1.458     3.18     829.4584     54.71869     372.0979        17     1.155     0.890 -84.96   0
       532    971.4265    249.5512 307.5309433  +6.5965921     739.0234     948.4511     679.8448      77.4458     155.2623     310.3703      1.496     3.70     827.9236     54.71869     104.1602         6     0.997     0.395 -71.06   0
       533    388.3230    243.7443 307.7733631  +6.5794800     738.1882     966.3414     1025.679     77.81606     155.2623      310.432      1.427     3.52     830.4312     54.71869     140.1137         8     0.923     0.647  76.69   0
       534    929.1450    241.5071 307.5487773  +6.5985027     1094.865     1434.027     1664.173     77.69283     155.2006     310.5863      1.385     4.77     828.7074     54.71869     143.9351        10     1.058     0.629 -70.47   0
       535    232.5472    234.8214 307.8383711  +6.5779323      2511.48     3542.076     3508.717     77.32198     155.2623     310.2468      1.506     3.40     834.6128     54.71869     345.0989        19     1.239     0.893 -89.88   0
       536    875.3442    233.9587 307.5713802  +6.5998234     1860.883     2466.338     2937.732     77.69283     155.2006     310.4629      1.429     3.50     828.7682     54.71869      259.079        15     1.176     0.766 -69.57   0
       537    765.7330    233.3812 307.6169340  +6.5963997     1817.944     2628.195     2861.058      77.4458     155.2006     310.3394      1.493     3.79     829.2163     54.71869     274.3794        14     1.240     0.786 -63.63   0
       538    254.1864    228.1312 307.8296082  +6.5814217     600.7654     703.2946     92.10348     77.32198     155.1388     310.3085      1.155     4.48     834.4172     54.71869     133.5416         5     1.372     0.490  68.36   0
       539    327.6680    226.0988 307.7991532  +6.5847292      733.544     1320.168     1225.063     77.81606     155.3857     310.4629      1.904     5.82     832.2265     54.71869     103.2469        11     1.333     0.716 -77.35   0
       540    466.6187    224.8657 307.7414750  +6.5899010     24395.06     35535.41      37146.8      77.4458     155.2623     310.3394      1.543     3.13     828.3768     54.71869     3273.277        45     1.394     1.119 -68.48   0
       541    792.6641    223.9300 307.6060635  +6.6012021     14081.57     20353.36     21746.37     77.81606      155.324      310.432      1.526     3.18     828.8004     54.71869     1970.335        48     1.493     1.203 -39.51   0
       542    731.3081    219.9673 307.6316849  +6.6007871     753.0096     1173.959     666.5825     77.93909     155.1388     310.4629      1.513     4.92      828.635     54.71869     134.5685        11     1.097     0.891 -75.02   0
       543    472.2331    219.4854 307.7393239  +6.5923107     1517.226     2354.139     3111.903     77.81606     155.0771     310.4012      1.868     3.08     827.9842     54.71869     203.5516        13     1.011     0.806 -87.65   0
       544    154.8482    218.1333 307.8712091  +6.5822096     2617.953     3737.581     4153.056     77.69283     155.2006     310.4629      1.539     3.79     835.9609     54.71869      368.693        22     1.245     1.058 -74.37   0
       545    129.5953    216.7350 307.8817460  +6.5819373     1158.266     1921.674     2112.834     77.19798     154.9534     310.2159      1.763     4.28     836.9281     54.71869     164.9517        14     1.125     1.067  34.40   0
       546    785.3308    216.0204 307.6093753  +6.6042228     704.1068      903.252     1182.501      77.4458     155.1388     310.3394      1.554     6.44     828.5488     54.71869     110.8937         9     1.389     0.838 -33.21   0
       547    181.4484    215.9532 307.8602334  +6.5840044      803.701     1357.025     1472.182     77.81606     155.1388      310.432      1.938     6.70     835.2733     54.71869     99.70819        13     1.402     0.898 -89.94   0
       548    929.0991    214.2714 307.5497089  +6.6097465      1540.81     2118.401     2388.932     77.56942     155.4473      310.432      1.445     3.49     827.7701     54.71869      221.796        13     1.078     0.816 -70.18   0
       549    590.6822    210.6317 307.6904168  +6.5999354     4889.346     7084.685     7555.492     77.69284     155.1388     310.3394      1.559     3.11     827.6454     54.71869     692.8992        28     1.316     0.988 -73.61   0
       550    553.1840    210.7532 307.7059900  +6.5986292     2221.045     3198.125     3262.718     77.32198     155.1388      310.185      1.569     3.42     827.2654     54.71869     305.8736        20     1.244     0.935 -59.54   0
       551    311.0443    211.2784 307.8065582  +6.5902899     1179.786     1500.058     1040.498     77.69283     155.2623     310.4629      1.417     3.61     833.0382     54.71869     166.4169        11     1.044     0.748  83.04   0
       552    395.0473    209.6369 307.7717187  +6.5937878     1683.923     1999.021     1958.097     77.69283     155.2623     310.3703      1.362     3.73     829.7475     54.71869     224.6941        13     1.136     0.731 -76.30   0
       553    951.6454    207.7449 307.5405611  +6.6131936     2970.416     4050.574     4131.334     77.81606     155.2623      310.432      1.466     3.07     827.0298     54.71869     416.8873        19     1.239     0.847 -85.79   0
       554    897.7525    207.2073 307.5629679  +6.6116169     12091.23     17088.83     17575.88     77.32198     155.0771     310.0614      1.491     3.15     827.7433     54.71869     1842.214        39     1.352     1.061 -75.84   0
       555     23.8529    203.7594 307.9261076  +6.5837346     26958.73     40069.04     42162.23     77.69283      155.324     310.4629      1.589     3.25     840.0026     54.71869     3737.566        55     1.503     1.155 -73.60   0
       556    572.7954    206.9199 307.6979721  +6.6008689     926.9966     1153.656     1103.764      77.4458     154.8297      310.185      1.372     4.43     827.3364     54.71869     144.7127         8     1.027     0.655 -52.76   0
       557    325.2584    207.4347 307.8007832  +6.5923542     840.1588     1065.115     1214.466     77.69284     155.2623     310.4012      1.407     3.88     832.2504     54.71869     132.9593         8     1.105     0.489 -67.89   0
       558    216.7596    207.5208 307.8458502  +6.5886732     679.1612     932.8094     954.2155     77.69284     155.2623     310.4012      1.840     4.68     834.4966     54.71869     102.1578         7     1.052     0.590  75.93   0
       559    984.3356    205.0473 307.5270709  +6.6153979     10491.96     14857.25     15471.83     77.69283     155.2006     310.4937      1.488     3.17       826.28     54.71869     1481.386        34     1.352     0.998 -71.46   0
       560    695.8351    204.9621 307.6469249  +6.6057960     3048.006     4383.742     5160.465     77.56942     155.1388     310.2159      1.556     3.35     827.9944     54.71869     441.3907        22     1.392     0.955 -58.04   0
       561    270.0231    204.6401 307.8238220  +6.5916527     1049.981     1477.577     1273.672      77.4458     155.0771     310.2159      1.522     4.26     834.2342     54.71869     177.4227        12     1.164     0.987 -47.03   0
       562    504.3524    199.7904 307.7266440  +6.6015191      2129.38     2872.831     2891.944     77.32198     155.1388     310.0923      1.396     3.28     826.7707     54.71869     308.9026        18     1.281     0.785 -75.50   0
       563    421.8495    197.9622 307.7609781  +6.5995073     470.2096     762.5858     716.2356     77.56942     155.2006     310.3085      1.514     3.90     828.7588     54.71869     82.74481         6     1.222     0.358 -89.76   0
       564    888.3858    195.9621 307.5672360  +6.6159472     2224.336     3212.527     3484.141     77.56941     155.0771      310.185      1.527     3.39     827.4574     54.71869     303.9244        18     1.268     0.882 -76.97   0
       565    836.1762    196.5184 307.5889069  +6.6139738     2063.078     3045.642     3218.748     77.56942     155.0153     310.3394      1.592     4.07     827.8195     54.71869     291.1812        17     1.387     0.747 -80.10   0
       566    635.5334    196.8925 307.6722467  +6.6071098     396.2124     452.3685     133.9721     77.69283     155.4473      310.432      1.213     4.10     827.6541     54.71869     94.94781         5     1.211     0.397 -74.68   0
       567    516.3903    195.7588 307.7217790  +6.6035872     2603.819     3809.265     4003.991     77.19798     155.0771      310.185      1.550     3.14     826.5578     54.71869     362.1245        20     1.195     0.953 -59.87   0
       568    747.9191    193.1656 307.6256841  +6.6124085     43223.77     61125.59     63643.02     77.69283     155.2623     310.4629      1.488     3.23     827.9184     54.71869     6619.981        58     1.405     1.125 -70.93   0
       569    350.9711    192.4624 307.7906067  +6.5993993     6459.437     12441.66     13596.26     77.56941     155.2623     310.3703      2.064     5.65     830.7295     54.71869     783.9683        44     2.086     1.026 -76.38   0
       570    981.6212    191.8357 307.5286409  +6.6207623     3026.118     4418.406     4677.354     77.32198     155.0153      310.185      1.551     3.29     825.9846     54.71869     434.6185        21     1.254     0.966 -75.66   0
       571   1020.1690    190.5276 307.5126704  +6.6225879     1790.432     2511.742     2440.478     77.69284     155.2623     282.4078      1.506     3.23     825.3625     54.71869     271.1334        15     1.103     0.823 -67.60  16
       572    915.7593    190.2479 307.5560557  +6.6192203     8158.728      11314.3     11338.51     77.69284     155.2623     310.3085      1.463     3.15     826.9082     54.71869     1297.948        30     1.313     0.963 -79.88   0
       573    233.8563    186.1012 307.8394710  +6.5980914     767.8918     1219.609     1421.735     77.56941     155.2623      310.648      1.627     5.39     834.2285     54.71869     113.7303        11     1.256     0.654 -76.31   0
       574    116.6508    180.6147 307.8883429  +6.5964146     5012.747     7333.175     7698.366     77.19798     155.2623      310.185      1.596     3.24     836.1412     54.71869     663.3154        28     1.404     0.975 -72.88   0
       575    936.0847    179.8835 307.5479590  +6.6241780     910.2295     1115.282     1883.372     77.56942     155.3857     310.4937      1.274     4.84     826.2363     54.71869     140.6681         9     1.133     0.586 -78.11   0
       576    262.3425    178.3767 307.8278983  +6.6022380     6953.423     10146.02     10779.11      77.4458     155.2623     310.2468      1.587     3.07     834.0936     54.71869     935.3044        32     1.375     1.033 -70.59   0
       577    286.9771    177.2805 307.8177020  +6.6035183     35915.16     52786.41     54728.53      77.4458     154.9534     310.4012      1.569     3.19     834.0007     54.71869     5195.048        59     1.473     1.171 -69.63   0
       578    613.4661    178.5926 307.6820290  +6.6139267     664.7484     1217.378     1717.373     77.32199     155.0153     310.2776      2.072     4.99     827.3423     54.71869      101.223         6     0.912     0.773 -13.05   0
       579    716.1588    176.3667 307.6394422  +6.6182824     990.7683     1400.052     1677.027     77.56942     155.2623     310.2776      1.458     3.93     827.4485     54.71869     147.1374         9     0.938     0.661 -61.23   0
       580    411.0476    172.8035 307.7663126  +6.6095323     52493.59     77440.45     80507.69     77.19798     155.0153     310.0923      1.547     3.17     828.5316     54.71869     7572.523        68     1.473     1.199 -73.79   0
       581    167.0218    174.1241 307.8676382  +6.6007891     4364.807     6599.994     6543.589      77.4458     155.0771     310.3703      1.549     3.33     834.6474     54.71869     651.9841        28     1.361     1.026 -83.61   0
       582    459.3543    189.3073 307.7456896  +6.6043387     5376.046     7852.004     8575.507     77.81606     155.2006     310.5555      1.582     3.22     827.1177     54.71869     746.5372        28     1.316     1.038 -81.82   0
       583    428.3024    173.4023 307.7591245  +6.6098640     1671.466      2229.73     2228.223     77.32198     155.0153     310.1232      1.453     3.75     827.8435     54.71869     265.1269        15     1.201     0.849 -59.04   0
       584    581.2734    172.8435 307.6955959  +6.6152223     601.3551     1079.557     1421.588     77.69283      155.324     310.4629      1.704     4.46      826.463     54.71869     87.40149         7     0.888     0.637  67.44   0
       585    322.6913    169.9689 307.8031125  +6.6077366     2253.582     3923.792     5100.084     77.93909     155.0771      310.432      2.005     5.91     832.0923     54.71869     285.6556        30     1.895     1.024 -70.90   0
       586    315.0711    170.4780 307.8062609  +6.6072705     19854.85     28703.53      29958.8     78.06193     155.5089     310.4012      1.552     3.30     832.5283     54.71869     2815.189        43     1.400     1.114 -73.05   0
       587    750.3500    169.0210 307.6254846  +6.6224587      35647.8        50429     52303.82     77.32198      155.324     310.3085      1.471     3.05     827.2238     54.71869     5096.493        56     1.411     1.095 -74.53   0
       588    698.3417    170.7893 307.6470313  +6.6199892     1055.632     1404.491     1099.501     77.19798     155.1388     310.1541      1.400     4.31     827.3246     54.71869     162.6849        12     1.355     0.689 -74.18   0
       589    798.7385    169.5855 307.6053633  +6.6238432     1210.975     1700.975     1543.474     77.32198     155.2006     310.2159      1.561     4.05     827.0369     54.71869     154.2559        14     1.157     0.814 -82.12   0
       590     37.5054    169.4360 307.9215969  +6.5983653     729.7803     1129.253     1687.141     77.93909     155.1388     310.5246      1.679     3.38     839.4445     54.71869     135.6007         6     1.038     0.454 -76.97   0
       591     67.1042    166.2847 307.9094083  +6.6006631     9670.337     14388.13     14715.23     77.81606     155.6321     310.5246      1.591     3.27      837.793     54.71869     1367.428        39     1.442     1.100 -75.72   0
       592    100.9815    164.3899 307.8953999  +6.6025858      1597.09     2388.687     2100.254      77.4458     154.9534     310.3085      1.546     4.25     835.9137     54.71869     232.8231        15     1.301     0.811  85.51   0
       593   1008.7462    163.4811 307.5183215  +6.6333743     1106.557     1448.969     1477.576     77.81606     155.2623     310.4937      1.295     2.87     825.0517     54.71869     202.4921         9     0.966     0.619 -78.36   0
       594    976.7446    162.4557 307.5316508  +6.6327304     554.7905     495.0031     869.2033     78.06193     155.2623      310.432      1.156     4.32     825.2427     54.71869     89.12598         6     1.070     0.617 -74.17   0
       595    735.1326    156.6600 307.6322215  +6.6270536     678.1051     1068.083     74.49527     77.93909     155.2006      310.432      1.661     4.48     826.8401     54.71869     98.49792         8     1.037     0.618 -60.69   0
       596    584.3453    153.5387 307.6949688  +6.6232958     799.4386     972.2709     801.5471     77.93909     155.2006     310.4012      1.327     2.81     825.9153     54.71869     156.4579         8     0.908     0.633 -88.86   0
       597   1009.6588    149.6709 307.5184048  +6.6391068     2162.034     3282.684     3691.198     77.93909     155.2623     310.4629      1.666     3.13     824.4101     54.71869     332.5509        17     1.175     0.861 -77.73   0
       598    592.7792    147.2764 307.6916757  +6.6261638     1087.379     1438.595     1363.807      77.4458     155.0153     310.3703      1.338     3.27     825.8493     54.71869     198.4546        10     1.000     0.716 -79.86   0
       599    601.2474    145.3050 307.6882240  +6.6272614      2174.65     2922.446     2853.911     77.69284     155.1388     310.5555      1.459     3.13     825.9589     54.71869     310.0837        16     1.085     0.876 -73.97   0
       600    345.2588    145.2246 307.7945716  +6.6187107     1087.355      1477.07     1689.436      77.4458     155.2623     310.2776      1.523     3.51     830.8275     54.71869     143.4492        13     1.095     0.796  73.56   0
       601    285.9135    143.5472 307.8192814  +6.6174100      32440.5     47455.83     50084.78     77.81606     155.1388     310.5863      1.588     3.29     833.8939     54.71869     4474.647        58     1.469     1.177 -76.17   0
       602     31.1174    142.0613 307.9251759  +6.6094521     4766.584     7281.348     7817.467     77.93909     155.2623      310.432      1.649     3.25     839.7224     54.71869     672.5522        31     1.507     1.033 -78.99   0
       603    717.5298    140.2608 307.6400850  +6.6332358     8872.296     12305.27     13241.89     77.93909     155.2623     310.4629      1.490     3.11     825.9076     54.71869     1306.815        31     1.267     1.036 -75.31   0
       604    194.7643    141.3905 307.8572188  +6.6152367     824.8906     1272.527      1205.07     77.32198     155.0153     310.2159      1.617     4.01     834.1348     54.71869     119.5825         9     1.127     0.549 -45.89   0
       605    271.8216    138.5551 307.8253037  +6.6189977     930.7156     1278.984     1314.946      77.4458     155.1388     310.2776      1.550     3.70     833.9473     54.71869     132.9845        10     1.009     0.727  83.61   0
       606    128.2890    137.1601 307.8849761  +6.6147471     5020.682     7685.711     8216.897     77.81606     155.2006     310.4629      1.615     3.25     834.6797     54.71869     670.1082        33     1.400     1.124 -80.83   0
       607    590.0952    135.5107 307.6931863  +6.6309318     693.8047     1029.181     1791.682     77.81606     155.6321     310.4937      1.420     3.90     825.2553     54.71869     109.3832         6     1.061     0.470 -70.66   0
       608    467.4824    134.6271 307.7441537  +6.6271874     1268.465     1652.908     1618.324     77.69284     155.0771     310.3703      1.384     4.06     824.9615     54.71869     194.1479        12     1.263     0.668 -69.23   0
       609    398.9994    133.4120 307.7726445  +6.6253917      4061.07     6666.983     6548.473      77.4458     154.9534     310.2468      1.738     3.61     827.7186     54.71869     538.9155        33     1.524     1.081  85.33   0
       610    656.0400    134.0977 307.6658376  +6.6337230     789.7518     1051.987     551.0212     77.81606     155.1388      310.648      1.421     2.81     825.5948     54.71869     134.6796         7     0.844     0.542 -48.22   0
       611    363.4774    132.2102 307.7874418  +6.6246957     3458.731     5216.667     4540.843      77.4458     154.8916     310.2776      1.620     3.50     829.8024     54.71869     482.6105        24     1.329     1.027 -78.77   0
       612    575.6772    131.8377 307.6992996  +6.6319653     683.9769     1137.661     1426.851     77.69283      155.324      310.432      1.891     5.89      824.797     54.71869     91.39435        11     1.496     0.654 -60.79   0
       613    117.7792    131.9139 307.8895191  +6.6165594     1907.437     2708.625     2828.593     77.69283     155.0153     310.3394      1.457     3.35     834.7462     54.71869     287.4006        16     1.160     0.863 -79.46   0
       614    754.0051    130.4742 307.6252601  +6.6384963     607.2239      793.623     677.3275      77.4458     154.8297     310.3394      1.305     3.54     825.2407     54.71869      138.871         5     0.969     0.513 -77.59   0
       615    679.1685    129.8767 307.6563708  +6.6362398     986.7151     1313.995     1741.118     77.69283      155.324     310.3703      1.393     3.41     825.3764     54.71869      157.455        12     1.069     0.860  13.68   0
       616   1010.3690    126.5109 307.5188851  +6.6486930     1763.683     2385.848     2027.627     77.93909     155.0771     310.3703      1.488     3.23     823.1536     54.71869     239.3827        17     1.117     0.916 -83.02   0
       617    735.9957    126.4272 307.6328779  +6.6395650     630.8797     919.1344      771.204     77.32198     155.0771     310.2776      1.472     4.41     825.1054     54.71869     111.4306         5     0.999     0.553 -75.17   0
       618    215.3268    121.0217 307.8493642  +6.6243378     5753.896     8473.649      8359.46      77.4458     155.0771     310.3703      1.529     3.28     834.0787     54.71869     752.0568        28     1.326     1.002 -78.65   0
       619    677.1426    119.8986 307.6575477  +6.6402918     6879.891     9776.668     10182.54     77.56941     155.2623     310.6172      1.490     3.13     824.8041     54.71869     1045.761        31     1.337     1.014 -73.15   0
       620     98.0000    120.8664 307.8981089  +6.6204548     2188.747     3286.018     3001.124     77.07376     154.7678     310.1541      1.602     3.74     834.7831     54.71869     276.9221        18     1.192     0.918 -71.57   0
       621    853.9985    120.4947 307.5840523  +6.6459583     480.9006     582.6805      1169.15     77.32198     154.9534     310.0614      1.220     4.20     824.1713     54.71869     68.36456         6     0.970     0.518 -76.47   0
       622    825.0870    119.6394 307.5960925  +6.6453456     1106.972     1589.674     1466.696     77.81606     155.2006     310.4629      1.423     4.18     824.3179     54.71869     173.6212        12     1.211     0.720 -75.08   0
       623    629.2852    117.2332 307.6775195  +6.6397905     10374.47     15224.38      16590.1     77.81606     155.0771     310.4012      1.587     3.14     824.6085     54.71869     1450.931        40     1.433     1.103 -67.89   3
       624    632.8293    108.7226 307.6763332  +6.6434229      57688.7     82352.49     85972.35     77.69283      155.324     310.4629      1.528     3.16     824.1584     54.71869     8446.665        67     1.438     1.155 -73.31   2
       625    264.1194    117.1802 307.8292244  +6.6275639     882.9891     1191.241      969.662     77.56941     154.9534     310.3703      1.397     4.78     833.9711     54.71869     137.2412         9     1.004     0.806 -80.84   0
       626     27.9478    116.4951 307.9273569  +6.6199005     1156.408      1700.88     1280.123     77.69283     155.2006     310.6788      1.590     5.22     839.7876     54.71869     150.2289        13     1.293     0.701 -76.00   0
       627    567.5571    116.4677 307.7031899  +6.6380392      688.066     1016.359     1144.399     77.81606     155.2006     310.4937      1.720     4.60     824.0664     54.71869      87.0639         7     0.893     0.673 -72.60   0
       628    356.5048    112.7612 307.7909939  +6.6324915     3908.494     6056.008     6499.408     77.93909     155.1388     310.5555      1.706     4.17     830.0976     54.71869       553.71        31     1.761     0.949 -60.57   0
       629    538.2653    112.2789 307.7154999  +6.6387873     2000.365     2972.091     3343.688     78.06193      155.324     310.4012      1.681     3.45     823.7393     54.71869     265.7599        17     1.188     0.878 -67.76   0
       630   1002.3198    112.1079 307.5227116  +6.6543714     861.3633     1220.482     1095.765     77.56942     155.5089     310.4937      1.639     3.93     822.3977     54.71869     156.9984         6     1.053     0.420 -77.84   0
       631    311.8994    102.4269 307.8098727  +6.6352603     3830.974     5673.638     5991.217     77.81606     155.0153     310.3394      1.608     3.60     832.6276     54.71869     507.2855        27     1.365     1.056 -84.30   0
       632      9.4228     85.5331 307.9360993  +6.6320594       749045      1558757      1693197      77.4458     155.2623     310.3703      2.134     5.23     840.1655     54.71869     62024.86       459     2.246     1.830 -73.18  28
       633    711.6237     96.9461 307.6439934  +6.6509221     1132.089     1726.385     1925.818     77.32198     155.2623     310.2468      1.644     4.15      823.484     54.71869     175.4291        14     1.260     0.769 -70.22   0
       634    683.1861     95.9829 307.6558403  +6.6503683     1379.649     1895.784     2048.535     77.56942     154.9534     310.3703      1.422     3.48     823.4689     54.71869     199.6913        14     1.199     0.713 -70.73   0
       635    697.2390     92.6719 307.6501131  +6.6522056      3508.46     4790.157     4794.645     77.69284     155.2623     310.4937      1.439     3.16     823.4053     54.71869      494.887        21     1.216     0.918 -80.88   0
       636    438.9341     83.6669 307.7577296  +6.6472700     4428.821     6329.266     6448.937     77.81606     155.2623     310.4629      1.531     3.18      824.272     54.71869     681.4223        27     1.357     1.005 -74.27   0
       637    911.4596     79.0815 307.5615677  +6.6649759     4167.597     5812.767     5850.328     77.93909     155.2623      310.432      1.477     3.12     821.6078     54.71869     575.0383        21     1.259     0.874 -79.21   0
       638    893.4592     80.0262 307.5690147  +6.6639849     2183.178     2941.835     2829.697      77.4458     155.2623     310.2468      1.456     3.31     821.7834     54.71869      306.666        17     1.159     0.870 -75.36   0
       639    603.5052     77.8694 307.6895531  +6.6551797     1919.432     2510.809     2426.871     77.69283      155.324     310.4629      1.455     4.03     823.2351     54.71869     269.1699        18     1.345     0.845 -86.06   0
       640    591.7430     79.2544 307.6943932  +6.6542140     929.3755     1046.187     638.9822     77.93909      155.324     310.4629      1.361     3.94     823.2057     54.71869     138.7335        10     0.989     0.767 -52.31   0
       641    249.4168     77.4131 307.8366738  +6.6434883     905.4052     1457.522     1980.529     77.56942     154.9534     310.3703      1.884     5.21     833.0278     54.71869     131.5526        10     1.380     0.576 -78.37   0
       642    402.3231     75.5640 307.7732125  +6.6493871     2092.086     3104.433     2956.563     77.69284      155.324     310.4629      1.564     3.74      825.869     54.71869     310.5301        19     1.299     0.865 -73.55   0
       643    150.2875     72.4018 307.8780246  +6.6422237      3405.86      5154.16     5113.356     77.07376     154.8916     310.1541      1.614     3.36      832.848     54.71869     427.8978        24     1.319     0.972 -78.20   0
       644     32.1518     70.2155 307.9271752  +6.6391491        13133     19421.06     21014.03     77.32198     155.2006     310.2159      1.581     3.40     837.3509     54.71869     1859.831        41     1.427     1.097 -75.28   0
       645    298.3823     70.9047 307.8165512  +6.6478208      1352.85     1848.407     2289.814     77.69283     155.0771     310.2776      1.482     3.70     832.1014     54.71869     178.7703        13     1.153     0.732  88.76   0
       646    767.1826     69.5197 307.6218315  +6.6641039     739.5453     1115.486     2120.999      77.4458     154.9534     310.3394      1.949     5.61     822.3049     54.71869     128.0065        10     1.201     0.738 -70.72   0
       647    559.0276     69.9419 307.7082983  +6.6569629     758.1488     1077.582     731.3776      77.4458      155.324     310.3394      1.445     4.24     822.9558     54.71869     131.2864         8     0.981     0.929   6.22   0
       648    953.0217     69.1817 307.5446314  +6.6704505     606.8262     712.8149      753.351     77.56942     155.1388     310.3703      1.222     4.37     820.7465     54.71869     103.6756         6     1.020     0.533  79.03   0
       649    571.6003     69.7801 307.7030803  +6.6574509     783.9403     943.0686     554.2516      77.4458     154.8297     310.1232      1.390     3.78     823.0085     54.71869     110.8819         9     0.867     0.785 -59.83   0
       650    833.9158     64.7385 307.5942661  +6.6683083     6728.919     9244.234     10430.02     77.93909     155.2623     310.4629      1.462     3.28     821.5672     54.71869     991.5858        26     1.343     0.931 -61.17   0
       651    901.0279     66.0130 307.5663399  +6.6700234     624.6232     758.9901     919.9521      77.4458     155.0771     310.3394      1.149     4.09      821.161     54.71869      94.1593         7     0.892     0.535 -47.37   0
       652    778.9854     65.1833 307.6170733  +6.6662889     3495.517     4949.254     5374.254     77.56942     154.9534     310.3703      1.472     3.12     821.9855     54.71869     615.5625        20     1.157     0.897 -70.01   0
       653    423.8707     65.7083 307.7645925  +6.6541793     1138.179     1706.249       1556.6     77.69283     155.3857      310.432      1.611     4.54     824.2249     54.71869     150.1125        11     1.055     0.749 -51.70   0
       654    765.7266     64.1053 307.6226182  +6.6662907     725.2192     1306.785     1533.017     77.69283     155.4473      310.432      1.914     4.24     822.0884     54.71869     143.8481         7     1.088     0.636 -86.06   0
       655    541.4323     63.2530 307.7158335  +6.6591350     1379.819     1971.432     2050.804     77.69284     155.2623     310.3394      1.589     3.27     822.8007     54.71869     200.5184        14     1.029     0.900  78.70   0
       656     72.4253     62.0014 307.9107223  +6.6438968     3506.665     4996.033     5181.157      77.4458     154.9534     310.2159      1.525     3.28     834.8111     54.71869     467.2725        24     1.284     0.965 -78.48   0
       657     57.1216     62.6108 307.9170592  +6.6431299     1015.586     1446.582     1263.223      77.4458     154.8916     310.3085      1.445     4.51     835.5913     54.71869     182.0907         9     1.100     0.632 -41.97   0
       658    433.8210     61.5719 307.7605980  +6.6562210     1017.317     1496.357     1699.931     77.19798     155.0153     310.4012      1.489     3.06     823.9459     54.71869     171.1934         8     0.943     0.572 -64.97   0
       659    596.0866     58.8639 307.6932743  +6.6627782     1345.905      2007.89     2092.885     77.81606     155.3857     310.4629      1.519     3.30     822.9665     54.71869      201.169        13     1.150     0.705 -74.97   0
       660     14.8188     57.5532 307.9348039  +6.6437929     2825.475      4074.41     4624.106     77.32198     155.2006     310.2468      1.602     3.57     837.2173     54.71869     403.3134        23     1.279     0.997  88.65   0
       661     87.1614     53.3765 307.9048919  +6.6479539     853.8334     1190.903     1235.966      77.4458     155.0153     310.2468      1.494     4.91     833.8604     54.71869     131.0435        10     1.348     0.667 -85.78   0
       662    773.6027     52.3917 307.6197390  +6.6713904     2016.737     3125.455     3248.783     77.19798     154.9534     310.2468      1.601     3.57     821.5307     54.71869     313.2952        20     1.460     0.776 -73.84   0
       663    414.4941     52.4498 307.7689346  +6.6593387     1188.732     1792.274     1782.992     77.69284     155.1388     310.5555      1.695     4.45     824.3947     54.71869     181.6247        16     1.408     0.780 -79.06   0
       664    111.3321     51.5643 307.8949118  +6.6495158     947.5036     1242.283     1313.412     77.69284      155.324     310.5246      1.466     4.91     833.1066     54.71869     124.4965        10     1.109     0.680 -59.72   0
       665    100.2332     46.4254 307.8996963  +6.6512638     10029.23     14754.21     15095.41     77.19798     155.0771     310.2468      1.588     3.23     833.2695     54.71869      1383.52        35     1.401     1.051 -77.86   0
       666    429.3627     46.2047 307.7629677  +6.6624161      2864.68     4115.589     4500.495     76.94935     155.0153     310.2468      1.541     3.08     823.7505     54.71869     399.6853        20     1.224     0.972  89.83   0
       667    266.9104     40.3204 307.8306576  +6.6593906     1594.271     2595.303     3408.042     77.56942     155.5089     310.5246      1.761     3.64     830.9657     54.71869     232.1865        15     1.166     0.887 -85.32   0
       668    642.9688     38.4532 307.6744823  +6.6727751     20245.16     28351.86     29355.51     77.69283      155.324     310.3394      1.509     3.16     822.7808     54.71869     3072.295        46     1.399     1.076 -77.01   0
       669    952.2435     38.1328 307.5459950  +6.6832442     577.7053     693.4565     910.2947     77.81606     155.2006     310.4629      1.297     4.01     819.3801     54.71869     94.80341         5     0.738     0.698 -46.01   0
       670    542.6956     34.5198 307.7162753  +6.6710406     5480.559     7928.655     7980.594     77.56942     155.5089     310.5246      1.553     3.37     822.3408     54.71869     756.9786        27     1.402     0.957 -67.19   0
       671     10.2204     32.8132 307.9375509  +6.6538521       1247.5      1721.42     1041.242     77.56941     154.9534     310.3394      1.458     3.52     835.0729     54.71869     210.4911        13     1.102     0.788 -76.09   0
       672    699.3861     32.7955 307.6512324  +6.6769992     363.0228     566.4987     692.1608      77.4458     155.0153     310.3085      1.279     3.47     822.1829     54.71869     63.15027         5     0.777     0.447 -72.35   0
       673    724.7708   1019.1866 307.6075857  +6.2705786     7233.928     11345.64     11608.79      77.4458     155.0771     292.6708      1.661     3.53     854.1137     54.71869     894.0246        37     1.476     1.136 -75.00  16
       674    448.2610     30.0996 307.7556586  +6.6696994     24273.03     35517.89     36809.12     77.56942     155.2006     310.5555      1.554     3.26     823.0089     54.71869     3327.504        51     1.431     1.147 -73.75   0
       675    268.8768     30.4638 307.8301732  +6.6635261     9897.299     14268.53     15536.63     78.06193     155.2623     310.4012      1.548     3.29     830.4115     54.71869     1407.054        35     1.402     1.033 -78.33   0
       676    328.8020     30.8840 307.8052628  +6.6653659      1058.75     1580.797     1814.152     77.19798     154.8916     310.1232      1.492     4.59     829.9332     54.71869     163.2192        12     1.324     0.650 -76.70   0
       677     34.3356     30.0811 307.9276250  +6.6557925     2538.306     3630.184     3797.533     78.06193      155.324      310.432      1.535     3.30      834.322     54.71869     352.2414        18     1.256     0.845 -72.73   0
       678    926.2102     30.1921 307.5570777  +6.6856540     2139.552      2870.91      2769.09     77.32198     155.0771     310.3394      1.422     3.34     819.5128     54.71869      314.853        17     1.108     0.915 -67.82   0
       679    561.5034     29.8954 307.7086168  +6.6735801     719.0717     1041.638     1046.442     77.81606     155.8167     310.2776      1.444     3.74     822.3735     54.71869     107.2586         6     0.808     0.497 -85.03   0
       680    261.0435     34.7315 307.8332836  +6.6615009      2158.32     3295.969     4570.376     77.81606     155.2006     310.4937      1.731     3.80     830.7875     54.71869     308.1968        21     1.421     0.937  89.32   0
       681    256.8488     27.0538 307.8352853  +6.6645298     3239.793      4731.17     5184.083     77.81606     155.2623     310.4937      1.530     3.26     830.4379     54.71869     442.1757        25     1.296     1.035 -53.78   0
       682    309.9384     25.0204 307.8132975  +6.6671532     1140.649     1924.643     2471.449      77.4458     155.2623     310.3394      1.713     4.03     829.8011     54.71869     154.9724        12     1.190     0.764 -72.82   0
       683    946.8187     20.2464 307.5488484  +6.6904481     1120.863     1490.464     1315.115     77.32198     155.2006     310.2468      1.430     3.46     818.6886     54.71869     166.4709        11     1.066     0.689 -89.94   0
       684    580.8230   1018.4927 307.6673686  +6.2660504      4350.25     6709.464     7424.507     77.81606     155.0771     298.9224      1.643     3.54     855.4176     54.71869     551.2534        28     1.412     1.016 -77.01  16
       685    103.0495     19.8028 307.8994259  +6.6623500     686.0273     897.0035     511.7465     77.19798     154.8916     310.0305      1.430     2.98     832.7321     54.71869     126.8792         5     0.939     0.374 -59.28   0
       686    209.5410     15.4116 307.8553324  +6.6677460     792.9172     1208.884     1477.728     77.19798     155.1388     310.1541      1.602     4.36      830.421     54.71869     114.4594         9     1.033     0.653 -84.58   0
       687    439.6442   1019.3886 307.7259476  +6.2609518     4177.345     6285.504     7130.385     77.32198     155.1388     290.5021      1.633     3.33     856.0511     54.71869     569.8805        29     1.436     1.050 -62.36  16
       688    716.9913   1018.4057 307.6108415  +6.2706411     1288.042     2091.362     2581.995     77.19798     155.0771     299.6587      1.945     3.93     854.1741     54.71869     181.5262        16     1.248     0.880 -69.48  16
       689    756.8825   1014.5537 307.5944097  +6.2735647     1318.477     1852.618     2508.594     77.81606     155.2623      310.432      1.744     4.05     853.0305     54.71869      175.022        12     1.061     0.857  84.32   0
       690    964.3201   1008.8717 307.5084801  +6.2828351     6192.263     10547.36     10587.39     78.06193     155.5089      310.432      1.841     3.79     850.6097     54.71869     743.4644        40     1.535     1.269 -85.03   0
       691    718.7839   1009.3376 307.6104014  +6.2744451     1074.328     1832.476     2762.204     77.32198     155.2006     310.2468      2.491     4.62     853.9689     54.71869     155.8271        13     1.252     0.748 -81.49   1
       692    724.0409   1007.0233 307.6082965  +6.2755764     2720.833      4360.21     5196.191      77.4458     155.0771     310.2159      1.708     3.71     853.8715     54.71869     356.7228        25     1.454     1.005 -70.26   0
       693    248.9014   1008.7585 307.8054889  +6.2589415     1413.827     2209.084     1779.437     77.81606     155.1388      310.648      1.674     3.81     855.7565     54.71869     212.5793        17     1.219     0.942 -57.99   0
       694    447.0996   1008.1393 307.7232308  +6.2658463      925.567     1303.558     971.6377     77.56941     155.2006     310.5555      1.549     4.50     855.8623     54.71869      149.705        10     1.087     0.665 -76.91   0
       695    739.5516   1006.3497 307.6018797  +6.2763729     977.0803      1558.54     1308.831     77.81606     155.1388     310.4012      1.715     6.19     853.5811     54.71869     118.3959        13     1.180     0.912  76.88   0
       696    370.8633   1004.1989 307.7550120  +6.2649172     2005.882     3061.388     3359.639     77.19798     155.0771      310.185      1.598     4.54     855.5035     54.71869     293.6867        19     1.286     1.044 -56.26   0
       697    621.6385    998.1755 307.6511062  +6.2758050     600.2204     809.2749     850.8257      77.4458     155.0771     310.2468      1.585     4.33     854.4518     54.71869     87.81982         5     1.131     0.472 -85.00   0
       698    523.1440    995.9969 307.6920695  +6.2734075     1070.253     1565.207     1754.519     77.19798     155.0771     310.1232      1.529     5.10     855.6643     54.71869     182.2112        14     1.501     0.771 -65.13   0
