#   1 NUMBER                 Running object number                                     
#   2 X_IMAGE                Object position along x                                    [pixel]
#   3 Y_IMAGE                Object position along y                                    [pixel]
#   4 ALPHA_J2000            Right ascension of barycenter (J2000)                      [deg]
#   5 DELTA_J2000            Declination of barycenter (J2000)                          [deg]
#   6 FLUX_APER              Flux vector within fixed circular aperture(s)              [count]
#   9 FLUXERR_APER           RMS error vector for aperture flux(es)                     [count]
#  12 FLUX_RADIUS            Fraction-of-light radii                                    [pixel]
#  13 FWHM_IMAGE             FWHM assuming a gaussian core                              [pixel]
#  14 BACKGROUND             Background at centroid position                            [count]
#  15 THRESHOLD              Detection threshold above background                       [count]
#  16 FLUX_MAX               Peak flux above background                                 [count]
#  17 ISOAREA_IMAGE          Isophotal area above Analysis threshold                    [pixel**2]
#  18 A_IMAGE                Profile RMS along major axis                               [pixel]
#  19 B_IMAGE                Profile RMS along minor axis                               [pixel]
#  20 THETA_IMAGE            Position angle (CCW/x)                                     [deg]
#  21 FLAGS                  Extraction flags                                          
         1    664.0778     21.3089 307.6690307  +6.6946195     9147.511     16473.77     17340.32     80.86124     162.1083     323.6381      1.873     6.53     902.7657     57.04079     1401.217        39     1.871     0.916 -33.24   0
         2    425.5647     16.7777 307.7682851  +6.6884895     6886.677     12361.31     12822.32     80.60331     161.5937     323.3806      1.888     5.86     908.4709     57.04079     924.4768        39     1.918     0.963 -33.69   0
         3    264.5296     18.0008 307.8351517  +6.6825719      5570.98     10504.13     11922.34     80.47404     161.4003     323.4128      2.084     6.90     921.5266     57.04079     745.9542        45     2.273     0.968 -30.99   0
         4    687.6306     14.3428 307.6594785  +6.6982841     13112.45     25510.12     32888.62     80.98991     161.8512     323.5093      2.439     8.79     902.0098     57.04079     1972.557        66     2.816     0.963 -35.53  16
         5    655.6987     16.6092 307.6726702  +6.6962789     7874.705     14014.29     14792.92     80.86124     161.4648     323.4128      1.896     5.73     902.7164     57.04079     1107.169        35     1.865     0.897 -32.86   0
         6    741.3447     15.4622 307.6371222  +6.6996205     1600.795     2831.119     2809.177      81.2466     161.8512     323.6059      1.897     6.58     899.9838     57.04079     222.6658        18     1.880     0.646 -31.54   0
         7    202.7869     13.5126 307.8609561  +6.6823468     902.3841     1324.741     1174.276     80.73238     161.6581     323.5093      1.471     4.25     921.3104     57.04079     132.6539         8     1.193     0.648 -83.95   3
         8    665.0963     12.7405 307.6688956  +6.6981907     2481.385     4668.012     5411.925      80.9899     161.8512     323.7024      1.996     5.97     902.6048     57.04079     343.2825        25     1.901     0.756 -29.41   1
         9     72.0699      9.7820 307.9153916  +6.6794836     2896.503     5149.927     5477.325     80.60331     161.7225     323.5415      1.856     6.03     921.4605     57.04079     375.5172        26     1.738     0.864 -28.46  16
        10    954.0942      9.6422 307.5489166  +6.7091369     638.9662     1172.967     1334.735     81.11835     161.7868     323.7346      1.665     5.03     893.2374     57.04079     104.4122         9     1.553     0.462 -40.37  16
        11    162.6896      7.3196 307.8778249  +6.6835532     4384.154     7767.079     8267.216     80.86124     162.0441     318.2202      1.907     6.05     921.2535     57.04079     560.6888        30     1.793     0.893 -32.40  16
        12     95.0171      7.2197 307.9059444  +6.6813146     737.3985      1124.28      1387.69     80.86124     161.6581      317.434      1.714     3.39     921.8746     57.04079      154.511         7     1.134     0.584 -47.34  16
        13    789.9581      5.6476 307.6172523  +6.7052990      1073.41     2075.669     2222.744     81.11835     161.7868     303.4142      2.045     6.12     897.7822     57.04079      168.885        14     1.674     0.630 -32.26  16
        14    897.0740      3.5290 307.5728147  +6.7097554     1533.396     2911.578     3031.047     81.37466      156.221     277.3849      1.995     6.72     894.9339     57.04079     251.3689        18     1.880     0.674 -35.31  24
        15    642.8915      2.6627 307.6784607  +6.7016069     930.6231     1549.925      1227.35     81.11835     147.2316     265.0624      1.701     6.54     902.4698     57.04079     166.6487        15     1.795     0.668 -32.66  24
        16    234.2643      3.0155 307.8482324  +6.6877393     852.3102     1563.149     1855.739     80.60331     151.2087     270.1591      2.153     5.61     921.4186     57.04079     127.9114        11     1.560     0.568 -36.03  24
        17    981.8135      1.3465 307.5376766  +6.7134871     532.5016     984.4218     1096.571     69.95351     128.5837     243.5689      1.511     4.92     891.4622     57.04079     124.1177         6     1.483     0.461 -19.62  24
        18    848.1960      1.8045 307.5931824  +6.7088333     663.6096     832.0085     480.5353     75.81063     135.4452     251.1868      1.258     4.78     896.0453     57.04079     132.0834         8     1.590     0.407 -26.20  24
        19    748.5737      1.5163 307.6345870  +6.7056195     973.8584     1279.208     996.6594     72.86948     131.0698     246.5007      1.253     4.81     899.2056     57.04079     194.6537         9     1.321     0.496 -20.34  24
        20    962.5402    992.3455 307.5124893  +6.3037395     5495.425     10407.83     11074.02      81.2466     161.7868     323.5737      2.035     5.83      928.975     57.04079     584.0377        42     1.911     1.142 -32.87   0
        21    922.8264   1021.7086 307.5279951  +6.2902919      6816.29     12987.37     13873.47      81.2466      153.803     273.9479      1.997     5.54     932.7892     57.04079     747.2186        37     1.860     1.055 -30.42  24
        22    554.1851   1021.0267 307.6810688  +6.2782417     6832.213     12432.39     13253.86     80.73238      159.388     283.4371      1.917     5.89      938.503     57.04079     874.5648        35     1.914     0.879 -33.72  24
        23    311.4601   1023.8868 307.7817420  +6.2689172     515.2786     750.8954     1077.139     67.37579     125.3029     239.8211      1.871     3.92     941.1989     57.04079     140.2155         6     1.497     0.294  -4.65  24
        24    644.6265    986.9036 307.6446660  +6.2953578     689.2076     1078.797     1099.773      81.2466     161.5937     323.5093      1.736     5.69     935.7236     57.04079     105.8677        10     1.700     0.537 -35.74   0
        25    936.4573    983.9025 307.5236014  +6.3063542     1582.245     3060.796     3078.194      80.9899     161.7868     323.7989      1.895     6.07      930.455     57.04079     220.2764        24     1.867     0.926 -38.53   0
        26    795.7573    980.1381 307.5821454  +6.3032074     995.1388     1853.197     2056.062     81.11835     161.7868     323.7024      1.875     6.92     932.9873     57.04079     125.9703        18     1.831     0.843 -33.94   0
        27    657.0728    979.8491 307.6397354  +6.2986867       3954.3      7212.21      7852.94     81.11835     161.9155     323.6381      1.933     5.87     935.4207     57.04079     511.2141        28     1.809     0.871 -33.56   0
        28    269.1804    979.9423 307.8007753  +6.2856372     3800.886     6592.229     7115.033     80.73238     161.7225     323.4128      1.831     6.07     941.1452     57.04079     536.0741        25     1.749     0.807 -32.62   0
        29    479.1191    978.0681 307.7136782  +6.2934590     1052.642     1921.954      1804.25      81.2466     162.1083     323.6381      1.890     6.59     938.4577     57.04079     121.3369        16     1.607     0.757 -35.14   0
        30     37.9125    977.2821 307.8968771  +6.2789545     1921.991     3394.125     3514.243     80.86124     162.0441     323.6702      1.885     5.59     940.6085     57.04079     256.1474        23     1.762     0.847 -31.73   0
        31    888.5194    976.2676 307.5437608  +6.3079052      770.426     1403.306      1599.29      81.2466     162.1083     323.6381      2.065     6.22     931.1542     57.04079      106.332        11     1.573     0.691 -36.21   0
        32   1011.9958    973.1319 307.4925983  +6.3133217     651.9982     1282.418     1937.846     80.47404     161.4648     323.3806      3.054     5.10     925.4026     57.04079     82.43005         7     1.345     0.547 -65.83   0
        33    960.2975    973.5357 307.5140500  +6.3114297     518.5557     1073.111     1508.171     81.11835     161.9155     323.6381      1.828     3.61     928.5513     57.04079     89.17719         5     1.423     0.263 -45.58   0
        34    581.4432    972.4069 307.6713856  +6.2992260     1390.066     2370.678     2623.893     80.60332     161.5937     323.3162      1.857     6.88     936.7367     57.04079     211.1827        18     1.729     0.803 -34.63   0
        35    305.3074    973.4661 307.7859949  +6.2895245     683.5502     1023.017     533.5029     80.98991     162.0441     323.6059      1.908     6.25     940.8108     57.04079     115.6262         9     1.807     0.607 -27.53   0
        36     68.6565    970.3360 307.8843483  +6.2828572     420.1993     1187.631     1586.242      81.2466     161.7868     323.6059      2.805     4.13     940.3464     57.04079     90.91992         6     0.993     0.491 -33.40   2
        37    620.9555    968.6535 307.6551067  +6.3020991     993.4427     1759.956     1791.219     81.11835     161.8512     323.6059      1.743     5.41     935.7961     57.04079       174.63        11     1.623     0.509 -34.31   0
        38    300.7714    966.7031 307.7881059  +6.2921639     1262.131     2040.573     2074.735      81.2466     161.5937     323.6059      1.807     7.03      940.815     57.04079     167.6279        18     1.851     0.748 -45.11   0
        39    905.2552    959.1467 307.5373855  +6.3155321     5643.682      10870.9     11465.06     81.37466     161.7868     323.5737      2.060     5.99      930.168     57.04079     643.1945        43     1.977     1.089 -31.92   0
        40    768.8064    961.8258 307.5939493  +6.3098658     749.3837     998.6245     416.7162     80.60331     161.7225     323.4128      1.505     4.32     933.0615     57.04079     103.0308         7     0.891     0.597 -57.73   0
        41    441.1836    956.2734 307.7301614  +6.3011836     1837.003     3532.685     3537.259     80.60331     161.6581     323.5093      1.958     6.00     938.6656     57.04079     237.7643        22     1.651     0.862 -36.79   0
        42    610.2886    956.8160 307.6599331  +6.3066285     454.8128     694.5924     108.4224     80.86124     161.5937      323.445      1.490     7.67     935.8118     57.04079     80.77917         8     1.862     0.884 -19.95   0
        43    342.7483    954.6655 307.7710838  +6.2985431     8262.512     14603.71      15389.3     81.11835     161.7868     323.6059      1.877     5.98     940.0483     57.04079     1088.483        39     1.929     0.885 -33.40   0
        44    262.8765    953.5548 307.8042818  +6.2963182     6099.417     10655.52     11193.17      80.9899     161.9155     323.6381      1.865     5.66     940.7527     57.04079     873.0097        31     1.847     0.843 -35.38   0
        45    775.2304    947.0681 307.5917770  +6.3161729     551.9699     1056.551      643.897      80.9899     161.8512     323.5737      1.709     6.13     932.6375     57.04079     86.07483         7     1.546     0.683 -54.06   0
        46    591.3727    947.5588 307.6680978  +6.3098164     915.1193     1777.331     2047.978     80.73238     161.7225      323.445      1.980     5.50     936.0933     57.04079     151.3795        11     1.656     0.514 -39.20   0
        47    920.4249    944.4019 307.5315807  +6.3221256     935.6748     1338.982     1829.255     80.73238     161.5292     323.4128      1.897     5.29     929.1711     57.04079     122.4515        11     1.267     0.622 -49.49   0
        48    877.1620    943.3549 307.5495789  +6.3211128     602.2103     1135.268     1625.146     80.86124     161.7868     323.5093      2.066     2.63     930.1406     57.04079     123.4711         5     0.740     0.430  20.31   0
        49    757.2306    937.3683 307.5995759  +6.3195752     1275.266      2520.14     2292.792     80.60332     161.5937     323.3484      2.056     6.94     932.8409     57.04079     209.1608        18     1.786     0.761 -25.89   0
        50    849.8026    938.5027 307.5611014  +6.3222018     501.6105     602.2327      93.6416     80.73238     161.5937      323.284      1.287     4.22     930.6637     57.04079     83.07654         6     1.022     0.498  -2.91   0
        51    582.5288    937.7839 307.6720981  +6.3135553     639.0419     1027.086     785.2436     80.60331     161.7868     323.5093      1.756     4.88     936.0886     57.04079     90.84412         5     0.960     0.703 -64.84   2
        52      7.4238    934.5098 307.9109795  +6.2955837     812.5734     1423.484     1463.096     81.11835     161.6581     318.8412      1.951     5.88     939.8387     57.04079     130.1694         9     1.512     0.643 -43.56  16
        53    988.8395    933.0702 307.5035535  +6.3290875     1135.133     1965.303     2335.033      80.9899     161.8512     323.6702      1.808     5.88     925.8983     57.04079     150.5395        17     1.553     0.787 -28.18   0
        54    621.8967    933.5169 307.6558961  +6.3166355      678.192     1015.827     511.1135     81.11835     162.2367     323.6702      1.667     5.65     935.2561     57.04079     107.8132         8     1.446     0.622 -26.24   0
        55    542.4111    932.9037 307.6889189  +6.3142255     1063.247       1894.5     2933.504     80.86124     161.5292     323.4128      2.269     6.02      936.791     57.04079     159.2943        13     1.650     0.618 -30.34   0
        56    676.0128    930.6438 307.6335235  +6.3196336     2130.508     3986.407     4121.363     80.60331     161.7225     323.3484      1.983     6.07     934.1152     57.04079      303.601        24     1.847     0.822 -28.34   0
        57    836.0396    927.7584 307.5671760  +6.3261773     596.8646     932.8339     1089.473     80.86124     161.9155     323.4771      1.593     3.99     930.6893     57.04079     104.0219         6     0.936     0.486 -37.53   0
        58     72.5762    926.6336 307.8841968  +6.3010295     2481.008     4637.421     4764.386     80.60332     161.6581     323.3806      1.956     6.24     939.6819     57.04079     324.4006        24     1.766     0.809 -32.71   0
        59    216.0352    925.5641 307.8246728  +6.3062983     1883.065      3469.35     3405.887     80.86124     161.5937     323.3484      1.854     5.91     940.1047     57.04079     265.6862        22     1.799     0.816 -32.62   0
        60     90.1988    925.7753 307.8769095  +6.3019771     1703.701     3017.156      3170.09     80.73238     161.5292     323.3806      1.852     7.06     939.6855     57.04079      249.351        21     1.777     0.786 -38.38   0
        61    954.2129    925.8539 307.5181726  +6.3309108     623.8295     1364.341     1308.532     80.47404     161.7868     323.3484      2.104     6.59     927.1475     57.04079     110.0674         8     1.531     0.796 -21.88   0
        62    248.3690    922.8165 307.8113411  +6.3085196     541.4587     838.3927     802.7802     80.73238     161.5937     323.5415      1.594     4.30     940.2454     57.04079     87.10315         6     1.230     0.428 -58.75   0
        63    670.5323    919.7224 307.6361656  +6.3239587     5988.326     10687.63     11069.99      81.2466     161.9155     323.5737      1.916     6.12     933.8578     57.04079     826.2628        35     1.846     0.903 -32.10   0
        64    807.8629    920.5006 307.5791186  +6.3282316     733.4978     1183.998     931.7028     80.86124     161.9155     323.6381      1.626     5.68     931.2418     57.04079     100.0193        10     1.642     0.553 -32.03   0
        65    355.4679    921.0254 307.7669357  +6.3128572     781.5342     1106.105     897.0626     80.73238     161.7225     323.5093      1.418     4.12     939.6899     57.04079     128.9642         6     1.294     0.374 -22.05   0
        66    908.3597    916.0359 307.5375404  +6.3334328     2402.605     4315.988     4543.785     80.86124     161.8512      323.445      1.858     5.71     928.4716     57.04079     344.7781        23     1.791     0.798 -36.60   0
        67     30.7613    917.6924 307.9018589  +6.3033121     939.7929     1346.519     1696.403      81.2466     161.7868     323.6702      1.721     4.63     939.4243     57.04079     158.4166         9     1.348     0.452 -22.86   0
        68     43.3094    916.5884 307.8966867  +6.3041905     944.3028     1627.654     1787.857     80.86124     161.5292     323.4128      1.840     5.97     939.4438     57.04079     147.6161        13     1.724     0.582 -25.66   0
        69    353.5107    912.8614 307.7680233  +6.3161616     14354.61     25008.94     26547.67     81.11835     161.9798     323.6702      1.858     6.09     939.6541     57.04079     2016.461        45     1.902     0.933 -33.73   0
        70     88.3420    913.6014 307.8780914  +6.3069400     1152.863      2216.33     2639.846     80.47404     161.4648     323.3162      2.038     6.19     939.5903     57.04079      197.901        16     1.807     0.613 -37.77   0
        71    224.2515    912.6135 307.8216982  +6.3119205     1143.763     1940.851     2416.943     80.47404     161.7868     323.3484      1.833     5.57     939.9697     57.04079     172.9602        13     1.504     0.597 -29.05   0
        72    683.0594    904.8628 307.6314631  +6.3305123     734.8772     1090.292     1306.977     81.11835     161.7868     323.6381      1.795     4.97     933.1452     57.04079      123.438         8     1.260     0.628 -31.58   0
        73    430.9539    903.7784 307.7361751  +6.3225108     1006.475      1539.24     1594.665     80.73238     161.8512      323.445      1.585     4.51     938.3257     57.04079     181.0743        10     1.410     0.588 -32.43   0
        74    116.9174    903.4141 307.8665715  +6.3121073      1418.13     2716.389     2952.367     80.73238     161.5937     323.4128      1.910     6.49     939.6682     57.04079     211.3845        16     1.899     0.622 -37.03   0
        75    684.9645    900.0486 307.6308337  +6.3325635     788.7631     1468.864     1963.804     80.86124     161.9155     323.5737      2.097     6.04     932.9404     57.04079     109.4797        12     1.735     0.591 -26.07   0
        76    511.9948    900.1747 307.7026480  +6.3267168     542.6063     933.3278     987.8726     80.60331     161.6581      323.445      1.657     3.93     936.6549     57.04079     84.76697         6     0.947     0.466 -34.79   0
        77    898.6295    897.7201 307.5421940  +6.3406690     1619.878     2922.906     3158.789      80.9899     161.8512     323.5737      1.888     6.53     928.2524     57.04079     213.1295        21     1.826     0.789 -42.67   0
        78    100.3957    896.8759 307.8736517  +6.3142501     2270.373     4082.582     4925.716     80.73238     161.3357      323.445      2.083     5.98     939.5607     57.04079     310.4806        26     1.919     0.834 -34.44   0
        79    869.3211    897.2286 307.5543800  +6.3398928     1715.845     2875.617     2751.083     80.98991     161.7868     323.6059      1.782     6.67     928.9897     57.04079     222.1415        20     1.659     0.787 -29.61   0
        80    832.6402    896.6555 307.5696300  +6.3389037     2517.234     4484.821      4380.89     80.98991     161.9155     323.6381      1.870     6.53     929.9432     57.04079      379.785        25     1.766     0.842 -32.04   0
        81    568.5991    888.1041 307.6795513  +6.3335971     287427.6     507809.2     540474.1     80.60331     161.4648     323.2195      1.879     5.98      935.084     57.04079     37955.99       170     2.026     1.173 -34.59   0
        82    412.8747    890.6398 307.7441238  +6.3273279     6389.752     11445.56     12581.31      80.9899     161.8512     323.6381      1.909     5.85     938.4616     57.04079     910.4421        30     1.849     0.832 -32.48   0
        83    356.0502    889.0662 307.7677702  +6.3260698     10712.11     19330.19     20691.84      80.9899     161.7225     323.6059      1.862     5.87     939.4648     57.04079     1460.772        39     1.878     0.921 -34.66   0
        84    674.4658    885.3439 307.6356865  +6.3382824     3027.756     5273.687     5176.431      81.2466     161.7868     323.6059      1.858     6.54     932.6118     57.04079     439.1899        24     1.800     0.766 -31.74   0
        85    906.8338    884.1921 307.5392405  +6.3465277     4308.292     8301.572     9492.729     80.60331     161.6581     323.4128      2.055     5.86     927.6994     57.04079     526.4377        36     2.019     0.990 -24.99   0
        86    745.9368    882.3762 307.6061099  +6.3418993     754.8381     1318.333     988.9308     80.73238     161.8512     323.5093      1.658     4.56     931.2704     57.04079     129.8353         9     1.457     0.505 -23.52   0
        87    649.3042    879.3701 307.6463347  +6.3399061     2879.839     5111.455      5271.16      81.2466     161.5937     323.6381      1.793     5.69     933.1046     57.04079     404.1257        25     1.863     0.755 -33.91   0
        88    837.6085    878.6031 307.5681721  +6.3465221     1467.009     2487.162     2408.931     80.47404     161.5292      323.445      1.855     6.56     929.3301     57.04079     194.8427        18     1.672     0.763 -28.68   0
        89    638.2082    878.8151 307.6509606  +6.3397636     792.7034     1205.756     1637.577     80.73238     161.5937      323.445      1.620     4.40     933.4156     57.04079     126.1979         7     1.095     0.503 -38.92   3
        90    641.9904    874.2423 307.6495437  +6.3417780     1912.493     3660.931     4739.496     80.47404     161.6581     323.3484      2.240     6.22     933.1563     57.04079     249.2751        25     1.882     1.023 -49.69   2
        91    965.1834    877.5117 307.5152356  +6.3512338     671.7197     1239.599     1407.553     80.86124     161.5937     323.4771      1.981     5.82     925.4965     57.04079     111.4233        10     1.403     0.679 -26.64   0
        92    656.0462    891.4378 307.6431301  +6.3351501     914.1392     1334.319     1466.888     80.86124     161.7868     323.4771      1.425     5.47     933.2825     57.04079     170.0182        12     1.488     0.567 -30.65   0
        93    336.2272    872.4528 307.7765603  +6.3322622     764.8633     1408.143     1238.679     80.86124     161.9798     323.5415      1.905     7.17     939.7145     57.04079     148.4847        13     1.889     0.763 -45.16   0
        94    925.6343    872.2395 307.5318343  +6.3520899      2703.56     4896.002     5238.768     80.86124     161.7225     323.4128      1.963     5.64     926.9391     57.04079     352.7524        23     1.687     0.847 -30.64   0
        95    384.0200    867.9397 307.7568685  +6.3357301     2322.965     4213.573     4816.169     80.73238     161.7225     323.5415      2.013     5.97     938.7729     57.04079     341.1512        25     1.864     0.829 -35.35   0
        96    804.0912    864.2268 307.5825714  +6.3513365     497.2895     908.2756     1150.332      81.2466     161.5937     323.4771      2.156     4.74     929.8391     57.04079     89.85767         5     1.368     0.465 -62.40   0
        97    520.2984    857.8241 307.7006243  +6.3444781     2762.473     4743.807     4943.609      81.2466     161.5937      323.445      1.800     6.20     935.2495     57.04079     394.9688        23     1.700     0.793 -30.36   0
        98    864.6655    857.0659 307.5576589  +6.3563173     817.4365     1519.941     2050.218     81.11835     161.8512     323.6381      2.148     6.13     928.0388     57.04079     129.8227        14     1.968     0.537 -39.08   0
        99    584.3123    855.9469 307.6741075  +6.3473986     711.8846     1111.714     827.0562     81.11835     161.7225     323.7346      1.809     4.85     933.8896     57.04079     108.7791         9     1.573     0.423 -39.14   0
       100    567.0494    853.9801 307.6813416  +6.3476320     5138.011     9258.645     10184.82     80.60331     161.9155      323.445      1.915     6.25     934.0992     57.04079     694.4507        31     1.913     0.797 -33.15   2
       101    573.7673    853.3080 307.6785747  +6.3481346     1126.117     1854.793     2432.161      81.2466     161.7225     323.6381      1.767     6.17     933.9421     57.04079     155.0869        15     1.649     0.649 -32.17   3
       102    278.3684    854.1762 307.8011993  +6.3378630     560.1462     1040.421     825.9307     80.47404     161.6581     323.3806      1.673     4.06     940.1196     57.04079     128.1748         5     1.450     0.326 -39.55   0
       103    902.5634    852.2896 307.5420824  +6.3595552      1189.17     2038.716     2169.736     81.11835     161.7868     323.6381      1.863     6.85     926.9059     57.04079     172.4792        19     2.017     0.653 -34.02   0
       104    484.5902    852.9267 307.7156157  +6.3453024     1355.469     2379.561     2435.739     80.60331     161.4648     323.4771      1.838     6.22     935.9157     57.04079     204.6719        15     1.668     0.651 -33.37   0
       105    126.4475    851.9182 307.8643531  +6.3336856     1112.453      1785.02     2064.402     81.11835     161.8512     323.6381      1.835     6.38     939.3493     57.04079     167.8095        16     1.820     0.629 -38.18   0
       106    702.8043    850.9416 307.6250746  +6.3534328     626.7004     1113.791     581.2606     80.47404     161.7225     323.3806      1.714     5.02     931.1699     57.04079     104.7017         9     1.781     0.400 -37.88   0
       107    537.7336    847.7615 307.6937232  +6.3492166     16813.13     29332.73     31277.23     80.98991     161.7868     323.7024      1.836     6.07     934.4532     57.04079     2475.509        47     1.915     0.895 -33.09   0
       108    379.0171    849.3720 307.7595710  +6.3432271     733.2623     1288.771     910.8588     80.73238     161.5937     323.5093      2.174     4.86     938.2985     57.04079     107.3828         9     1.307     0.513 -17.73   0
       109    951.3846    846.0868 307.5220175  +6.3637461     3139.728     5851.473     6159.782     80.73238     161.5937     323.5093      1.948     5.60     925.0499     57.04079     381.3652        28     1.767     0.936 -29.86   0
       110     72.1920    843.2782 307.8871714  +6.3354256     524.3601     895.9188     1054.818     80.73238     161.3357     323.4128      1.799     4.64     938.7548     57.04079     75.54407         7     1.316     0.465 -25.51   0
       111     47.9799    838.5195 307.8973848  +6.3365745     1234.975     2124.448     2087.101     80.86124     161.5292     323.5415      1.795     5.45     938.3441     57.04079     216.9446        15     1.452     0.797 -34.45   0
       112    330.3283    836.5364 307.7802195  +6.3468906     2827.424     4866.937     5508.186     81.11835     161.8512     323.6381      1.829     6.17     938.9079     57.04079     400.6157        22     1.893     0.724 -31.53   0
       113    795.8825    832.3652 307.5870484  +6.3642152     46820.57     83009.08     88610.48     81.11835     161.7868     323.5737      1.891     6.13     928.9652     57.04079     6571.301        70     1.958     1.025 -32.06   0
       114     30.1361    834.4053 307.9049325  +6.3376717     1845.768     3394.645     3508.481     80.47404     161.5937     323.3806      1.921     5.28     938.0565     57.04079      269.993        24     1.785     0.818 -35.93   0
       115    734.5330    834.2250 307.6124607  +6.3613955     650.5795     1231.375     1407.706     80.73238     161.7225     323.5093      1.887     4.62     930.3674     57.04079     142.7208         8     1.579     0.385 -18.47   0
       116    253.1248    830.3002 307.8124856  +6.3468706     4350.322     8153.166     10404.71     80.60331     161.9798     323.5093      2.155     6.12     939.5089     57.04079     596.7277        32     1.880     0.912 -38.67   0
       117    724.1241    826.9578 307.6170268  +6.3640472     18263.54     32903.45        35701      80.9899     161.8512     323.6381      1.906     5.90     930.4421     57.04079      2458.55        54     1.969     0.997 -33.34   3
       118    717.8228    823.4427 307.6197613  +6.3652875     75295.25     133021.6     141068.9     80.73238     161.7225      323.445      1.872     6.11     930.4758     57.04079     11244.67        84     1.966     1.031 -33.13   2
       119    439.1599    830.7292 307.7352262  +6.3529417     798.4893     1518.716     1662.641      80.9899     161.8512     323.6702      1.873     5.37     936.2239     57.04079     123.5875        11     1.527     0.533 -31.01   0
       120    921.1857    827.6379 307.5351753  +6.3703539     7103.194     12970.13     13917.99     80.86124     161.6581     323.3484      1.875     5.97     925.5689     57.04079     938.4536        35     1.833     0.929 -31.12   0
       121    362.6856    824.3000 307.7671964  +6.3530286     17913.92     31155.58     33275.47     81.11835      162.365     323.7024      1.845     5.87     937.7612     57.04079     2357.531        49     1.915     0.943 -35.36   0
       122    411.8710    824.6490 307.7467618  +6.3545359     1315.037     2287.121     1988.021     81.11835     161.7868     323.6381      1.790     5.88     936.8198     57.04079     226.2638        13     1.532     0.719 -32.54   0
       123    424.5349    822.1575 307.7415873  +6.3559894     19680.55     33913.32      36218.5     81.11835     161.7868     323.6381      1.861     5.90     936.3436     57.04079      2635.66        52     1.949     0.932 -34.61   0
       124    252.6594    808.6456 307.8134089  +6.3557941     741495.8      1758989      2001358     80.98991     161.8512     323.7024      2.425     7.53     939.2479     57.04079     62942.47       564     2.622     1.973 -40.99   4
       125    651.3075    823.5826 307.6473763  +6.3630032     683.5915      1112.44     1384.722     80.86124     161.5937     323.4771      2.195     5.16     931.4686     57.04079     109.7877         8     1.635     0.460 -32.83   1
       126    961.7380    820.9976 307.5185583  +6.3744492     1545.856     2739.987     2530.223     80.47404     161.6581     323.3162      1.796     7.70     923.6376     57.04079     208.4343        23     1.980     0.841 -33.42   0
       127    918.0718    819.0175 307.5367571  +6.3738086     5503.467     9986.841     10707.42     80.60331     161.7868     323.5415      1.881     5.58     925.3483     57.04079     720.0538        33     1.851     0.894 -31.82   0
       128    891.2383    819.3893 307.5478872  +6.3727588     565.4674      906.063      1083.39     80.60332     161.6581     323.3162      1.915     5.42     926.2557     57.04079     106.9402         7     1.740     0.476 -40.61   0
       129    658.6522    818.0516 307.6445123  +6.3655324     5449.749     9702.726     10055.05      81.2466     161.7225     323.6059      1.892     6.13     931.2225     57.04079     746.1521        32     1.886     0.862 -33.20   0
       130    447.3632    815.9993 307.7323157  +6.3592976      1399.97     2732.136     2800.216     80.21486     161.6581     323.4128      1.999     6.36     935.3367     57.04079      218.816        16     1.818     0.626 -34.56   0
       131    172.2630    815.4564 307.8465609  +6.3502788     788.4269     1284.071     1213.294      81.2466     161.7868     323.6381      1.690     5.70     939.4082     57.04079     106.9449        11     1.437     0.637 -35.54   0
       132    611.7478    810.1780 307.6642533  +6.3672119     782.5521     1386.478     1531.953     80.60331     161.8512     323.4128      1.870     5.87     931.3168     57.04079     130.8306        12     1.834     0.529 -25.40   0
       133    886.4764    809.6320 307.5501915  +6.3766278     440.8158      979.029     920.2241     80.98991     161.8512     323.5415      2.377     5.26     926.1686     57.04079     87.91547         7     1.351     0.579 -45.64   0
       134    693.6738    808.1541 307.6303022  +6.3707907     2062.588     3513.843     3913.303      80.9899     161.9155     323.6059      1.892     5.90     930.5955     57.04079      283.713        21     1.871     0.693 -34.59   0
       135    162.8843    809.2021 307.8506661  +6.3525450        863.1     1562.642      1527.15     80.47404     161.4648      323.284      1.739     6.24     939.4007     57.04079     129.1256        12     1.572     0.696 -29.11   0
       136    427.5231    804.8096 307.7409304  +6.3632511     46907.14        81013     86361.59     80.73238     161.4648     323.4128      1.851     5.90     935.6108     57.04079     6652.343        71     1.964     0.997 -33.58   0
       137    137.8213    808.5123 307.8610958  +6.3519864      954.836     1792.665     2103.837     81.11835     161.5937     323.4771      2.149     5.91     939.1979     57.04079     148.4572        13     1.644     0.597 -27.23   0
       138    545.2911    803.8484 307.6920614  +6.3675979     6151.149     10670.24     11375.07     81.11835     161.7225     323.7667      1.846     5.85     932.9631     57.04079     845.9708        36     1.825     0.904 -33.21   0
       139    461.9957    802.3444 307.7266992  +6.3654254     3811.069     7046.782     7973.842     80.47404     161.6581     323.3162      1.955     7.25     934.1519     57.04079     568.7614        33     1.865     1.019 -34.45   0
       140    790.4545    800.4626 307.5903722  +6.3772037     10125.42     17440.53     18757.47      81.2466     161.7868     323.5737      1.868     6.00     928.1409     57.04079     1306.081        40     1.866     0.918 -31.75   0
       141    458.5314    795.9420 307.7283532  +6.3679522     1888.064     3128.187     2894.531      81.2466     161.7868     323.5415      1.767     6.32     934.0977     57.04079     249.3837        21     1.732     0.813 -37.43   0
       142     19.6274    796.7943 307.9105666  +6.3528433     1113.128     2083.107     2271.541     80.60331     161.6581     323.4128      1.823     6.50     937.9623     57.04079     160.3687        17     1.825     0.649 -36.02   0
       143    812.0930    794.7566 307.5815781  +6.3802828     1122.669     1880.906     1902.237     81.11835     161.8512     323.7346      1.673     5.06      927.464     57.04079     189.9126        10     1.746     0.415 -33.33   0
       144    148.2234    792.4257 307.8573197  +6.3589770     9674.253     17441.22     18977.08     80.60331     161.7225     323.5093      1.906     6.48     939.1082     57.04079     1338.002        40     1.917     0.921 -33.46   0
       145    985.2261    788.9273 307.5098783  +6.3884726     1231.575     2261.496     3268.196     80.73238     161.7225     323.5093      2.925     8.22     921.6558     57.04079     180.6603        22     2.401     0.787 -42.83   2
       146    156.4580    792.6235 307.8538939  +6.3591725      2613.88      4667.75     4825.367     80.73238     161.8512      323.445      1.827     6.14     939.2007     57.04079     324.0057        22     1.786     0.743 -36.37   0
       147    140.2966    789.8186 307.8606990  +6.3597865     2378.788     4221.127     4719.315      80.9899     161.7225     323.3806      1.856     5.91          939     57.04079     360.1693        21     1.849     0.734 -38.39   0
       148    935.9536    789.0342 307.5303358  +6.3867836     5332.238     9638.479     10543.17     80.73238     161.8512     323.5415      1.917     5.64     923.5941     57.04079     704.2933        34     1.869     0.932 -33.70   0
       149    229.9201    789.1768 307.8235072  +6.3630664     754.3874     1522.136     3200.275     80.73238     161.5292     323.5737      3.808     5.26     938.9307     57.04079     121.7383        10     1.275     0.661  65.44   0
       150    691.5684    786.5450 307.6319019  +6.3796409     1370.592     2453.759     2991.873     80.98991     161.9155     323.5737      1.945     6.22     930.0142     57.04079     199.0012        17     1.589     0.792 -34.17   0
       151    578.2587    785.8119 307.6789782  +6.3761486     1968.164     3431.586     3705.094     80.47404     161.7868     323.3162      1.862     6.57     931.4547     57.04079     277.2882        20     1.686     0.720 -34.84   0
       152    426.1709    785.4893 307.7421422  +6.3711813     1093.525     2004.938     2102.308      81.2466     161.5937     323.5093      2.113     6.29     934.9531     57.04079     153.3123        15     1.696     0.654 -26.43   0
       153    140.5467    783.2875 307.8608156  +6.3624909     1592.575     2740.019     3174.324     81.11835     161.7225     323.7346      1.847     6.76     938.8925     57.04079     219.0051        19     1.842     0.700 -34.68   0
       154    930.2772    781.0455 307.5329605  +6.3898919     2454.775     4442.728     5045.708      80.9899     161.9155     323.6059      1.956     5.78     923.5442     57.04079     344.4115        25     1.948     0.773 -31.93   0
       155    959.6338    780.4341 307.5207902  +6.3911245     2658.781     4734.095     4532.088     80.86124     161.5937     323.3484      1.900     6.48     922.4012     57.04079     329.6703        24     1.779     0.860 -31.47   0
       156    990.5394    780.2885 307.5079611  +6.3922162     1653.716     3011.535     3098.458     81.11835     161.9798     323.6381      1.939     6.54     921.2571     57.04079      204.055        20     1.634     0.836 -31.35   0
       157    682.4186    780.2449 307.6359128  +6.3819354     1339.534     2264.886     2931.024     80.73238     161.7225     323.3484      1.816     5.99     929.9686     57.04079     180.3733        15     1.729     0.584 -33.36   0
       158    829.7418    778.5358 307.5747932  +6.3875691     928.6202     1315.763     960.7131      81.2466     161.7868     323.6381      1.595     5.68     926.6414     57.04079     151.3536        11     1.548     0.587 -36.02   0
       159    254.9536    775.5480 307.8135723  +6.3695341     1499.551     3099.839     3683.884      81.2466     161.7868     323.6702      2.308     7.16     938.3242     57.04079     226.5449        19     1.819     0.790 -37.23   0
       160    906.1078    775.5090 307.5431827  +6.3913704     619.6258     1091.234     1595.343     81.11835      162.365     323.6702      1.829     4.96     924.2498     57.04079     94.16766         9     1.492     0.466 -42.04   0
       161    692.4608    772.3544 307.6320077  +6.3855288     636.6428     1090.019     1617.022     80.98991     161.7868     323.6702      2.214     4.93     929.4886     57.04079     97.82904         7     1.606     0.429 -31.17   0
       162    947.5254    770.6808 307.5261450  +6.3947467     950.2988     1654.799     1692.658     81.37466     162.1083     323.6702      1.803     6.54     922.5686     57.04079     143.7604        12     1.796     0.669 -26.09   0
       163    275.6669    770.8010 307.8051315  +6.3721899     624.5194     1135.643     1317.458     80.34455     161.4003     323.3484      1.793     4.26      938.043     57.04079     92.67847         6     1.467     0.353 -44.77   0
       164    170.6818    770.0951 307.8487482  +6.3689508     563.8513     1057.341     902.8249     80.86124     162.1725     323.7024      1.974     4.33     938.7533     57.04079      112.426         6     1.824     0.292 -43.84   0
       165    974.4983    768.3558 307.5150219  +6.3966069     2112.436     3637.259     3562.555     81.11835     161.7868      323.831      1.898     6.71     921.6093     57.04079     253.6688        22     1.818     0.787 -33.06   0
       166    921.7782    769.5539 307.5368748  +6.3943521     950.1585     1961.926     2333.687     80.73238     161.8512      323.445      2.302     6.09     923.4409     57.04079     159.0352        14     1.574     0.663 -29.91   0
       167    981.3963    768.5280 307.5121516  +6.3967661     536.0807     676.6811     990.7817     80.60332     161.4003      323.445      1.627     5.14     921.3967     57.04079     94.61731         5     1.073     0.696 -60.67   0
       168    694.2059    767.2030 307.6314560  +6.3877139     791.7611     1634.614      1865.51     80.47404     161.5292     323.4771      2.554     5.79     929.2664     57.04079     126.6299        12     1.676     0.563 -35.01   0
       169   1016.3267    761.7682 307.4978722  +6.4007223     1457.734     2845.042     2901.204     80.98991     161.8512     323.6381      2.067     6.48     920.1448     57.04079      205.034        21     1.816     0.795 -28.31  16
       170    817.4509    760.4739 307.5805027  +6.3946145     1090.412     1754.918     1354.682     81.11835     161.9155     323.6381      1.753     5.64      926.397     57.04079      175.593        13     1.734     0.516 -25.17   0
       171    904.2925    757.2931 307.5445467  +6.3988297     1068.421     2216.167      2752.17     81.11835      162.365     323.5737      1.950     6.17     923.6269     57.04079     185.1242        15     1.795     0.595 -31.92   0
       172    878.4435    752.3873 307.5554455  +6.3999913     804.1025     1414.327     1874.874     80.60332     161.7225     323.3484      1.726     5.41     924.3921     57.04079     116.7798         9     1.485     0.557 -26.39   0
       173    860.8151    749.0912 307.5628765  +6.4007630      1283.89     2272.841      2461.34     80.86124     161.6581     323.4128      1.822     6.36     924.8656     57.04079     183.5418        15     1.818     0.626 -34.03   0
       174    124.3337    745.4114 307.8688263  +6.3775805     627.5816     1857.866     2225.806     80.60332     161.6581     323.4771      3.146     6.45     938.1462     57.04079     98.77606         9     1.685     0.693 -18.26   2
       175     60.0853    747.7287 307.8954257  +6.3744605     2152.984     4078.034     4447.845      81.2466     162.1083     323.6381      1.963     5.91     937.9446     57.04079     306.5094        25     1.868     0.837 -30.88   0
       176    672.5198    736.4483 307.6414940  +6.3996840      5440.59      9226.74     10114.72     81.11835     161.9155     323.5737      1.858     6.33     928.8175     57.04079     704.5074        32     1.841     0.888 -36.28   0
       177    619.4134    735.6025 307.6635757  +6.3982546     1201.302     2316.927     2620.514     80.73238     161.5292      323.445      2.113     7.14      929.381     57.04079     188.4204        17     1.689     0.846 -40.76   0
       178    529.8401    735.7507 307.7007672  +6.3951916     563.8877       900.27     849.2048     81.11835     161.8512     323.5415      1.612     4.13     931.0666     57.04079     97.34521         7     1.597     0.305 -38.92   0
       179    135.6119    732.1931 307.8645895  +6.3834166     3235.927     5647.346     5477.108     80.73238     161.6581     323.5093      1.741     5.53     938.0198     57.04079     429.8972        26     1.785     0.824 -35.65   0
       180   1009.5267    731.6702 307.5017034  +6.4129207     2157.465     3830.864     3754.408      81.2466     161.9798     323.6059      1.839     6.89     919.8474     57.04079     283.2373        22     1.774     0.824 -30.45   0
       181    646.5648    732.0363 307.6524205  +6.4006362     1843.441     3262.154     2761.618     80.86124     161.5937     323.3484      1.809     6.71     928.9103     57.04079     268.8704        19     1.809     0.698 -30.00   0
       182    323.0343    732.0660 307.7867682  +6.3897717     673.2237     1236.734     1031.085      80.9899     161.8512     323.6381      1.891     5.26     935.7532     57.04079     106.5795         6     1.149     0.679 -55.63   0
       183    789.4739    728.4507 307.5931947  +6.4068990      17653.7     29929.73     31712.95     81.11835     161.9155     323.6381      1.827     5.75     926.0818     57.04079     2441.653        49     1.899     0.907 -33.89   0
       184    919.6058    728.2552 307.5391603  +6.4113286     3280.312      5737.96     6039.751     80.60332     161.6581      323.284      1.869     5.77     922.0823     57.04079     429.4415        28     1.810     0.853 -29.88   0
       185    517.4047    728.3083 307.7061814  +6.3978469     880.3802     1271.738         1178     80.73238     161.5292     323.3806      1.459     5.32     931.1766     57.04079     146.7382        11     1.522     0.524 -29.68   0
       186    488.5280    728.6814 307.7181602  +6.3967245     1065.127     1881.656     2002.383     81.37466     162.1725     323.6381      1.784     5.89       931.83     57.04079     153.0563        14     1.731     0.565 -27.20   0
       187    334.8137    727.7313 307.7820229  +6.3919569     643.3889     759.0159     377.9963     80.60331     161.7225     323.4771      1.370     3.50     935.2477     57.04079     108.9584         5     1.017     0.347 -41.56   0
       188    262.7921    722.0790 307.8121202  +6.3918699     5019.901     9291.802     9934.666     80.73238     161.3357     323.4128      1.919     6.20     936.7221     57.04079     694.8329        34     1.918     0.885 -34.54   0
       189    670.0884    721.2312 307.6430147  +6.4058845     5974.054     10585.24     11676.34      81.2466     161.6581     323.5415      1.893     6.74     928.1047     57.04079     935.8896        29     1.794     0.826 -31.98   0
       190    652.8278    722.0598 307.6501547  +6.4049644     727.1047     1286.495     1037.822     80.73238     161.9155     323.5093      1.872     5.29     928.3832     57.04079      117.302        11     1.555     0.509 -40.47   0
       191    365.1023    721.3116 307.7696617  +6.3956243     564.7401     858.7229     480.7359     81.11835     162.3009     323.6381      1.662     5.75     934.1298     57.04079     89.80945         9     1.380     0.675 -28.40   0
       192    929.5003    714.1279 307.5355245  +6.4174911     1052.449     1771.775     2020.407     80.86124     162.0441     323.6059      1.761     5.73     921.3665     57.04079     175.4879        13     1.558     0.594 -29.73   0
       193    741.7330    709.6017 307.6136529  +6.4130832     2942.833     5643.122     6556.721     80.60332     161.4003     323.3806      2.120     5.87     926.0051     57.04079     411.5424        33     1.911     0.976 -31.32   0
       194    696.8068    710.0211 307.6322957  +6.4114066     884.6444     1634.456     1598.166     80.73238     161.6581     323.4128      1.805     6.80     926.9646     57.04079     154.1924        13     1.970     0.658 -33.92   0
       195   1008.0289    706.2779 307.5031753  +6.4233532      7550.63     13590.25     14123.24      80.9899     161.9155     323.6381      1.897     5.96     918.9724     57.04079     992.9538        38     1.888     0.926 -32.34   0
       196    946.4874    706.8364 307.5287142  +6.4210685     2016.305     3651.955     3819.464     81.11835     161.7225     323.6059      1.955     5.99     920.7381     57.04079     283.5419        20     1.751     0.739 -32.44   0
       197      8.1104    708.1144 307.9183459  +6.3890619     673.5264     891.5725     844.3527     80.86124     162.1725     322.6392      1.503     4.48     937.5311     57.04079      93.8465         6     0.958     0.595 -25.12   0
       198     26.8993    705.9225 307.9106182  +6.3906000     1581.199     3304.813      4093.33     80.73238     162.0441     323.6381      2.455     6.61     937.5084     57.04079     245.0827        22     1.750     0.968 -19.60   0
       199    444.4685    704.0821 307.7372842  +6.4054012     656.2746     1057.653     1483.737     81.37466     162.1083     323.6381      1.820     4.86     931.7841     57.04079     133.7055         7     1.348     0.497 -28.38   0
       200    546.5953    702.1777 307.6949382  +6.4096127     1754.038     2974.722      3039.02     80.73238     161.5937     323.4128      1.738     5.84     929.8976     57.04079     233.5521        20     1.705     0.743 -31.04   0
       201     85.4043    701.0566 307.8864891  +6.3945794     21708.11     38816.99     41332.44     80.47404     161.7225     323.3162      1.886     6.10      937.451     57.04079     2880.504        51     1.930     0.981 -33.73   0
       202    515.3958    699.3099 307.7079910  +6.4097505     1075.659     1880.552     1942.813     80.60332     161.5292     323.3484      1.859     6.25     930.5599     57.04079     169.4637        14     1.755     0.626 -34.05   0
       203    936.6132    697.9676 307.5331119  +6.4244000     928.9176     1674.173      1451.85     80.60331     161.5937     323.5415      1.728     5.55     920.7476     57.04079     173.7458        12     1.732     0.502 -32.33   0
       204    555.9614    695.2997 307.6912800  +6.4127660     842.0916     1396.926      1627.99     81.11835     161.7225      323.831      2.058     5.73     929.4817     57.04079      148.254        11     1.488     0.621 -37.87   0
       205    731.4138    693.3057 307.6184852  +6.4194653     3122.244     5323.964     6289.464     80.86124     161.5937      323.445      1.821     6.39     925.6688     57.04079     435.1144        22     1.768     0.701 -32.49   0
       206    753.2311    691.6727 307.6094796  +6.4208694     3754.082     6407.636     7086.687     80.98991     161.8512     323.6059      1.797     5.84     925.3735     57.04079      525.085        27     1.788     0.802 -32.02   0
       207    584.8502    689.5626 307.6794760  +6.4161026     2894.733     5151.748     5546.533     80.86124     161.7225      323.445      1.843     5.86     928.5105     57.04079     460.2151        23     1.859     0.704 -31.41   0
       208    420.8914    690.3119 307.7475386  +6.4102944     1312.319     2301.922     2499.002     81.11835     162.3009     323.7346      1.833     5.98     931.4548     57.04079     179.9137        14     1.513     0.664 -31.93   0
       209    245.3489    689.1014 307.8204757  +6.4048967     1552.998     2548.398     2851.148     81.11835     161.8512      323.831      1.784     5.87      936.382     57.04079     208.8334        16     1.642     0.643 -35.98   0
       210   1023.8104    689.0777 307.4971970  +6.4309805     1038.781     1167.615     1062.452     68.29668     126.0485     240.8176      0.867     2.25      917.886     57.04079     346.8289         5     0.722     0.381 -81.32  24
       211    329.0298    688.4343 307.7857488  +6.4079846     1160.753     1985.719     1703.077     80.60331     161.5937     323.4128      1.722     5.94     934.1713     57.04079     158.1636        14     1.617     0.614 -29.00   0
       212    991.7466    686.6606 307.5105939  +6.4309083     6993.444     12181.13      12719.3     81.11835     161.7868     323.5737      1.846     5.68     918.7825     57.04079      963.251        32     1.864     0.869 -32.71   0
       213    544.8044    687.8937 307.6961623  +6.4154493     575.7383     931.9785     1194.846     80.86124     161.5292     323.3484      1.819     4.26     929.6304     57.04079     109.5148         7     1.367     0.379 -31.67   0
       214    711.6678    685.2382 307.6269562  +6.4221349     862.7208     1333.755     1092.483     80.98991     161.8512     323.7024      1.871     4.86     925.6954     57.04079     186.8159        10     1.704     0.392 -33.90   0
       215    103.3057    682.9598 307.8796668  +6.4026525     855.4067     1589.143     1562.351      81.2466     161.7868     323.7024      1.932     5.99     937.2546     57.04079       113.77        11     1.405     0.718 -41.09   0
       216    436.9298    681.0386 307.7411904  +6.4146608     2503.255     4714.022     5829.647      80.9899     161.8512     323.6702      2.120     6.01     931.0562     57.04079     352.5381        27     1.857     0.853 -31.95   0
       217    150.1466    679.9664 307.8603171  +6.4054651     20260.82      36281.5     37981.09      80.9899     161.8512     323.5415      1.877     6.05     937.2509     57.04079     2570.593        47     1.904     0.966 -33.84   0
       218    818.3376    680.7773 307.5828070  +6.4275446     1060.194     1759.171     1881.157     80.73238     161.8512     323.5093      1.721     5.86     924.1075     57.04079     159.2852        13     1.608     0.602 -26.32   0
       219    369.7313    674.5630 307.7693142  +6.4150780     538.7429     960.1544     1500.519     80.98991     161.8512     323.7024      2.054     4.17     932.4363     57.04079     72.36652         7     1.047     0.475  -8.80   0
       220    986.6770    669.6116 307.5132701  +6.4377774     5642.559     11042.57     12585.66     80.73238     161.4648      323.445      2.095     5.93     918.3759     57.04079      734.658        43     1.834     1.213 -27.45   0
       221    580.1343    664.8560 307.6822650  +6.4261438     41158.27     72471.05        76654      81.2466     161.7868     323.6059      1.843     6.04     927.8339     57.04079     5705.434        66     1.933     0.987 -33.15   0
       222    221.7720    666.7068 307.8310216  +6.4133484     501.4473     566.0744     834.4125      81.2466     161.5937     323.5093      1.568     4.23     936.4745     57.04079     121.2081         5     1.028     0.497 -35.43   0
       223    539.0603    665.1413 307.6993128  +6.4246492     668.2761     821.5092     671.7983     81.11835     161.7868     323.6381      1.313     3.78     929.1493     57.04079     131.7207         6     0.930     0.441 -36.99   0
       224    187.6246    661.4672 307.8453785  +6.4143627       2282.8     4112.306     4435.673     80.73238     161.7225     323.5093      1.896     6.11     936.5251     57.04079      329.636        24     1.845     0.772 -37.93   0
       225    510.0122    661.7652 307.7114895  +6.4250689     566.4421     915.1002     1234.897     80.60331     161.6581      323.445      1.658     4.41     929.6248     57.04079     97.51837         6     1.421     0.390 -23.96   0
       226     31.2666    668.7040 307.9100626  +6.4061108     1122.628     1918.841     1707.979     81.11835     161.9155     323.6381      1.828     6.42     937.1401     57.04079     181.4277        14     1.791     0.646 -34.79   0
       227     80.4728    655.8043 307.8900655  +6.4130934     1187.082     2147.715     2443.764     80.73238     161.4003     323.4771      1.991     6.30     936.8268     57.04079     167.8743        15     1.803     0.619 -36.59   0
       228    477.4012    648.6571 307.7254734  +6.4293862     52931.13     93199.23     98941.99     80.47404     161.5292     323.3162      1.862     5.97     929.6321     57.04079     7577.976        80     1.964     1.053 -34.77   0
       229     20.8668    650.2610 307.9150045  +6.4133735     1437.383     3131.317     3381.932     81.11835     161.7868     323.6059      2.345     7.40     937.2285     57.04079     193.0367        20     1.911     0.802 -27.94   0
       230    663.3272    645.7560 307.6483574  +6.4368155     621.3567     1107.187     735.0682     80.98991     161.9155     323.6381      1.556     4.15     925.1909     57.04079     123.6817         7     1.165     0.423 -31.91   0
       231    151.6344    643.7597 307.8609216  +6.4204613     1404.763     2599.034     2225.401     80.86124     161.7868     323.4128      1.940     6.57     936.2292     57.04079     236.3737        18     1.933     0.627 -36.12   0
       232    430.7896    641.7463 307.7450631  +6.4306750      654.198     1148.767     1893.946     80.47404     161.7868     323.3162      2.414     5.01     930.1896     57.04079     115.1382         9     1.509     0.471 -32.82   0
       233    322.8975    638.1309 307.7899906  +6.4285442     1728.946     3596.451     4104.453      80.9899     161.9798     323.6059      2.199     6.83      932.566     57.04079     232.1542        22     1.866     0.860 -37.49   0
       234    623.2358    640.1334 307.6651962  +6.4377938     806.3617     1510.604     1576.787      80.9899     161.9798     323.6702      1.819     5.50     925.5773     57.04079     141.0305         9     1.385     0.615 -25.06   0
       235     29.9613    638.1072 307.9116387  +6.4186970     489.0841     960.4956     1412.104      81.2466     161.7868     323.6702      2.621     3.87     937.1561     57.04079     90.86383         5     1.312     0.328 -32.16   0
       236    475.4732    636.5688 307.7266808  +6.4343117     730.2889     1608.367     2167.321     80.98991     161.8512     323.6059      2.320     5.65     929.1221     57.04079     112.6252         9     1.596     0.563 -31.92   0
       237    749.5504    632.1285 307.6130064  +6.4453272     4546.076     7676.776     7968.115     81.11835     161.8512     323.6381      1.777     5.96     924.2349     57.04079     664.8115        27     1.822     0.785 -32.68   0
       238    802.9694    627.4154 307.5909792  +6.4490596     11695.89     20722.72     21821.25     80.73238     161.5937     323.5415      1.829     6.48     923.0768     57.04079     1927.596        38     1.856     0.882 -34.08   0
       239    545.0288    627.4520 307.6981016  +6.4404080     1072.079     2053.791     2561.817     80.86124     161.9798     323.5093      1.973     6.67     927.7815     57.04079     146.5448        16     1.783     0.701 -37.18   0
       240   1020.3113    627.9431 307.5006963  +6.4561016     902.4592     1576.898     1604.238     81.11835     161.7225     292.6899      1.722     5.32     915.9601     57.04079     144.3514         9     1.418     0.563 -17.86  16
       241     48.0166    626.6599 307.9045280  +6.4240308     618.9797     1343.448     1470.782     80.60331     161.7868     323.3484      2.139     5.55       936.85     57.04079     88.24304        10     2.017     0.431 -43.84   0
       242    626.8270    625.5106 307.6641961  +6.4439507     2434.833     4211.368     4173.494      81.2466     161.5937     323.4771      1.771     6.56     924.9987     57.04079     383.8545        21     1.735     0.723 -30.43   0
       243    944.3046    621.6227 307.5324749  +6.4561738     1088.101      1783.51     1736.595     81.11835     161.6581      323.445      1.834     5.94     918.2139     57.04079     164.7651        14     1.663     0.598 -34.76   0
       244    203.0086    620.3384 307.8403779  +6.4318583     349.8304     641.3438     884.5491     80.47404     161.6581     323.3806      2.350     5.23     934.9044     57.04079     85.48944         5     1.649     0.469 -35.57   0
       245    385.3006    619.0082 307.7647198  +6.4385343     849.3577      1451.78     1609.094     80.86124     161.4648      323.445      1.536     5.31     930.6688     57.04079     139.7188        10     1.549     0.514 -32.98   0
       246    239.8498    619.0820 307.8251209  +6.4336161     1086.223     2078.689      2430.12     81.11835     161.8512     323.6381      2.030     6.90     934.1416     57.04079     169.0312        18     2.142     0.624 -26.63   0
       247    879.1460    610.6804 307.5599031  +6.4585145     2372.598     4106.509     4114.674     81.11835     161.8512     323.6702      1.827     6.46     919.9555     57.04079     366.5313        22     1.779     0.753 -29.99   0
       248    172.5528    610.0789 307.8533717  +6.4350688     592.7863     1215.034     1628.666     81.11835     161.9155     323.5737      2.213     4.89     934.9375     57.04079     85.19427         6     1.032     0.658  69.07   2
       249    837.9017    608.1628 307.5771170  +6.4581754     2250.603     3817.066     4388.198     81.11835     161.7225     323.7989      1.732     6.42     921.2955     57.04079      295.509        21     1.714     0.718 -31.86   0
       250    808.9102    603.9759 307.5892981  +6.4589346     2149.271     3835.367     4622.502     81.11835     161.6581      323.445      1.936     6.16     922.2062     57.04079     300.6296        23     1.855     0.730 -37.75   3
       251    818.4022    599.3696 307.5855104  +6.4611535       137031       236808     250966.2     80.47404     161.6581     323.4128      1.849     6.35      921.705     57.04079     19777.87       113     1.984     1.064 -33.50   2
       252    751.3334    604.4335 307.6131954  +6.4568199     521.6957     808.3165      1032.19     80.98991     161.9155     323.5737      1.124     4.62     923.6512     57.04079     88.40399         6     1.328     0.457 -39.30   0
       253    265.8024    603.0950 307.8148824  +6.4410883     6551.356     11817.48     12498.38     80.73238     161.5292     323.2518      1.898     6.29     932.6877     57.04079     821.1317        35     1.850     0.906 -35.26   0
       254    200.0319    597.5994 307.8423813  +6.4411449     48288.84     87758.13     93534.91     80.47404     161.6581     323.3484      1.907     6.00     934.1307     57.04079     7110.776        69     1.971     1.031 -34.28   0
       255    123.9945    593.8271 307.8740857  +6.4401430     5136.697     9280.727     9372.577     80.60331     161.6581     323.4128      1.897     6.18     935.0145     57.04079     696.2281        30     1.891     0.828 -33.65   0
       256    989.6676    590.8333 307.5146657  +6.4703988     1216.826     2036.126     1954.429      80.9899     161.9155     323.6381      1.661     6.95     915.9089     57.04079     167.1014        15     1.697     0.797 -40.34   0
       257    238.1237    589.1359 307.8268478  +6.4459199     712.1685     1154.293     1171.635     81.37466     161.8512     323.5737      1.638     5.45     932.9685     57.04079     114.0149         9     1.264     0.662 -54.61   0
       258    854.8636    586.6093 307.5707950  +6.4676401     3527.392     6376.907     6346.199     80.60331     161.6581     323.3806      1.857     6.49     920.0839     57.04079     552.8589        29     2.006     0.791 -32.61   0
       259    373.4649    584.7236 307.7707900  +6.4522898     14628.94     25721.67     26696.72      81.2466     161.8512     323.6059      1.878     5.97     929.8666     57.04079     2031.022        42     1.909     0.928 -33.37   0
       260    465.6696    583.6305 307.7325339  +6.4558363     416.0379     857.9305     1071.614     80.98991     161.8512     323.5415      2.729     4.11     927.5501     57.04079     107.3571         5     0.980     0.492 -36.69   2
       261    176.1730    583.2319 307.8527745  +6.4462731     1512.982     3191.248     4420.388     80.60331     161.5937     323.4128      2.524     7.92     933.9944     57.04079     215.3008        25     2.530     0.693 -26.50   0
       262    808.9103    579.9562 307.5901038  +6.4688504      4908.21      8697.19     9537.257     81.11835     161.7225     323.6381      1.884     6.84     921.3004     57.04079     725.9192        30     1.910     0.813 -38.48   0
       263    539.7845    579.6169 307.7018883  +6.4599791     5411.412     9818.683     10335.02     80.86124     161.5292     323.5415      1.891     6.44     926.0195     57.04079     811.7394        32     1.879     0.879 -36.05   0
       264    250.1838    581.3523 307.8221019  +6.4495386     773.1384     1366.538     1882.153     80.60331     161.7868     323.3806      1.918     5.96     932.2556     57.04079      104.423        12     1.639     0.609 -43.81   0
       265    112.4190    581.0156 307.8793254  +6.4450419     678.5089     1040.216     829.8063     80.86124     161.5937     323.5093      1.459     4.49     934.8932     57.04079      124.605         8     1.212     0.473 -30.09   0
       266    397.8148    576.4143 307.7609574  +6.4565376     1305.426     2220.802     1944.649     80.86124     161.5292     323.5415      1.661     5.88     929.0389     57.04079     210.3486        14     1.486     0.654 -30.77   0
       267    186.8044    572.7701 307.8487125  +6.4509495     5544.345     10533.95      11849.9     80.60331     161.6581     323.4128      2.004     6.38     933.4464     57.04079     795.8198        37     1.952     0.943 -37.06   0
       268    584.6321    572.6916 307.6834953  +6.4643413     2129.839      3883.52     4302.163      81.2466     161.6581     323.6381      2.019     5.99     924.2789     57.04079     289.7981        23     1.859     0.776 -31.44   0
       269    282.0038    569.2576 307.8092951  +6.4556012     71334.62     130782.3       139394     80.47404     161.7225     323.3162      1.913     6.25     930.7352     57.04079     10154.28        89     1.993     1.093 -34.11   0
       270     58.4423    571.5299 307.9020615  +6.4471395     4233.757     7670.157       8167.9     80.98991     161.8512     323.6702      1.948     5.83     935.9394     57.04079     587.1056        32     1.800     0.991 -37.08   0
       271    825.3864    572.1740 307.5835219  +6.4726139     1203.908     2058.375     2021.415     80.86124     161.6581     323.5415      1.749     6.04      920.534     57.04079     160.3102        15     1.666     0.616 -33.32   0
       272    571.4250    566.6494 307.6891836  +6.4663930     664.8497     1256.794     1842.875     80.73238     161.9155     323.5093      2.309     6.43     924.5321     57.04079     149.0225        13     1.769     0.656 -41.33   0
       273    265.7549    564.1588 307.8162152  +6.4571597     1296.805     2263.146     1774.116      80.9899     161.8512      323.445      1.799     6.59     931.0297     57.04079     169.9006        17     1.499     0.814 -35.44   0
       274    981.4396    563.0904 307.5190120  +6.4815770      1283.63     2394.063     2679.166     81.11835     161.7868     323.6381      1.826     6.00     915.4913     57.04079      187.282        15     1.829     0.554 -33.60   0
       275    805.1512    561.7066 307.5922772  +6.4762585      13592.6     23603.22     24796.31      80.9899     161.7225     323.7346      1.831     6.71     920.7289     57.04079     2013.598        40     1.873     0.867 -33.71   0
       276    508.7768    560.1026 307.7154227  +6.4669950     34132.14     65096.73      70857.3      81.2466     161.5937      323.445      2.040     5.77     925.9398     57.04079     4360.157        75     2.061     1.169 -28.24   0
       277    659.3285    558.5957 307.6529461  +6.4726628     753.2858     1564.514     1263.342     80.73238     161.4648      323.445      2.147     6.50     922.6838     57.04079      105.794        14     1.849     0.641 -33.42   0
       278    221.3984    556.3705 307.8348992  +6.4588831     1683.072      3038.87     4311.397     80.60332     161.6581     323.4128      2.012     6.23     932.0891     57.04079     215.6663        21     1.663     0.826 -37.86   0
       279     58.1824    556.1181 307.9026902  +6.4534927     867.2858     1494.715     1427.525     80.73238     161.5292     323.5415      2.091     5.29     935.6984     57.04079     133.1877        10     1.020     0.774 -22.92   2
       280    731.0378    554.1005 307.6233141  +6.4769191     1121.682     2042.482     2398.711     81.11835     161.7225      323.831      1.752     6.14     921.8555     57.04079     196.3121        14     1.789     0.593 -35.57   0
       281    678.9689    555.1128 307.6449059  +6.4747583     1193.831      2093.38     2407.837      81.2466     161.5937     323.5415      1.720     5.88     922.3828     57.04079      203.416        15     1.653     0.589 -38.56   0
       282    668.6533    555.2120 307.6491869  +6.4743719     2521.386     4210.167     4368.305     80.47404     161.7868     323.3162      1.818     5.45     922.4731     57.04079     372.5158        21     1.704     0.748 -30.33   0
       283     87.9661    552.7725 307.8904345  +6.4558771     583.8176     1070.789     1115.048     80.60331     161.5937     323.3806      2.158     6.11     934.8832     57.04079     88.48901         8     1.341     0.781 -30.44   0
       284    406.5467    550.6688 307.7581980  +6.4674588     1494.169     2381.308     2442.207     80.98991     161.7868     323.5093      1.798     5.91     927.8019     57.04079     199.1032        20     1.741     0.791 -36.00   0
       285    517.6524    548.5863 307.7121240  +6.4720468     1782.755     3065.429     3228.007     80.47404     161.7868     323.3484      1.777     5.87     925.3494     57.04079     254.8674        20     1.764     0.700 -34.51   0
       286    337.9209    548.9547 307.7867569  +6.4658615     3261.995     5902.769     6064.352     81.11835     161.8512     323.6059      1.845     5.97     929.4838     57.04079     424.2764        24     1.842     0.752 -34.20   0
       287    153.0832    547.5989 307.8635664  +6.4602053     21185.96     38487.21      40813.3     80.34455     161.4003     323.3162      1.913     5.88     933.3525     57.04079     2987.429        56     1.947     1.013 -34.27   0
       288    881.1943    547.6595 307.5611648  +6.4845993     1286.772     2455.601     2309.453     80.60331     161.7225     323.3806      1.849     6.23     918.1134     57.04079      214.853        16     1.790     0.609 -30.78   0
       289    118.1355    545.9268 307.8781366  +6.4597190     2068.684      3974.28     3643.123      81.2466     161.8512     323.6059      1.945     6.55     934.0721     57.04079     296.6946        22     1.858     0.745 -36.17   0
       290    355.3106    544.0662 307.7796995  +6.4684637     982.5549     1623.073     1614.125     81.11835     162.0441     323.5737      1.679     5.85     929.2051     57.04079     140.2945        14     1.697     0.568 -34.09   0
       291    978.6516    542.2566 307.5208677  +6.4900846     4357.708     7487.975     7759.301     81.11835     161.8512     323.6059      1.792     5.97     914.9407     57.04079     579.5855        29     1.903     0.792 -33.03   0
       292    551.6979    534.7550 307.6984493  +6.4788981     1320.649     2152.066     2011.644     81.11835     161.7868     323.7989      1.748     5.87     923.8614     57.04079     185.5946        14     1.470     0.661 -38.15   0
       293     17.3990    531.9336 307.9204447  +6.4621017     20840.08      37791.3     41070.31     80.34455     161.4648     323.3484      1.917     5.86     936.3392     57.04079     2687.305        55     1.952     1.033 -34.35   0
       294    450.1153    528.7628 307.7408408  +6.4779643     35645.71     63458.43     67586.25     81.11835     161.8512     323.5737      1.890     5.83     926.0526     57.04079     4758.246        68     1.978     1.021 -33.69   0
       295    658.1286    528.4899 307.6544558  +6.4850508     10222.61     17842.21     19000.16      80.9899     162.1083     323.6059      1.837     6.19     921.5807     57.04079     1550.022        36     1.855     0.854 -33.34   0
       296      1.7861    525.3433 307.9271514  +6.4642958     101223.4     121524.6     125091.4     75.53546     135.2914     250.8135      1.188     2.98     936.6008     57.04079     18513.72        62     1.338     0.907 -79.74  24
       297    298.3535    529.1096 307.8038586  +6.4727240     788.9537     1215.199     1052.994     81.11835     161.7868     323.7346      1.894     5.62     928.5268     57.04079     133.3388         9     1.480     0.602 -35.63   0
       298    215.2955    526.3137 307.8384479  +6.4710853     15514.93     29965.37     31962.58     81.11835     162.2367     323.6702      2.017     5.61     931.0825     57.04079     1951.291        53     1.935     1.147 -31.10   0
       299    991.9807    526.8409 307.5158477  +6.4968935     1085.634     2052.773     1943.649     80.73238     161.6581     323.3162      2.052     6.42     913.7686     57.04079     175.6258        14     1.641     0.706 -37.71   0
       300    180.9049    527.3725 307.8526949  +6.4694911     1262.537     2224.082     1803.484      81.2466     161.5937     323.5093      1.779     6.43     932.1135     57.04079     190.0928        14     1.686     0.688 -40.26   0
       301    832.2547    526.3594 307.5822057  +6.4917567     884.2621     1522.217     1750.824      80.9899     161.8512     323.6381      1.642     5.45     918.6406     57.04079     139.4955        12     1.516     0.553 -31.63   0
       302    920.9667    526.1149 307.5453677  +6.4948221      598.791     953.2386     1079.614     81.11835     161.7225     323.5737      1.496     4.40      915.899     57.04079     101.7435         8     1.355     0.406 -31.32   0
       303    580.1589    525.0923 307.6869535  +6.4838410     2350.721     4245.613     3906.729     81.11835     161.7868     323.7024      1.837     6.51     922.7045     57.04079     303.7111        23     1.816     0.768 -33.30   0
       304    953.8796    522.3813 307.5318224  +6.4974626     4074.497     7134.568     7612.813     80.73238     161.5292     323.5415      1.815     7.03     914.7314     57.04079     611.5739        26     1.805     0.773 -31.49   0
       305    626.9258    520.8118 307.6676735  +6.4871752     5405.986     9390.708     10071.35     80.60331     161.5292     323.4128      1.798     6.53     921.5668     57.04079     805.1308        33     1.877     0.849 -36.92   0
       306    114.7754    521.3237 307.8803630  +6.4697620     995.8386     1530.682      1060.43     80.73238     161.7868     323.5737      1.648     6.39     933.5859     57.04079     146.3352        14     1.595     0.756 -37.28   0
       307    976.4160    514.6705 307.5227201  +6.5013981     2880.119     5079.195     5278.569     80.60332     161.7868     323.5093      1.879     6.28     913.6512     57.04079     427.5903        23     1.798     0.741 -35.50   0
       308    539.0859    512.1568 307.7044475  +6.4878040     6332.715     11249.89     11855.36     81.11835     161.7225     323.6059      1.883     5.91     923.3558     57.04079     886.7812        37     1.906     0.900 -32.91   0
       309    385.2007    512.1957 307.7683594  +6.4826240     2232.405      3913.26     4113.005     80.47404     161.4003     323.3484      1.855     6.80     926.5071     57.04079     318.7805        21     1.600     0.810 -34.38   0
       310    895.7255    507.8609 307.5564634  +6.5015145      2667.71     4619.581     5359.563     81.37466     161.8512     323.6059      1.946     6.09     915.9409     57.04079     423.6326        23     1.818     0.733 -34.85   0
       311    415.7402    513.3757 307.7556358  +6.4831624     801.4741     1365.809     2307.154     80.73238     161.8512     323.4771      2.011     5.81      926.048     57.04079     107.7056        11     1.458     0.651 -37.78   0
       312    243.3969    508.0623 307.8273928  +6.4795647     527.5004     708.8156      921.223     80.47404     161.6581     323.3162      1.536     3.81     929.3184     57.04079     106.5217         6     1.285     0.324 -38.63   0
       313    902.8992    502.4318 307.5536658  +6.5039954     1784.422     3024.107     3426.535     81.11835     161.7225     323.7346      1.898     5.99     915.5698     57.04079     276.2999        19     1.732     0.752 -32.45   1
       314    942.8951    501.2612 307.5370924  +6.5058146     1055.627     1666.897     1831.372      80.9899     161.9155     323.6702      1.729     5.14     914.4337     57.04079     168.9652        11     1.420     0.525 -30.78   0
       315    121.9037    501.7373 307.8780641  +6.4780872     680.0167     1125.811     1315.838      80.9899     161.9798     323.6702      1.659     4.73     933.0115     57.04079      112.101         7     1.029     0.616 -22.52   0
       316    726.9332    498.3704 307.6268900  +6.4997881     2480.216     4444.338     4404.584     80.86124     161.8512     323.5737      1.861     6.22     919.8589     57.04079     398.3605        23     1.867     0.758 -35.31   0
       317    397.8018    496.5848 307.7636516  +6.4894915     3164.578     5340.423     5487.642     80.73238     161.5292     323.4128      1.782     5.31     925.5931     57.04079     448.9095        27     1.759     0.834 -34.05   0
       318     88.6755    497.3013 307.8920140  +6.4787993     1604.675     2708.297     3428.074     80.60332     161.9798     323.5737      1.856     5.82     933.6656     57.04079     200.7418        18     1.640     0.696 -30.30   0
       319    438.5157    496.7705 307.7467356  +6.4907817     851.7854     1542.095         1554     81.11835     161.6581     323.4771      1.828     6.78     924.9143     57.04079     143.8022        15     1.747     0.738 -21.77   0
       320    625.6307    493.0535 307.6691443  +6.4985909     8579.041     14861.96     16008.61      80.9899     161.9155     323.5093      1.855     5.82     920.4261     57.04079     1181.655        37     1.879     0.861 -33.76   0
       321    788.6022    489.2842 307.6015806  +6.5056023     13515.31     23804.72     26838.69     80.47404     161.4648      323.284      1.933     7.42     918.6943     57.04079     1952.822        55     2.469     0.917 -41.01   0
       322    308.3433    489.8036 307.8010349  +6.4892855     2246.842     3851.964     3881.254     80.47404     161.6581      323.284      1.843     6.74     926.1068     57.04079     296.6473        21     1.753     0.763 -30.75   0
       323    431.0479    489.7805 307.7500726  +6.4934166      509.874     982.0165     1014.368     80.60331     161.8512     323.4128      1.679     5.14     924.8241     57.04079     79.85431         6     1.633     0.458 -38.94   0
       324    817.1396    486.9060 307.5898072  +6.5075384     1044.709     1811.259      1541.32      80.9899     161.8512     323.6702      1.772     6.08     917.7018     57.04079     174.6478        13     1.838     0.565 -31.73   0
       325    390.8568    486.5966 307.7668726  +6.4933815     1370.755     2424.116     2871.096     80.47404     161.6581      323.284      1.860     6.23     925.1443     57.04079     192.6556        16     1.550     0.704 -26.70   0
       326    923.4006    485.6457 307.5457129  +6.5116099     3555.408     3636.971      4010.33     80.47404     161.5937     323.1551      0.958     2.70     914.7726     57.04079     1161.672         9     1.002     0.393 -63.29   0
       327    973.6025    484.5368 307.5248980  +6.5137441     1828.299     2958.714      2907.02     80.47404     161.6581     323.3806      1.796     6.50     912.2538     57.04079     235.8204        18     1.690     0.702 -32.10   0
       328    763.8854    480.5468 307.6121401  +6.5083824     1842.045     3409.534     3131.595     81.11835     161.7868     323.7667      1.951     6.78     918.8082     57.04079     261.6298        23     1.878     0.819 -37.50   0
       329    125.6506    481.4294 307.8771939  +6.4865964         3691     6619.042     7052.594     80.73238     161.9798     323.5093      1.921     5.84     932.4615     57.04079     453.9696        29     1.825     0.880 -29.35   0
       330    379.4630    482.6447 307.7717380  +6.4946302     529.6606     929.8265     1138.665     81.11835     161.7868     323.6381      2.071     3.39     924.9541     57.04079     90.33142         5     1.130     0.294 -20.26   0
       331    283.8716    478.4429 307.8115818  +6.4931526     1153.131     2202.397     2208.673      80.9899     161.8512     323.6381      2.200     6.20     925.9741     57.04079     154.5351        14     1.574     0.687 -33.93   0
       332    361.7142    476.2273 307.7793259  +6.4966832     2547.024     4577.747     4615.736      81.2466     161.5937     323.4771      1.869     7.06     924.6569     57.04079     316.0165        22     1.748     0.799 -30.92   0
       333    717.6240    473.9806 307.6315756  +6.5095450     1297.822     2151.294     2023.955     80.86124     161.6581     323.5415      1.722     6.10      918.941     57.04079     229.2893        15     1.782     0.587 -29.88   0
       334    990.9183    473.0735 307.5180895  +6.5190544     603.2023     877.2806     816.0226     81.37466     162.1725     323.6381      1.527     5.30     910.9177     57.04079     112.5861         8     1.611     0.492 -44.10   0
       335    249.5714    471.9500 307.8260467  +6.4946796     817.4116     1339.098     1452.451     80.73238     161.9798     323.5093      1.668     4.91     927.3026     57.04079     131.9265         9     1.420     0.481 -23.68   0
       336    559.2117    466.6801 307.6976181  +6.5072521     919.8073     1433.038     1489.999     80.73238     161.5292      323.445      1.515     5.68     920.9628     57.04079     146.8409        13     1.364     0.677 -36.76   0
       337    481.1501    465.2187 307.7300900  +6.5052373     1109.231      2052.61     2216.211     80.60331     161.9155     323.4128      1.852     5.67     922.3322     57.04079     192.6648        14     1.580     0.705 -26.44   0
       338    843.8277    464.1949 307.5794838  +6.5178063     1345.871     2328.587     2405.944     80.60331     161.6581     323.4128      1.847     5.89     915.5466     57.04079     194.1922        14     1.732     0.563 -32.91   0
       339    829.5690    463.3056 307.5854362  +6.5176967     1774.051     2892.919     3001.719      81.2466     161.6581     323.6059      1.818     5.68     916.0942     57.04079     250.2723        19     1.752     0.700 -35.33   0
       340    628.6933    463.5242 307.6688648  +6.5108836     783.6423     1122.809     818.6843     80.98991     162.0441     323.6059      1.619     5.28     919.3104     57.04079     117.9141        10     1.424     0.553 -34.91   0
       341    726.8306    461.2704 307.6281783  +6.5151001     12488.71     22032.43     23667.07      80.9899     161.8512     323.5737      1.831     6.24     918.1592     57.04079     1765.519        40     1.856     0.901 -32.99   0
       342    647.9224    457.3353 307.6610858  +6.5140826     2171.724     3825.703     4672.708     81.37466     161.8512     323.5737      1.929     6.95     918.8041     57.04079     319.0641        22     1.813     0.747 -30.55   0
       343    622.9751    454.4578 307.6715446  +6.5144347     4377.298     7817.417     8193.931     80.73238     161.8512     323.4771      1.853     6.01     919.0425     57.04079     710.8486        27     1.884     0.780 -33.87   3
       344    619.3534    451.7783 307.6731389  +6.5154195     12267.94     21740.77     22973.42     80.73238     161.8512      323.445      1.866     6.15     919.0349     57.04079     1698.288        42     1.896     0.920 -32.10   3
       345    952.0967    451.1983 307.5349477  +6.5267889     3166.681     5532.843      6158.75     80.60331     161.5937     323.2518      1.777     6.60     912.1413     57.04079     478.7356        20     1.732     0.705 -31.13   0
       346    391.1968    447.1481 307.7680604  +6.5096775     23867.62     43439.19     46577.56     80.47404     161.6581     323.1551      1.902     5.64     923.1917     57.04079     3222.575        59     1.957     1.019 -33.62   0
       347    907.8353    446.9627 307.5534747  +6.5270591     1250.889      2269.77     2628.986     80.86124     161.7225     323.3806      1.748     6.04     913.3795     57.04079     192.7605        15     1.732     0.591 -35.42   0
       348    137.2287    446.6703 307.8735592  +6.5013348      1900.14      3373.97     2977.466     80.86124     161.8512     323.5415      1.882     5.65     930.7206     57.04079     274.5356        21     1.767     0.778 -29.18   0
       349     70.5379    442.1526 307.9014104  +6.5009535     1254.973     2526.763      2980.83      80.9899     161.7225     323.6702      2.141     6.99     932.4692     57.04079     206.6971        20     1.896     0.723 -35.11   0
       350    921.0138    441.5878 307.5481808  +6.5297182     4324.959      7556.38     7852.799      80.9899     161.5292     323.5415      1.835     6.68     912.8999     57.04079     696.9202        29     1.852     0.807 -32.25   0
       351    977.2922    439.2375 307.5248827  +6.5325678     544.0732     860.3768     868.7937      81.2466     161.7868     323.6702      1.595     4.81     910.6934     57.04079     99.19275         7     1.688     0.389 -34.35   0
       352    248.7248    437.6598 307.8275551  +6.5088062      11656.1     20765.66     22045.17     81.37466     161.8512     323.5737      1.883     5.73     925.5545     57.04079     1617.199        42     1.879     0.970 -31.66   0
       353     83.5453    432.3951 307.8963378  +6.5054196     675.6096     1094.089     1006.925     80.47404     161.5937      323.284      1.839     4.60     931.4417     57.04079     97.98511         7     1.583     0.380 -30.63   0
       354    743.6318    431.3208 307.6222052  +6.5280261     720.8744     1093.942     1338.711     80.98991     161.8512     323.5737      1.677     6.90     916.2881     57.04079     100.6299        11     1.684     0.794 -22.55   0
       355   1020.9727    430.6243 307.5070271  +6.5375814     403.8193     592.6409     415.0753     80.60331     159.8446     284.0975      1.301     3.87     908.8716     57.04079     89.12054         5     1.308     0.328 -50.07  16
       356    972.0010    429.9224 307.5273926  +6.5362366     858.4057     1454.905     1402.573     80.34455     161.2712     323.4128      1.635     5.57     910.6163     57.04079     143.1504        11     1.546     0.566 -34.42   0
       357    711.6513    430.8192 307.6355058  +6.5271628     667.3771     1155.359     1792.861     80.60331     161.9155     323.4128      1.794     5.28     916.7079     57.04079     98.70203         8     1.358     0.580 -37.92   0
       358    361.5254    427.6457 307.7810415  +6.5167316     1090.945      1983.87     1879.401     80.98991     161.9155     323.6381      1.792     6.03     922.8963     57.04079     163.9543        15     1.885     0.542 -38.39   0
       359    194.6302    427.7238 307.8503582  +6.5110880     814.4023     1467.746     1545.027      80.9899     161.9155     323.6381      1.824     5.53     927.5917     57.04079     98.46039        11     1.345     0.641 -35.05   0
       360    149.1085    426.2565 307.8693146  +6.5101615     4152.658     7618.529     8255.758      80.9899     161.7225     323.7346      1.923     6.52     929.5864     57.04079     579.5796        29     1.893     0.832 -33.99   0
       361    446.6076    425.0567 307.7457894  +6.5206574     658.0302     1028.555     867.7539     80.47404     161.7225     323.3806      1.507     5.03     920.9823     57.04079      112.287         8     1.666     0.430 -39.51   0
       362    255.3533    424.3523 307.8252510  +6.5145225     888.8581     1843.937     2180.415     81.11835     161.7225     323.6381      2.397     4.87     924.5923     57.04079      154.174         8     1.206     0.557 -42.07   2
       363    170.9768    422.1006 307.8603722  +6.5126132     2152.733     4395.802     4268.406      81.2466     161.5937     323.3806      2.102     6.12     928.6462     57.04079     296.5232        29     1.982     0.923 -41.21   0
       364    835.1683    422.6154 307.5844753  +6.5346816     753.8383     1255.767     1686.334     80.73238     161.5937     323.5093      1.657     4.49     914.3155     57.04079     126.6356         7     1.363     0.420 -32.68   0
       365    565.2333    421.9988 307.6966197  +6.5258990     760.1308     1123.996     1328.575     80.34455     161.6581     323.3484      1.545     2.56     918.6967     57.04079     126.3165         7     0.800     0.651  25.22   0
       366    394.5184    416.8249 307.7677023  +6.5223066     1866.821     3033.168     3247.394     80.86124     161.5937     323.5737      1.756     4.81     921.6328     57.04079      295.959        22     1.620     0.846 -39.14   0
       367    281.8958    418.0413 307.8144395  +6.5180202     752.2751     1254.148     1780.351     81.11835     161.7868     323.7667      1.672     3.94     923.3135     57.04079     142.9478         8     1.075     0.605 -32.44   0
       368    982.9297    416.2348 307.5233115  +6.5422520     877.2146     1650.115     1137.043      80.9899     161.7868     323.6702      1.565     4.86     909.8209     57.04079     139.1279         9     1.549     0.432 -34.55   0
       369    448.3357    410.5920 307.7455587  +6.5266865     6117.704     11109.42     11539.62     80.60332     161.5937      323.445      1.897     5.70      920.118     57.04079     806.7025        36     1.864     0.938 -34.86   0
       370     44.7326    411.2714 307.9131720  +6.5128316     2773.069     5121.103     5836.728     81.11835     161.9798     323.5737      2.014     6.38     932.8511     57.04079     329.0706        30     1.880     0.989 -37.70   0
       371    788.9135    407.9024 307.6041823  +6.5392085     10951.33     19275.25     20398.78     81.11835     162.3009     323.6702      1.853     5.81      914.738     57.04079     1592.521        42     1.853     0.921 -32.50   0
       372    780.9562    409.4267 307.6074365  +6.5383131     1653.589     2730.183     2769.353     80.73238     161.9155     323.5093      1.722     6.22     914.8475     57.04079     251.1932        15     1.574     0.691 -30.34   1
       373    352.8015    406.1469 307.7853896  +6.5253133     834.5555     1482.819     1884.774     80.47404     161.5292     323.1873      1.807     6.10     921.8772     57.04079      118.103        13     1.748     0.598 -40.01   0
       374    197.4098    398.4901 307.8501905  +6.5232492     785.5995     1554.991     1500.171     80.86124     161.5292     323.4128      2.052     6.77     926.2944     57.04079     121.2683        12     1.655     0.775 -35.94   0
       375      3.1581    396.6300 307.9309344  +6.5174740     1005.465     2117.461     3038.572     80.73238     152.4431      272.041      2.759     7.22     933.8555     57.04079     141.6742        18     1.741     0.838 -32.60  24
       376    496.4647    394.1667 307.7261205  +6.5350821     2695.024     4916.789     5240.971      80.9899     161.8512     323.5737      1.916     5.91     917.8712     57.04079     346.2991        24     1.831     0.794 -35.70   0
       377    925.6887    393.5018 307.5478505  +6.5497252     664.8667     1353.955     1525.703     81.11835     162.3009     323.6059      1.900     6.74     910.7865     57.04079     100.2653        10     1.786     0.712 -40.49   0
       378    468.6760    394.7499 307.7376435  +6.5339089     1916.402     3128.095     3352.084     80.98991     161.9155     323.6059      1.784     6.49      918.493     57.04079     276.2997        19     1.590     0.743 -25.83   0
       379    854.3019    390.8593 307.5775926  +6.5484307     28002.18     50499.01     54252.26     80.86124     161.7868     323.7346      1.910     6.22     912.9398     57.04079     3542.958        60     1.957     1.044 -36.75   0
       380    344.9863    387.2849 307.7892715  +6.5328371     627.1224     1130.667     1547.279     80.73238     161.5937     323.4771      3.024     4.52     920.7178     57.04079      111.085         6     1.050     0.554 -20.83   2
       381     72.9268    386.5273 307.9022982  +6.5239959     580.2369     789.2824     1051.149     81.37466     161.9798     323.6381      1.331     3.78     930.7183     57.04079     89.97241         6     0.825     0.498  -2.88   0
       382    626.0432    383.2038 307.6726654  +6.5439521     2205.421     4134.351     4959.855     80.47404     161.4648     323.3162      2.039     6.82     915.4448     57.04079     326.3314        26     1.939     0.892 -29.81   0
       383     34.5370    383.5470 307.9183440  +6.5239324     1059.378     1826.052     2174.927     81.11835     161.7868     323.5737      1.871     6.63     931.7437     57.04079     128.4159        15     1.686     0.731 -31.50   0
       384    710.7886    376.7973 307.6376786  +6.5494349      66878.9     117146.2     124400.5     80.73238     161.5292      323.445      1.858     6.06     914.3934     57.04079     9888.902        85     1.957     1.035 -32.48   0
       385    869.0699    378.3190 307.5718787  +6.5541012     1029.756     1937.016     2063.526     81.37466     162.1725     323.6381      1.873     5.19     912.1445     57.04079     154.5261        11     1.452     0.524 -28.70   0
       386     89.9584    376.3706 307.8955675  +6.5287623      1155.37     2218.702      2243.81     80.73238     161.7225     323.4771      1.976     6.55     930.0713     57.04079     157.0269        16     1.672     0.721 -36.76   0
       387    573.1740    373.5795 307.6949499  +6.5461532     2169.349     3768.133     3973.382     80.73238     161.6581     323.5093      1.885     5.58     915.4243     57.04079     300.5243        22     1.759     0.742 -33.71   0
       388    110.6472    372.2229 307.8871145  +6.5311713     5116.185     9361.899     10346.73     80.73238     161.8512     323.4771      1.918     6.14     929.4203     57.04079     689.3502        34     1.887     0.956 -32.79   0
       389    953.0941    373.1505 307.5371484  +6.5590419     664.0626     1177.465     932.1567      80.9899     161.7225     323.7346      1.869     4.86      908.677     57.04079     99.55475         7     1.417     0.471 -30.16   0
       390    556.5175    369.6431 307.7020011  +6.5472198     6123.505     10715.13     12010.93     81.11835     161.8512     323.5737      1.920     5.74     915.3515     57.04079      892.212        35     1.894     0.893 -34.78   0
       391    285.5526    367.2752 307.8146329  +6.5390995      2154.47     3794.216     3758.391     80.98991     161.9155     323.6059      1.890     6.55      922.825     57.04079     313.1137        23     1.782     0.831 -33.74   0
       392    419.4560    364.8331 307.7590956  +6.5446066     21722.44     38800.21     41220.49      80.9899     161.8512     323.6059      1.903     5.77     918.0148     57.04079      3025.62        53     1.938     1.013 -33.77   0
       393    527.1922    363.6351 307.7143845  +6.5487165     1061.075     2010.242     2262.099     80.60331     161.6581     323.3806      2.058     6.63     915.2725     57.04079     161.8199        15     1.821     0.676 -39.96   0
       394    399.3540    362.9880 307.7675076  +6.5446932     1105.156      1835.04     2654.165     80.60331     161.6581     323.3162      1.808     5.90     918.1362     57.04079     170.6575        14     1.562     0.628 -33.00   0
       395    498.6998    360.3947 307.7263288  +6.5490984     877.1359     1702.934     1491.325     80.86124     161.4648     323.2518      1.975     5.20     915.2216     57.04079     133.2375        11     1.697     0.450 -29.76   1
       396    814.3311    357.9967 307.5952987  +6.5606605     695.0367     1205.823     1164.826     80.47404     161.4648     323.3806      1.737     4.56       913.17     57.04079     112.7789         6     1.309     0.452 -32.08   0
       397    508.4962    355.2477 307.7224328  +6.5515518     7222.214     12962.68     14070.23      80.9899     161.7225     323.7667      1.917     5.66     914.7754     57.04079     915.9738        39     1.924     0.938 -35.09   0
       398    650.4663    357.3332 307.6633898  +6.5554499       480.26     726.9194     443.3606     81.11835     161.8512     323.6381      1.679     3.33     913.6688     57.04079     113.8416         5     1.049     0.307 -20.89   0
       399    397.4934    356.8169 307.7684884  +6.5471782     563.4206     1067.807     1324.713     80.86124     161.6581     323.4771      2.716     4.45     917.7736     57.04079     108.6372         5     1.132     0.498  87.38   1
       400    777.6580    354.1018 307.6106635  +6.5610417     2664.126     4847.961     5078.778     80.86124     161.7868     323.7667      1.892     6.03     913.4678     57.04079     378.6548        23     1.873     0.771 -31.30   0
       401    725.4458    353.6880 307.6323662  +6.5594654     658.0087     1332.009     1622.994     81.11835     161.7225     323.6059      2.017     4.90     913.4778     57.04079     137.4196         8     1.747     0.389 -38.37   0
       402    933.3133    353.6237 307.5460198  +6.5664423     753.3618     1391.217     1167.287     81.11835     161.6581      323.445      1.816     5.06     908.9742     57.04079     138.6063         9     1.524     0.476 -35.05   0
       403    334.9276    351.8663 307.7946436  +6.5471200     947.0356     1623.251     1184.071     81.11835     161.9155     323.6059      1.790     6.05       919.15     57.04079     139.4907        13     1.622     0.634 -36.27   0
       404    271.1288    345.5064 307.8213585  +6.5476007     742.8667     1059.643     1054.465      80.9899     161.9155     323.6059      1.356     5.75     922.4848     57.04079      102.537        11     1.263     0.739 -37.11   0
       405    171.1590    345.5748 307.8628805  +6.5442090     852.7646      1615.91     1635.137     80.73238     161.7225     323.3806      1.937     5.60     926.4034     57.04079     144.9136        11     1.657     0.532 -25.69   0
       406    398.4205    339.4415 307.7686887  +6.5543820     6289.552     11283.56     11866.19     80.73238     161.6581      323.445      1.904     6.18      917.024     57.04079     826.7837        35     1.870     0.920 -33.25   0
       407    254.2655    339.9302 307.8285511  +6.5493354     1799.956     2975.607     3220.959     81.11835     161.9155     323.6059      1.728     6.01     922.4857     57.04079     238.6976        20     1.674     0.740 -33.05   0
       408    751.9604    339.2043 307.6218384  +6.5663319     898.7117      1522.53     1603.327     80.34455     161.5937      323.284      1.810     5.95     912.5232     57.04079     139.4346        11     1.445     0.690 -34.25   0
       409    766.2788    335.3699 307.6160192  +6.5683939     45568.52     80008.22     84534.41      80.9899     161.9155     323.5737      1.854     6.71     912.2606     57.04079     6656.568        66     1.940     0.973 -33.37   0
       410    437.8002    334.8370 307.7524861  +6.5576050     1878.235     3433.673     3308.008     80.08495     161.5937     323.4128      1.855     5.97     915.6522     57.04079     266.3377        21     1.789     0.798 -35.83   0
       411   1001.0526    332.5973 307.5185845  +6.5773842     1433.367     2644.543     3009.991     80.47404     161.6581     323.1551      1.911     6.53     904.2728     57.04079     238.3782        17     1.704     0.707 -36.32   0
       412    942.0225    331.6787 307.5431373  +6.5757925      1916.55      3428.51     4159.835     80.73238     161.5292     323.5737      1.972     6.33     907.3476     57.04079     307.3578        21     1.816     0.699 -29.43   0
       413    584.1562    332.1505 307.6917813  +6.5636237     1021.408     1749.034     1492.339     81.11835     161.7868     323.6381      1.763     5.72     912.7989     57.04079     154.7914        13     1.663     0.555 -29.65   0
       414    475.2488    331.2231 307.7370520  +6.5603538     951.8693     1679.551     2285.217     80.73238     161.8512     323.5093      1.851     5.84     913.8487     57.04079     121.4114        13     1.472     0.653 -42.55   0
       415    424.3904    330.4295 307.7582048  +6.5589742     1643.702     3108.947     2990.515     80.60332     161.6581      323.445      2.008     6.32     916.0118     57.04079     227.3644        20     1.755     0.756 -38.66   0
       416    304.4545    329.6775 307.8080496  +6.5552553     579.6887      990.275     717.2204      81.2466     161.8512     323.6059      1.682     5.49     920.4302     57.04079     101.5982         8     1.845     0.461 -35.21   0
       417    845.5010    324.9527 307.5834592  +6.5753438     987.8655     1912.323     1767.145     81.11835     161.7225     323.7989      1.838     6.40     910.4381     57.04079     159.0934        15     1.958     0.587 -36.03   0
       418    474.1797    325.9620 307.7376733  +6.5624897     628.3581      1036.62     1525.424     80.73238     161.5937     323.3162      1.789     4.52     913.6201     57.04079     98.26355         7     1.077     0.539 -30.00   0
       419    455.2121    321.8593 307.7456904  +6.5635468     958.0999     1692.892     1722.607     80.47404     161.7868     323.3162      1.996     6.45     914.2479     57.04079     142.7728        15     1.755     0.666 -37.68   0
       420    201.0381    321.6423 307.8512777  +6.5550939     1842.624     3222.727     3604.732     80.86124     161.8512     323.4771      1.875     5.54     924.3333     57.04079     293.5508        22     1.819     0.741 -29.23   0
       421    764.7309    319.9263 307.6171807  +6.5747174     5057.826     8969.742     9636.164      81.2466     161.9798     323.5737      1.904     6.13     911.2761     57.04079     726.6456        32     1.857     0.838 -32.81   0
       422    236.1946    319.9550 307.8367314  +6.5569733     652.9718     1164.827     1263.589     80.47404     161.5292     323.2518      1.674     2.92     922.4933     57.04079     124.5202         6     0.890     0.446 -51.74   0
       423     97.3260    318.8273 307.8944519  +6.5527640     806.4543     1558.582     1660.654     80.86124     161.7868     323.5415      1.811     5.75     928.5613     57.04079      128.408        12     1.826     0.509 -34.13   0
       424    781.1847    317.8648 307.6104148  +6.5761189     2099.777       3812.9     3786.806     80.60331     161.7225     323.5093      1.822     6.54     911.1448     57.04079     314.5253        22     1.802     0.726 -37.26   0
       425    370.6371    312.4985 307.7811376  +6.5645709     1685.209     3610.219     4148.656     81.11835     161.7225     323.7989      2.257     7.58     916.9495     57.04079     200.6116        29     2.114     0.908 -21.10   0
       426     84.3219    312.9915 307.9000506  +6.5547349     1106.771     1968.703     2046.341     80.73238     161.3357     323.4128      1.930     6.70     928.6418     57.04079     158.5502        16     1.595     0.789 -24.23   0
       427   1019.3022    308.8381 307.5117990  +6.5878015     5156.938     8997.576     9501.374     81.11835     161.7225     304.0997      1.837     6.17     902.8981     57.04079     703.1921        30     1.838     0.824 -31.90  16
       428    497.5542    308.5755 307.7285489  +6.5704514     1715.877     3126.556     3312.786     80.73238     161.8512     323.4771      2.015     6.22       912.25     57.04079     279.3896        20     1.893     0.691 -31.68   0
       429    259.9809    304.2714 307.8273803  +6.5642476     4785.892     8883.826     9469.766     80.73238     161.7225     323.5415      1.933     5.78     921.0814     57.04079      645.287        35     1.841     0.972 -30.70   0
       430    779.6931    297.3109 307.6117244  +6.5845540     567.8885     1193.643     1238.901     81.11835      162.365     323.6702      2.417     5.62     909.7664     57.04079     111.2386         8     2.142     0.415 -34.65   0
       431    394.0846    295.0203 307.7719866  +6.5725736     1358.069     2809.686     3212.109     80.73238     161.5292     323.5415      2.191     6.58      915.657     57.04079     191.2448        20     1.779     0.836 -37.97   0
       432    981.3925    293.6009 307.5280581  +6.5928263     973.3798     1729.662     2241.918     80.47404     161.5292     323.4128      1.874     5.50     904.0345     57.04079     151.4276        11     1.532     0.556 -33.92   0
       433    163.9980    290.7900 307.8677052  +6.5665830     1565.532     3024.052     2963.087     80.60331     161.5292     323.4128      2.018     7.07     926.2108     57.04079     203.7132        20     1.909     0.734 -31.32   0
       434    316.5273    290.7056 307.8043491  +6.5717488     1034.376     1729.267     1392.326     80.98991     161.9155     323.6381      1.785     5.88     918.2092     57.04079     143.7484        13     1.547     0.629 -31.54   0
       435    573.5839    286.4539 307.6977102  +6.5821332     1769.686      3214.42     3327.718     80.47404     161.8512     323.3162      1.849     6.50     910.6252     57.04079     232.9939        20     1.739     0.775 -30.75   0
       436    917.4758    285.6907 307.5548760  +6.5939572     1524.624     2679.457     2550.763     81.11835     162.1083     323.6381      1.797     6.13     905.9892     57.04079     227.7952        16     1.768     0.598 -30.05   0
       437    737.1819    284.0446 307.6298299  +6.5886079     4449.608     7719.169     8515.027     80.73238     161.7225     323.3484      1.781     6.18     909.1632     57.04079     633.9473        29     1.788     0.829 -33.03   0
       438    677.9558    284.0546 307.6544332  +6.5866210     1800.108     3283.444     3288.562     81.11835     161.8512     323.6059      1.876     6.38     909.4963     57.04079     277.4813        17     1.808     0.633 -34.97   0
       439    974.2355    284.3709 307.5313406  +6.5963977     651.0952     892.3593     1049.832     80.73238     161.5937     323.4128      1.117     2.54     904.0038     57.04079     113.4328         5     0.704     0.461  15.77   0
       440    976.7275    282.4618 307.5303693  +6.5972690      607.783     987.1402     1181.892      81.2466     161.8512     323.6702      1.162     2.64     903.8626     57.04079     144.8255         5     0.935     0.316  69.15   0
       441    392.8854    278.3328 307.7730471  +6.5794220     529.6984     1082.387     1149.003      81.2466     162.1083     323.6381      1.922     6.36     915.0236     57.04079     91.70398        10     1.510     0.752 -37.51   0
       442    932.9590    276.4024 307.5487552  +6.5983088     914.4282     1769.792     2016.075     80.47404     161.5937     323.3484      2.030     6.74     905.1005     57.04079     151.8935        14     1.693     0.753 -20.89   0
       443    236.7284    269.2859 307.8382198  +6.5779074     1862.679     3281.827      3473.63      81.2466     162.1083     323.6381      1.849     5.54     921.7988     57.04079     264.9023        21     1.772     0.728 -33.27   0
       444    879.5887    268.1315 307.5712042  +6.5999399     1551.005     2714.954     2991.862     80.60331     161.6581     323.4771      1.948     5.92     906.6495     57.04079      231.457        18     1.746     0.655 -33.33   0
       445    769.6789    267.8936 307.6168721  +6.5963628     1346.766     2524.428     2608.874     80.86124     162.0441     323.6702      1.899     6.18     908.8335     57.04079     228.3808        16     1.724     0.685 -21.27   0
       446    470.9164    258.8803 307.7412876  +6.5900719     18855.93      34422.2     38124.87      80.9899     162.1083     323.6702      2.006     6.74        910.3     57.04079     2397.938        70     2.642     1.037 -39.05   0
       447    796.6644    258.3457 307.6059821  +6.6012071     11425.36     20163.25     21860.98     81.11835     161.7868     323.5737      1.908     6.63     908.5428     57.04079      1525.53        48     2.011     0.969 -27.85   0
       448    735.9910    253.9931 307.6313339  +6.6009737     535.3242     847.6795     1161.972     80.47404     161.6581      323.445      1.571     5.05     908.7005     57.04079     75.68927         8     1.336     0.541 -23.49   0
       449    158.8230    252.5541 307.8711463  +6.5821923     1944.746     3724.802     3878.219     80.73238     161.8512     323.4771      1.957     5.82     925.5659     57.04079     317.5457        24     1.865     0.843 -33.36   0
       450    133.2388    251.7278 307.8818017  +6.5816719     1038.721     1577.306     1234.271     80.98991     161.8512     323.6702      1.666     5.42     926.3004     57.04079     160.2362        13     1.428     0.627 -26.43   0
       451    933.0559    248.5522 307.5496485  +6.6098090     1062.969     1815.938     1994.924     81.11835     161.8512     323.7024      1.845     5.86     904.1934     57.04079     189.7644        14     1.848     0.523 -33.14   0
       452    788.9740    250.4572 307.6094417  +6.6042063     582.9205     806.0172     730.2205     80.73238     161.8512      323.445      1.483     4.76     908.3986     57.04079     89.80762         7     1.188     0.541 -24.24   0
       453    594.6584    245.0372 307.6903485  +6.5999369     3880.081     7156.893     7505.189     81.11835     161.9155     323.6381      1.919     6.30     908.9813     57.04079     510.4383        29     1.824     0.852 -33.64   0
       454    314.9712    245.7680 307.8065110  +6.5902467     1005.583     1797.259     1639.381     80.60331     161.5937     323.3806      1.712     5.89     917.5341     57.04079     158.7918        13     1.658     0.588 -36.84   0
       455    557.5011    245.0163 307.7057853  +6.5986998     1672.916     3075.932     3041.013     81.11835     161.5937     323.4128      1.994     5.76     908.9051     57.04079     235.7647        21     1.793     0.773 -27.26   0
       456    399.0891    243.9859 307.7716275  +6.5938089     1241.932     1979.816      1482.97     80.86124     161.6581     323.4771      1.690     5.87     913.1891     57.04079     180.5588        17     1.510     0.727 -34.65   0
       457    955.6735    242.0008 307.5404717  +6.6132690     2148.665      4067.95      4042.75     80.34455     161.2712      323.445      1.914     6.84     903.4761     57.04079     327.2959        21     1.794     0.769 -30.66   0
       458    901.6528    241.5458 307.5629295  +6.6116523     9588.244     16694.52        17094     81.37466     161.7868     323.5737      1.879     6.32     904.9808     57.04079     1448.933        36     1.840     0.877 -31.77   0
       459    576.6664    241.3039 307.6979484  +6.6008749     635.5151     846.3926     853.7819     81.11835     161.9155     323.6381      1.493     5.29     908.7806     57.04079     108.8633         8     1.591     0.497 -42.32   0
       460    329.7265    241.7794 307.8005160  +6.5923892     738.1274     1425.274     1687.222     80.73238     161.7225     323.5415      1.961     5.48     916.7605     57.04079     111.4988         9     1.533     0.553 -29.62   0
       461    220.8371    241.9160 307.8457448  +6.5886709     745.5812      1115.21     928.8668     81.11835     161.7868     323.5415      1.640     5.15     922.3928     57.04079     123.1375        10     1.665     0.451 -29.43   0
       462    988.3851    239.3709 307.5269699  +6.6154468      8387.52      14602.3      15111.9     80.73238     161.5937     323.5093      1.846     6.82     902.7531     57.04079       1260.8        35     1.877     0.828 -33.21   0
       463    699.7248    239.3712 307.6468912  +6.6057958     2291.932      4110.87     4490.961      80.9899     161.9155     323.6059      1.851     6.81     908.6642     57.04079     367.5273        21     1.772     0.735 -33.30   0
       464    273.9767    239.4186 307.8237546  +6.5914895     887.8823     1802.508     2111.073     80.86124     161.7868     323.5415      2.536     6.66     919.5222     57.04079      144.297        14     1.534     0.810 -34.48   0
       465     27.8584    238.1268 307.9260356  +6.5837354     21124.41     38990.99     41240.39      81.2466     161.8512     323.5737      1.933     6.31     930.7191     57.04079     2637.241        55     1.937     1.040 -34.62   0
       466    508.1682    234.2975 307.7266401  +6.6014699     1697.803     3104.736     3407.421      81.2466     161.7225     323.7024      1.866     6.69     908.5185     57.04079     229.7013        19     1.790     0.753 -35.84   0
       467    840.1227    230.9329 307.5888478  +6.6139768     1623.252     3089.456     2685.665      81.2466     161.9155     323.5737      1.884     6.36      906.675     57.04079     289.3315        17     1.740     0.652 -34.53   0
       468    520.3854    230.1443 307.7217046  +6.6035942     2257.218     3930.166     3929.819     80.47404     161.7225     323.3162      1.812     5.56     908.2987     57.04079     312.9475        24     1.763     0.834 -34.23   0
       469    892.4986    229.9950 307.5671199  +6.6161147     1826.344     3165.312     3076.982     80.86124     161.5292     323.2518      1.766     6.34     904.9113     57.04079       244.48        17     1.646     0.685 -35.04   0
       470    354.9435    226.8763 307.7905430  +6.5993887     5130.822     11273.94     13162.49     81.11835     161.7868     323.5737      2.344     7.50     914.9984     57.04079     581.8442        49     2.299     1.204 -55.24   0
       471    751.8674    227.5254 307.6256271  +6.6124313     33216.98     59216.72     62288.27      81.2466     161.9798     323.5737      1.880     6.51     908.1835     57.04079     5098.855        56     1.934     0.947 -33.33   0
       472    985.6093    226.3136 307.5285606  +6.6207445     2462.631     4081.998     3903.751     80.73238     161.5292      323.445      1.741     5.54      902.559     57.04079     354.1581        19     1.754     0.679 -34.24   0
       473   1023.0238    225.4617 307.5130452  +6.6223450     1252.643     1563.566     1826.092     77.57549     138.1094     254.0718      1.293     3.84     901.9503     57.04079     191.4272         9     1.007     0.588 -48.08  24
       474    919.7848    224.6014 307.5559648  +6.6192530      6348.94     11241.55     11651.68     80.73238     161.5292     323.3806      1.859     7.15     903.7639     57.04079     1029.302        28     1.828     0.783 -34.71   0
       475    463.2511    223.7445 307.7456552  +6.6043189     4241.323      7631.85     7670.157     81.11835     161.8512     323.6059      1.855     5.54       909.02     57.04079     602.2206        29     1.850     0.849 -33.03   0
       476    120.6254    214.9191 307.8882850  +6.5964415     3986.565     7351.082     7693.993     80.86124     161.6581     323.6059      1.916     5.85     926.0292     57.04079     531.9565        30     1.852     0.901 -28.25   0
       477    266.2746    212.7839 307.8278529  +6.6022252     5460.333      9890.36     10405.65     80.60331     161.5937     323.4771      1.886     5.66     920.0125     57.04079      745.812        37     1.901     0.972 -33.04   0
       478    290.9689    211.6533 307.8176326  +6.6035223     27932.42     51467.43     54892.11      80.9899     161.9155     323.5093      1.942     5.63     918.8406     57.04079     3689.342        59     1.951     1.043 -32.62   0
       479    720.5296    210.4697 307.6392191  +6.6184231     808.4434     1430.717     1370.049     81.11835     161.9798     323.5737      1.939     6.00     907.7314     57.04079     135.3272        12     1.689     0.599 -48.05   0
       480    415.0208    207.1447 307.7662505  +6.6095520     41442.48     75733.95     80688.02     80.60331     161.8512     323.4128      1.918     5.77     910.5561     57.04079     5584.412        68     1.952     1.075 -33.13   0
       481    170.9554    208.3724 307.8675988  +6.6008387     3310.538     6132.969     6238.971     80.73238     161.9155     323.5093      1.899     5.65     923.8962     57.04079      503.343        28     1.845     0.861 -33.50   0
       482    432.2492    207.6136 307.7590776  +6.6099370     1306.801     2328.836     2404.124     80.47404     161.7868     323.3162      1.770     6.39     909.8845     57.04079     201.4805        17     1.615     0.722 -37.96   0
       483    754.3127    203.3960 307.6254216  +6.6224740     27748.22        49150     52333.24     80.60332     161.5292      323.284      1.873     6.50     907.0865     57.04079     3967.623        58     1.929     0.972 -34.19   0
       484    319.0970    204.8671 307.8061765  +6.6072693     15380.44     28270.09     30678.53     81.11835     161.9155     323.6381      1.953     5.72      917.197     57.04079      1884.27        53     2.213     0.998 -30.04   2
       485    326.6123    204.7636 307.8030580  +6.6075647     1773.066     3387.487     3782.864     80.60332     161.6581     323.3162      2.162     5.95       916.69     57.04079     279.9399        22     1.957     0.773 -36.28   3
       486    239.3414    207.7873 307.8392100  +6.6033817     1749.349     2060.242     2433.511     80.47404     161.7868     323.3162      0.699     0.75     921.2586     57.04079     977.9431         7     0.604     0.484  -2.55   0
       487    702.2473    205.2648 307.6469892  +6.6199597     924.7961     1564.424     1621.171      80.9899     161.7868     323.6702      1.967     5.41     907.6945     57.04079     149.7028        12     1.704     0.485 -30.42   0
       488    802.8074    203.9236 307.6052567  +6.6238787     1109.652     1986.797      2487.28     80.73238     161.3357      323.445      1.891     6.51     906.4758     57.04079     136.8143        15     1.553     0.767 -32.35   0
       489     71.1454    200.5935 307.9093235  +6.6006879     7652.864     14408.44     15548.52     80.60331     161.5937     323.3162      1.980     5.77     928.1486     57.04079     942.0019        42     1.883     1.036 -31.10   0
       490    104.8563    198.8572 307.8953785  +6.6025405     1134.007     2006.649     1911.399      81.2466     161.9155     323.6702      1.840     6.13     926.0771     57.04079     162.0415        15     1.627     0.649 -39.89   0
       491   1012.9717    197.6427 307.5181532  +6.6334936     872.0725     1734.494     1917.149     80.73238     161.9155     323.4771      2.027     5.62     900.6691     57.04079     140.8998        11     1.801     0.494 -32.57  16
       492    739.0200    190.7919 307.6321983  +6.6271653     467.3211     680.5541     856.6681     80.73238     161.5937     323.3806      1.510     3.42     906.7695     57.04079     77.07025         5     1.551     0.218 -27.00   0
       493    587.8923    188.0933 307.6950748  +6.6232169     670.7471     1181.469     866.6963     81.11835      162.365     323.6059      1.712     5.73     907.0449     57.04079     130.9037        10     1.637     0.564 -50.87   0
       494   1013.5078    184.1562 307.5183822  +6.6390790     1990.889     3444.197     4159.783     81.11835     161.7868     323.7346      1.819     5.61     899.8978     57.04079     283.0802        21     1.596     0.896 -33.45  16
       495      4.9714    185.4949 307.9373233  +6.6046895     779.0333     1217.988     1208.666      81.2466     161.5937     295.7333      1.839     4.38     932.7078     57.04079     106.1801         8     1.283     0.426 -12.50  16
       496    596.9230    181.6725 307.6915390  +6.6261702     798.8158     1454.563     1600.446     81.37466     162.1083     323.6059      1.993     6.51      906.957     57.04079     138.6169        11     1.582     0.753 -26.97   0
       497    605.1007    179.6170 307.6882107  +6.6272928     1811.757     3003.416     2978.088     81.11835     161.6581     323.4128      1.833     5.97     906.9852     57.04079     249.1262        19     1.719     0.732 -34.79   0
       498    289.8849    177.9028 307.8192216  +6.6174180     25432.68     46649.82      49327.3     81.11835     162.2367     323.6702      1.944     5.82     919.5477     57.04079     3238.872        53     1.948     1.017 -33.16   0
       499    349.0512    180.0917 307.7945682  +6.6185034     807.6692     1412.115     1391.426      80.9899     161.7225     323.7989      1.754     5.18      915.326     57.04079     126.1495         9     1.291     0.587 -32.25   0
       500     35.1576    176.3902 307.9250916  +6.6094657     3543.276     6776.634     7689.377     80.47404     161.6581     323.3484      2.014     6.33     930.4736     57.04079     500.3704        30     1.966     0.938 -37.65   0
       501    721.5817    174.5446 307.6399888  +6.6332886     6774.667     12014.81     12618.34     80.60332     161.7868     323.3806      1.855     6.04     906.3226     57.04079     997.1016        33     1.834     0.882 -32.63   0
       502    199.1334    175.3645 307.8570079  +6.6154127     870.7333     1769.079      1743.24      80.9899     161.9155     323.6702      2.071     6.46     922.2468     57.04079     150.5673        11     1.714     0.683 -33.25   0
       503    132.3102    171.6829 307.8848921  +6.6146826     3990.962     7448.917     7908.036     80.86124     162.1083     323.7024      1.935     5.83     924.1253     57.04079     572.0026        31     1.929     0.858 -32.90   0
       504    275.8604    172.7075 307.8252231  +6.6190910     803.7045      1326.74     1366.623      80.9899     161.7868     323.7024      1.708     6.64     920.1016     57.04079     125.2626        12     1.325     0.933 -22.47   0
       505    471.5127    168.8775 307.7440708  +6.6272455     1219.967     2086.944     2227.418     81.11835     162.1725     323.7024      1.834     6.44     907.7753     57.04079     172.4665        16     1.669     0.697 -30.55   0
       506    402.9605    167.6479 307.7725918  +6.6254514     3234.707     6582.987     7023.228      80.9899     161.8512     323.4128      2.088     5.43     909.9769     57.04079     358.6779        36     1.751     1.232 -31.34   0
       507    659.5521    168.7987 307.6659525  +6.6335833     742.4373      1095.76     931.1124     80.47404     161.4648     323.1551      1.812     4.72     906.7661     57.04079     125.7069         7     1.431     0.441 -37.48   0
       508    121.8740    166.4065 307.8894058  +6.6165091     1421.446     2693.375     2501.526     80.73238     161.4003      323.445      2.069     6.29     924.2895     57.04079     206.1097        17     1.738     0.677 -32.40   0
       509    367.4659    166.4015 307.7873796  +6.6247735     2663.319     4747.762     4945.622     80.47404     161.4648     323.3806      1.910     6.79     913.6033     57.04079     393.7532        22     1.648     0.829 -29.90   0
       510    951.0865    165.3064 307.5449479  +6.6447764     444.6889     545.6005     286.0407     81.11835     162.3009     323.7024      1.569     3.92     900.6399     57.04079     84.42908         5     1.316     0.335 -48.74   0
       511    757.8273    164.4217 307.6252703  +6.6386806     525.6287     857.6013     925.5358     80.60331     161.6581     323.5737      1.285     4.47     905.1664     57.04079     66.18188         5     1.167     0.487   4.48   0
       512    683.3917    164.4344 307.6561949  +6.6361834     701.9085     1098.596      1256.05     80.60332     161.6581     323.3806      1.600     3.43     906.4637     57.04079      125.782         5     1.160     0.293 -20.86   0
       513   1012.6694    161.6841 307.5194833  +6.6483278     858.9805     1232.634     1584.534     81.37466     162.1083     323.6381      1.319     4.53     898.7479     57.04079     151.7841         8     1.157     0.504 -51.92   3
       514   1015.4885    160.0021 307.5183684  +6.6491163     960.9814     1342.881     1702.124     80.47404     161.4648     323.3484      1.147     4.57     898.5762     57.04079     188.3767         7     1.083     0.549 -51.97   3
       515    740.2537    160.7800 307.6326938  +6.6395958     505.3271    -64.45183    -224.1116     80.60331     161.8512     323.4128     -5.244     3.66     905.4589     57.04079      105.655         5     1.297     0.297 -30.31   0
       516    219.4384    155.4526 307.8492449  +6.6243156     4605.056     8223.381     8904.405     80.86124     161.9155     323.6059      1.898     5.84      921.606     57.04079     582.5109        31     1.785     0.926 -30.34   0
       517    101.9425    155.2634 307.8980624  +6.6204374     1755.077     3387.881      3773.93      81.2466     161.7868     323.6381      2.140     6.38     924.6741     57.04079     268.5696        20     1.815     0.743 -36.22   0
       518    681.0812    154.3703 307.6574930  +6.6402606     5155.519     9432.343     10007.63      80.9899     161.6581     323.6059      1.924     6.35      906.134     57.04079     773.7554        31     1.845     0.864 -32.61   0
       519    829.0914    154.0332 307.5960113  +6.6453531     885.0413     1295.323     1110.949      81.2466     161.7225     323.6381      1.642     5.51     903.3997     57.04079     157.9806        11     1.570     0.546 -35.66   0
       520    633.2791    151.5503 307.6774477  +6.6398233     7881.166     14213.38     16178.06     81.11835     161.9155     323.6059      1.972     6.07     906.2372     57.04079     1093.032        41     1.966     0.946 -35.43   3
       521    636.7972    143.0907 307.6762705  +6.6434334     44065.93     80683.91     86312.93     80.47404     161.5292     323.3484      1.911     6.05     905.9489     57.04079     5881.452        75     1.985     1.049 -33.77   2
       522    571.1063    150.9863 307.7032969  +6.6379721     592.0623     1060.913     911.4841     80.86124     161.5937      323.445      2.021     5.99     905.8027     57.04079     109.7554         7     1.673     0.604 -43.41   0
       523     31.7367    151.1792 307.9273654  +6.6197571     753.4664     1526.492      1273.21     80.73238     161.8512     323.4771      1.846     6.25     930.5513     57.04079     106.6396        12     1.933     0.567 -30.85   0
       524    360.2352    147.4502 307.7910225  +6.6323536     3097.224     5904.168     6233.646      80.9899     161.8512     323.5415      2.007     5.94     914.3772     57.04079     374.6585        28     1.902     0.908 -35.11   0
       525   1006.8729    146.1288 307.5224127  +6.6545558     824.5381     1609.977     1530.488     81.37465     161.9798     323.6059      2.131     6.79     897.9833     57.04079     119.5599        13     1.944     0.664 -35.13   0
       526    542.4595    146.6237 307.7153452  +6.6388123     1466.092     2623.745      2637.35     80.73238     161.8512      323.445      1.883     6.79     905.5302     57.04079     227.5994        17     1.744     0.742 -21.74   0
       527    315.8418    137.0081 307.8098177  +6.6351720     2997.958     5485.029     6453.143     80.47404     161.6581     323.3484      1.938     5.55     917.9525     57.04079     377.7548        28     1.802     0.892 -35.87   0
       528    715.7760    131.1023 307.6438604  +6.6510276     925.3111     1585.224     2228.072      81.2466     161.5937      323.445      1.770     5.81     904.6854     57.04079     128.6727        12     1.552     0.612 -36.53   0
       529     13.4122    119.8260 307.9360385  +6.6320814     710302.2      1662093      1854070     80.73238     161.6581     323.5415      2.333     7.54     931.8674     57.04079     61587.69       441     2.453     1.705 -36.60  28
       530    687.0964    130.2314 307.6558052  +6.6504268     1171.693     1937.644     1636.899      81.2466     161.6581     323.7024      1.723     6.50     905.1445     57.04079     200.8682        16     1.615     0.735 -32.43   0
       531    701.2324    126.9534 307.6500423  +6.6522533     2573.855     4616.474     4899.719     80.86124     161.8512     323.5093      1.908     6.52     904.7897     57.04079     348.9241        22     1.751     0.772 -32.74   0
       532    442.9350    118.0534 307.7576555  +6.6472664      3525.12     6565.787     6834.958     81.11835     161.7868     323.5737      1.929     5.48     907.4272     57.04079     456.0069        32     1.949     0.924 -34.89   0
       533    915.3914    113.4437 307.5615172  +6.6649936     3260.639     5546.678      5286.05     80.60332     161.6581     323.3484      1.790     6.57     899.5078     57.04079     525.1125        22     1.696     0.763 -32.92   0
       534    897.5616    114.2741 307.5688974  +6.6640550     1862.819     3145.216     2663.982     80.98991     161.8512     323.6702      1.741     6.13      899.922     57.04079     255.9924        17     1.741     0.606 -33.13   0
       535    595.9578    113.8607 307.6942210  +6.6541309     709.3182     877.1646     1153.728     81.11835     161.8512     323.7024      1.491     5.01     905.1771     57.04079     115.0346         8     1.437     0.494 -39.73   0
       536    607.5027    112.0568 307.6894851  +6.6552626     1328.929     2240.204     2264.719      80.9899     161.7868      323.831      1.802     5.84     905.1604     57.04079      203.279        14     1.685     0.569 -32.43   0
       537    406.4400    109.8634 307.7730937  +6.6494216     1668.747     3013.924     2966.503     81.11835     161.7868     323.6381      1.872     6.20     909.4542     57.04079     249.8187        22     1.751     0.806 -32.60   0
       538    254.2840    111.2841 307.8362597  +6.6437205     646.4633     1218.649     2009.276     80.86124     161.9798     323.7024      2.414     5.09     920.7419     57.04079      109.608         9     1.445     0.508 -16.17   0
       539    154.2680    106.6969 307.8779659  +6.6422477     2756.934     4967.295     4976.437     81.11835     161.9155     323.5737      1.862     6.03     921.8831     57.04079     353.1032        23     1.773     0.789 -35.83   0
       540     36.1496    104.6198 307.9271071  +6.6391250     10281.61     19144.84      20994.2     80.60331     161.9155     323.4771      1.967     5.80     929.3795     57.04079     1366.117        46     1.942     1.016 -34.21   0
       541    303.2383    104.6405 307.8161457  +6.6481094     1095.619     1950.637     2854.169     80.86124     161.9155     323.4771      2.218     6.51     918.9823     57.04079     183.3459        17     1.819     0.856 -41.96   0
       542    562.8902    104.4420 307.7082766  +6.6569103     742.8243     1400.698       1787.2     81.11835     161.8512     323.6381      2.032     6.09     904.8997     57.04079     121.7173        11     1.616     0.644 -24.56   0
       543    993.8103    102.3902 307.5293055  +6.6721757     370.8782     633.7951     247.5267     80.73238     161.6581     323.5415      1.736     3.77     895.9545     57.04079     72.24512         5     1.553     0.263 -41.11   0
       544    837.8404     99.3190 307.5942125  +6.6682323     5168.917     9339.993      10287.9     81.11835     161.8512     323.5415      1.934     6.62     900.7617     57.04079     763.6205        31     1.824     0.830 -32.17   0
       545    782.9645     99.5282 307.6170057  +6.6663104     2733.972     4875.479     5309.045      80.9899     161.8512     323.6059      1.837     6.78     902.3974     57.04079     444.5769        22     1.790     0.719 -34.83   0
       546    428.2291     99.8107 307.7643799  +6.6543032     896.7872      1786.64     2329.455     80.60331     161.6581      323.445      2.825     6.16     907.7943     57.04079     135.0177        13     2.030     0.526 -28.86   0
       547    545.3242     97.8099 307.7157979  +6.6590589     917.0742     1525.802     1900.284     80.73238     161.4003     323.4128      1.912     5.50     904.8037     57.04079     142.2775        11     1.751     0.487 -28.97   0
       548     76.3647     96.3623 307.9106795  +6.6438892     2623.847     5037.671     5455.646     80.86124     161.7225     323.3806      1.982     5.94      925.122     57.04079     377.0045        27     1.811     0.944 -33.52   0
       549     60.8044     97.5572 307.9171035  +6.6428715     724.2284     1219.724     1095.823     80.47404     161.5292     323.3162      1.727     5.33     926.7149     57.04079     132.0454        10     1.538     0.522 -25.38   0
       550    437.9244     95.7441 307.7604889  +6.6563074      777.611     1468.633     1752.238     81.11835     161.7868     323.5415      1.779     5.73     907.3778     57.04079     126.4671         9     1.328     0.697 -28.54   0
       551    600.1412     93.2788 307.6931753  +6.6627674     1109.512     1922.387     2032.675      81.2466     161.8512     323.5415      1.877     5.36     904.6672     57.04079     187.4535        12     1.708     0.474 -32.35   0
       552     18.8660     92.0354 307.9347131  +6.6437369      2059.95      3849.41     3913.037      80.9899     161.8512     323.6702      1.874     5.59     930.3623     57.04079     265.2831        25     1.857     0.860 -32.74   0
       553    777.5826     87.1707 307.6196567  +6.6712316     1691.821     2614.725     2773.602     80.73238     161.6581     323.5415      1.699     5.79     901.9164     57.04079     260.3604        19     1.718     0.684 -31.60   0
       554    418.1413     87.3264 307.7689918  +6.6591179     1038.537     1726.027     1584.686      81.2466     161.8512     323.6059      1.877     6.10     908.2729     57.04079      134.822        13     1.439     0.728 -29.71   0
       555    114.6065     86.5079 307.8951253  +6.6492456     722.2722     1283.176     1737.677     80.73238     161.5292     323.4128      1.793     5.31     922.5063     57.04079     139.5166        10     1.637     0.487 -39.98   0
       556    104.1866     80.8068 307.8996470  +6.6512479     8055.404     14705.26     15679.86     80.73238     161.6581     323.4771      1.907     5.72     922.6808     57.04079      1038.86        42     1.863     1.054 -35.10   0
       557    433.2318     80.6060 307.7629486  +6.6623989     2170.789      3855.26     3879.225     80.47404     161.6581     323.3806      1.843     5.32     907.6818     57.04079     286.3463        23     1.687     0.883 -24.13   0
       558    270.9198     74.7851 307.8305802  +6.6593467     1150.935     2252.089      2880.76     80.73238     161.5937     323.4128      2.192     6.73     920.6979     57.04079     172.2623        17     1.662     0.763 -28.74   0
       559    646.9971     72.7958 307.6743964  +6.6727932     15430.25     27937.33      29207.4     80.47404     161.4003     323.4128      1.904     6.06     903.9134     57.04079     2150.178        46     1.891     0.956 -32.73   0
       560    546.6965     68.8874 307.7162013  +6.6710442      4286.29     7787.731     8063.595     81.11835     162.2367     323.6381      1.907     5.99     904.3893     57.04079     540.2278        28     1.766     0.882 -35.76   0
       561    272.9211     64.7997 307.8300857  +6.6635359     7753.486     14022.58     16063.52     80.34455     161.2066     323.3484      1.982     5.65     920.8275     57.04079     1022.117        43     1.998     0.975 -36.92   2
       562     13.9455     67.3475 307.9375926  +6.6537617     1073.173     1820.364     1743.143     81.37465     161.7868     323.5737      1.932     4.73     927.6249     57.04079     139.7639        15     1.282     0.895 -28.05   0
       563    634.6772     66.6378 307.6797223  +6.6749225     793.9376     1902.086     3054.988     80.98991     161.9155     323.6059      2.780     6.91     903.8718     57.04079     138.0757        11     1.770     0.773 -28.47   2
       564    633.0300     62.5357 307.6805446  +6.6765607      2639.41      5108.72     6172.191     80.86124     161.9155     323.5415      2.012     6.41     903.7989     57.04079     425.8799        24     1.833     0.748 -33.63   2
       565    452.2955     64.4685 307.7555718  +6.6697005     19167.35     34483.65     35876.18     80.98991     161.9798     323.6381      1.891     6.07     906.9352     57.04079      2554.07        47     1.907     0.978 -32.42   0
       566    333.2501     64.9945 307.8050144  +6.6654841     825.8736      1649.75     1770.964     80.47404     161.6581     323.2195      2.014     6.86     917.0815     57.04079      148.403        13     1.880     0.701 -37.61   0
       567     38.3511     64.3959 307.9275532  +6.6558031     1913.024     3438.399     3448.726     80.47404     161.6581     323.2518      1.888     7.01      925.904     57.04079     259.8853        21     1.781     0.774 -33.70   0
       568    930.2225     64.3678 307.5570006  +6.6857482     1663.319     2803.402     3313.612     80.60332     161.6581     323.3806      1.911     6.24     896.9536     57.04079     289.7399        16     1.771     0.618 -30.80   0
       569    264.8312     69.3012 307.8332949  +6.6614056     1639.094     3104.111     4308.582     81.11835     161.5937     323.7346      2.054     6.34     920.8589     57.04079     231.5911        21     1.724     0.945 -36.81   3
       570    260.7845     61.5122 307.8352390  +6.6644847     2510.812     4686.319     5588.781     80.86124     161.5937     323.4771      1.918     6.07     920.9886     57.04079     322.3575        25     1.806     0.825 -33.06   0
       571    313.5043     59.8124 307.8133930  +6.6669594     889.2031     1716.474     2038.081     80.86124     161.5937     323.3806      2.019     5.96     918.6906     57.04079      139.038        12     1.818     0.550 -32.48   0
       572    951.1017     54.2625 307.5486640  +6.6906172     822.1075     1476.018      1401.42     80.86124     161.9798     323.6702      2.033     6.75     895.5102     57.04079     134.4369        14     2.115     0.605 -36.00   0
       573    702.3207     53.9789 307.6520425  +6.6824141     1553.214     2649.035     2698.934     80.73238     161.5292     323.6059      1.802     6.43     902.5059     57.04079     269.7565        18     1.792     0.674 -31.72   0
       574    267.5403     49.2966 307.8328445  +6.6697545     685.6787     1145.602     1722.265     80.86124     161.8512     323.7024      2.073     5.21     921.1051     57.04079     119.7191         8     1.352     0.568 -24.67   0
       575    214.0521     49.1481 307.8550722  +6.6680160     590.3588     985.3344     1021.593     81.37466     161.7225     323.6059      1.795     5.24     921.3386     57.04079     90.76721         6     1.285     0.604 -16.65   0
       576    190.3680     46.8574 307.8649895  +6.6681643     8965.122     16312.63     17408.64      80.9899     161.8512     323.5415      1.914     5.84     921.3536     57.04079     1170.008        42     1.914     0.989 -34.58   0
       577      3.5575     47.0999 307.9425934  +6.6617692     795.6933     1212.123      953.854     81.11835      156.221     277.9474      1.585     5.04     925.3741     57.04079     131.0635         9     1.271     0.582 -35.71  16
       578    935.8925     44.6530 307.5553058  +6.6940761     3385.502     6027.608     6272.602      80.9899     161.7868     323.7989      1.827     7.05     895.7692     57.04079     591.5201        26     1.778     0.784 -31.70   0
       579    534.5122     45.0433 307.7220663  +6.6804784     2384.088      4371.78     5060.551     81.11835     161.7225     323.6381      1.976     6.34     904.3065     57.04079     311.0815        23     1.738     0.829 -31.27   0
       580    472.7747     43.6497 307.7477644  +6.6789820     1558.056     2744.616     2591.513     80.73238     161.8512     323.5093      1.814     5.75     906.0069     57.04079     244.6835        20     1.737     0.758 -28.74   0
       581    736.7659     43.3131 307.6380890  +6.6879703     1647.012     2869.464     3189.328     81.11835     161.7225     323.6059      1.821     6.18     901.0947     57.04079     260.2468        17     1.714     0.627 -30.61   0
       582   1000.5996     40.7429 307.5285503  +6.6978511     1533.217     2903.568     2868.994     80.34455     161.4003      323.284      1.974     7.43     892.5582     57.04079     244.5559        21     1.996     0.803 -38.87   0
       583    720.0696     37.3662 307.6452262  +6.6898662     6242.828     11102.03     11318.42      80.9899     161.8512     323.6702      1.844     6.45     901.4581     57.04079     936.1224        31     1.819     0.840 -32.73   0
       584    640.4551     36.5137 307.6783347  +6.6875514     3124.029     5502.361     5902.219     81.11835     161.7868     323.7667      1.852     6.18     903.2001     57.04079     444.6361        25     1.838     0.771 -32.20   0
       585    342.1977     36.4889 307.8022584  +6.6775518     656.7845     962.3281     1349.843     80.47404     161.4648     323.3162      1.753     5.99      916.454     57.04079     115.1548         9     1.696     0.595 -26.21   0
       586    440.5263     32.8996 307.7615254  +6.6823369      5347.08     9440.356     10213.64     80.60331     161.9798     323.5415      1.851     5.87     907.6052     57.04079     700.2274        30     1.848     0.857 -32.70   0
       587     41.5503     32.4423 307.9273050  +6.6691009     7343.386     13045.31     13831.36      81.2466     161.8512     323.6059      1.908     5.91     922.8252     57.04079     958.1101        37     1.837     0.949 -32.20   0
       588    686.7900     32.3379 307.6592229  +6.6908275     649.4688     1221.495      1232.78     80.47404     161.6581     323.4128      1.663     4.19     902.4534     57.04079     137.8236         6     1.124     0.445 -38.98   2
       589    516.0775     30.1202 307.7302282  +6.6860202     785.3446     1636.177     1482.926     81.37466     162.1083     323.7667      2.076     6.67     904.6548     57.04079     138.7709        12     1.590     0.786 -22.78   0
       590    337.0613     27.8483 307.8046839  +6.6809459      10892.8     20049.21     21581.78     81.11835     161.7868     323.6702      1.959     5.85       916.95     57.04079     1411.631        46     1.926     1.026 -33.99   0
       591    110.5892     28.2075 307.8987651  +6.6731759     2198.021     3865.124     4742.065     80.60331     161.6581     323.5093      1.927     6.15     921.9908     57.04079     310.7711        24     1.882     0.830 -33.98   0
       592    396.0709     34.8910 307.7799289  +6.6800218     764.9539     1454.648     1586.195      80.9899     162.0441     323.6059      1.839     6.09     910.9683     57.04079     105.7789        12     1.561     0.667 -24.28   0
       593    102.1520     26.9341 307.9023135  +6.6734173      1293.68     2248.273     2423.993      80.9899     161.7868     323.6059      1.917     6.69     922.1009     57.04079     159.2936        17     1.575     0.797 -34.23   0
       594    805.8995     26.1630 307.6099396  +6.6973634     713.8486     1207.342     1056.163     81.11835     161.7225      323.831      1.814     5.51     898.2534     57.04079     99.66425        10     1.591     0.539 -31.31   0
       595    403.2969     25.8598 307.7772310  +6.6839925     1864.032     3271.294     3266.815     80.86124     161.8512     323.7024      1.839     5.76     910.3003     57.04079     230.2175        21     1.679     0.805 -30.01   0
       596    896.4526   1017.9806 307.5390699  +6.2909501     9596.019      18714.7     20103.69     80.60331     161.9155     315.9216      2.051     5.71     932.7629     57.04079      1086.49        52     1.976     1.188 -29.99  16
       597    998.2798     22.8719 307.5301130  +6.7051510     600.6816     975.6772     223.2571     81.37466     162.1083     323.6059      1.770     5.40     891.7974     57.04079      119.804         8     1.743     0.472 -35.10   0
       598     83.0346     21.8982 307.9104264  +6.6748517     493.8357     1000.249     926.1936     81.11835     161.7225     323.7346      1.914     5.55     922.0623     57.04079      93.9361         6     1.484     0.585 -44.74   0
       599    541.6891     20.8192 307.7198998  +6.6907188     1137.197     1950.184     2396.475     80.86124     161.5937     323.5093      1.790     6.40     903.8158     57.04079      160.486        16     1.693     0.679 -32.63   0
       600    828.6999     20.4974 307.6006560  +6.7004648     1335.833     2425.415     2682.239     81.11835     162.3009      323.445      1.851     6.04      897.348     57.04079     198.3241        15     1.606     0.639 -29.93   0
       601    899.0201     18.6667 307.5714983  +6.7035715      1279.97     2385.995     2485.908     80.73238     161.8512     323.5093      1.882     6.06     895.5621     57.04079     190.6713        15     1.645     0.628 -36.81   0
       602   1018.0508   1017.5438 307.4885986  +6.2951894     3785.277     7748.408     8739.848     81.11835     161.8512     310.7378      2.198     5.79     925.4556     57.04079     426.9224        41     2.075     1.140 -30.70  16
       603    609.1364   1018.4340 307.6583418  +6.2811530     1250.373     2211.272      2598.35      80.9899     161.9155      312.242      1.929     5.36     936.6508     57.04079     180.3969        17     1.513     0.782 -27.04  16
       604    540.4773   1017.0099 307.6868948  +6.2794404     3590.021     6354.677     7242.073     80.73238     161.5292     321.8961      1.939     5.44     938.7035     57.04079     488.7639        29     1.810     0.883 -35.52  16
       605    650.3889   1016.1855 307.6412905  +6.2834627     1245.243     2047.839     2306.527     80.86124     161.5937     323.5415      1.851     6.29     936.1805     57.04079     187.1434        16     1.653     0.672 -33.86  16
       606     75.5242   1015.7067 307.8799652  +6.2643595     653.0489     1256.475     1255.057     80.98991     162.0441     323.6059      2.254     5.36     941.0013     57.04079     109.4314         9     1.561     0.520 -30.85  16
       607    493.9098   1013.3038 307.7063526  +6.2794093     1826.246     3382.138     3177.614     81.11835     162.3009     323.6059      1.883     5.82       938.65     57.04079     260.8517        22     1.784     0.756 -32.13  16
       608    205.7060     12.9184 307.8597634  +6.6826903     868.7833     1600.566     1355.733     80.86124     162.1083     323.7024      2.019     4.97     921.3122     57.04079      119.176         9     1.084     0.645 -32.34   3
       609    928.1646   1005.5042 307.5263213  +6.2971597     34580.77     66472.77     71658.16      81.2466     161.7225     323.7346      2.039     5.65     931.9884     57.04079     3777.687        78     2.045     1.227 -31.61   0
       610      2.0562   1004.7865 307.9108332  +6.2663929     2243.264     2909.915     2743.583      78.1105     139.2356     255.0942      1.396     4.20     941.4157     57.04079     320.6097        15     1.346     0.714 -58.08  24
       611    235.7013   1003.7111 307.8138733  +6.2747001     1410.338     2225.467     1878.891     81.11835     162.3009     323.5737      1.774     6.16     941.5225     57.04079     193.6979        15     1.641     0.651 -28.14   0
       612    774.3209    997.2643 307.5904713  +6.2954206     5542.555     10283.79     11349.51     81.37466     161.9155     323.5737      1.993     5.91     933.6878     57.04079     678.4874        40     1.885     1.088 -37.77   0
       613    633.0405   1002.6606 307.6489472  +6.2884651     582.1695     971.1392     914.4186     81.11835     161.8512     323.6381      1.938     4.45     936.1533     57.04079     92.38611         6     1.100     0.513 -59.84   2
       614    826.0274    999.2341 307.5689374  +6.2963360     2089.642     3731.872     4416.198     80.60331     161.5937     323.3806      1.917     5.65     932.9626     57.04079     256.0537        25     1.780     0.890 -34.18   0
       615    243.6039    996.4070 307.8108387  +6.2779809     1229.507     2063.852     2113.191     80.47404     161.5292     323.4771      1.859     5.20     941.3798     57.04079     166.9331        15     1.494     0.720 -46.18   0
       616    561.5948    996.0261 307.6788326  +6.2888106     780.8132      1297.28     1770.289     80.60331     161.6581      323.445      1.949     5.27     937.7169     57.04079      126.431        10     1.229     0.637 -25.29   0
       617    206.6264    996.6576 307.8261816  +6.2766342     510.9699     878.9335     1242.866     80.73238     161.9155      323.445      2.255     3.65     941.1625     57.04079     115.0047         5     1.121     0.342 -40.83   3
       618    209.7056    994.5939 307.8249728  +6.2775897     768.9359     973.2231     1278.513     80.86124     161.5292     323.4128      1.489     4.14     941.1714     57.04079     137.7477         6     0.916     0.535   0.43   2
       619     68.7651    994.0935 307.8835010  +6.2730538     2360.353     4073.833     4023.199      81.2466     161.7225     323.7024      1.817     5.41     940.7207     57.04079     321.0709        21     1.656     0.803 -37.59   0
