#   1 NUMBER                 Running object number                                     
#   2 X_IMAGE                Object position along x                                    [pixel]
#   3 Y_IMAGE                Object position along y                                    [pixel]
#   4 ALPHA_J2000            Right ascension of barycenter (J2000)                      [deg]
#   5 DELTA_J2000            Declination of barycenter (J2000)                          [deg]
#   6 FLUX_APER              Flux vector within fixed circular aperture(s)              [count]
#   9 FLUXERR_APER           RMS error vector for aperture flux(es)                     [count]
#  12 FLUX_RADIUS            Fraction-of-light radii                                    [pixel]
#  13 FWHM_IMAGE             FWHM assuming a gaussian core                              [pixel]
#  14 BACKGROUND             Background at centroid position                            [count]
#  15 THRESHOLD              Detection threshold above background                       [count]
#  16 FLUX_MAX               Peak flux above background                                 [count]
#  17 ISOAREA_IMAGE          Isophotal area above Analysis threshold                    [pixel**2]
#  18 A_IMAGE                Profile RMS along major axis                               [pixel]
#  19 B_IMAGE                Profile RMS along minor axis                               [pixel]
#  20 THETA_IMAGE            Position angle (CCW/x)                                     [deg]
#  21 FLAGS                  Extraction flags                                          
         1      8.8722     66.3445 307.9367449  +6.6320944     738266.8      2136142      2581462     90.68546     181.1549     362.3097      2.694     6.55     1173.063     63.86933     61999.34       380     2.479     2.031 -74.73  28
         2     99.7307     27.2485 307.9002647  +6.6512912     4916.239     12260.11     14504.23     90.82928     181.1549     362.3818      2.485     5.87     1167.775     63.86933     530.6729        55     1.993     1.637 -76.97   0
         3    642.3429     18.9712 307.6747314  +6.6728411      9547.93     23837.45     28011.74      90.3971     181.2989     362.2376      2.504     5.92     1143.531     63.86933     872.1593        74     2.099     1.743 -75.05   0
         4    542.1172     14.9446 307.7165791  +6.6711634     2559.948      6548.18     7411.566     90.82928     181.2269     362.4538      2.507     6.57     1147.306     63.86933     267.1171        45     1.929     1.582 -81.71   0
         5    260.5054     15.9918 307.8337407  +6.6613242     1021.491     2734.061       4550.9      90.3971     180.7942     362.0935      3.531     9.00     1166.036     63.86933     110.8416        23     1.730     1.306 -10.82   3
         6    268.3513     11.3072 307.8306345  +6.6635219     4478.056     11860.42      14661.7     90.68546     181.0828     362.4898      2.663     6.30     1166.207     63.86933       514.98        60     2.081     1.768 -61.82  18
         7    447.6665     10.6725 307.7560315  +6.6697765     10938.82     29643.28     34844.44     90.97289     181.2989     362.3097      2.617     6.31      1152.58     63.86933     1115.404        79     2.123     1.870 -71.16  16
         8     33.8833     11.0954 307.9282154  +6.6557571     1174.227     2922.334     2841.122     90.68546     181.6586     362.4538      2.469     8.73     1169.386     63.86933     140.6396        23     1.679     1.390 -84.68   0
         9    924.5361     10.1395 307.5575843  +6.6858782     1173.797     2988.278      4255.45     90.82928     181.1549     362.3818      2.807     6.34     1136.753     63.86933     179.4796        16     1.724     0.777 -85.40  18
        10    628.5661      9.1356 307.6807975  +6.6764454     1787.112     4610.925     5830.623     90.68546     181.2269     362.3457      2.758     7.27     1143.266     63.86933      212.599        38     1.878     1.492 -86.03  16
        11    329.9413     11.5594 307.8049946  +6.6654772     494.5247     1137.628     1124.158     90.82928     181.2269     362.4178      2.235     4.15     1161.311     63.86933     108.1151         5     1.069     0.460 -62.40   0
        12    256.4194      8.2756 307.8357029  +6.6643752     1240.356     3572.959     4014.751     90.39711     180.8664     361.7689      2.653     9.88     1166.119     63.86933     128.7335        31     1.886     1.444 -67.94  16
        13    697.8118      1.6515 307.6522314  +6.6818441     828.6544     1344.618     1135.167     83.17739     149.4051      278.271      1.750     5.03     1141.219     63.86933     136.0597         9     1.248     0.573 -13.74  24
        14    963.8683    988.8453 307.5082723  +6.2828350     6426.538     10366.27     10718.01     90.82928     181.1549     362.3818      1.711     3.88     1191.263     63.86933     784.5898        33     1.564     1.038 -76.84   0
        15     77.0013   1019.9516 307.8760182  +6.2404218     6372.766     11558.88     12715.33     90.10783     180.7942     331.9239      1.942     4.10     1193.036     63.86933     689.1373        41     1.672     1.252 -80.62  24
        16    248.7594    989.1165 307.8056429  +6.2589059     1049.915       2287.8     2588.167     90.82928     181.1549     362.3097      2.200     7.49     1194.796     63.86933      122.564        15     1.470     1.068  74.36   0
        17    718.0595    989.1228 307.6104860  +6.2745525     962.5226     1732.723      1895.88     90.97289     181.2989     362.3097      2.180     4.43     1193.842     63.86933     134.9446        10     1.152     0.858 -87.11   0
        18    724.3204    999.4445 307.6075344  +6.2704964     6383.213     10889.86     12271.92     90.82928     181.2269     362.3457      1.884     3.93      1194.28     63.86933     706.2408        40     1.566     1.251 -65.52   0
        19    723.7373    986.8850 307.6082003  +6.2756659     2242.582     4023.688      5024.88     90.97289     181.3709     362.3457      2.058     3.77     1193.552     63.86933     300.2623        24     1.285     1.158 -50.68   0
        20    739.6479    986.0903 307.6016105  +6.2765235     917.2229      1569.37     1478.725     90.82928     181.0828     362.5258      1.883     5.49     1193.089     63.86933     129.6602        11     1.193     0.886 -49.80   0
        21    370.5271    984.8779 307.7551509  +6.2647244     1339.978     2500.988     3111.511     91.11626     181.5148     362.3457      2.225     5.97     1194.595     63.86933     157.0369        15     1.195     1.089 -54.39   0
        22    980.9473    981.9741 307.5014007  +6.2862406     698.7814     1016.055     970.0885      90.3971     181.3709     362.2376      1.471     2.99       1190.5     63.86933     117.2319         5     0.633     0.588  -1.44   0
        23    303.0899    973.6041 307.7835756  +6.2671300     11007.96     21914.74      25281.3     90.25259     180.8664     362.0574      2.159     4.46     1194.901     63.86933     1142.309        68     1.939     1.580 -59.10   0
        24    757.2090    974.0572 307.5947131  +6.2820790     6408.864     11584.76     12942.25     90.10783     181.1549     362.0214      1.951     4.09     1192.131     63.86933     687.1814        39     1.572     1.254 -72.92   0
        25    552.9352    974.6619 307.6796421  +6.2750289     3180.874     6071.167     6618.989     90.82928     181.2269     362.3818      2.130     4.53     1195.397     63.86933      345.302        36     1.731     1.249 -73.08   3
        26    549.9611    967.0535 307.6811358  +6.2780731     6283.266      12133.7      13602.7     90.68546     181.2989     362.3457      2.064     4.49     1195.073     63.86933     623.3163        49     1.817     1.378 -74.91   3
        27    522.9732    976.5265 307.6920389  +6.2732600     781.2485     1315.623     1463.803      90.3971     181.1549     362.2737      1.932     5.46     1195.101     63.86933     128.9314         7     1.207     0.697 -40.64   0
        28    818.1516    973.5098 307.5693875  +6.2843313     1040.403     1723.442     1925.266     90.82928     181.0828     362.5258      1.879     4.68      1191.29     63.86933     132.5253        10     1.002     0.849 -51.09   0
        29    273.8237    970.7500 307.7958423  +6.2673313     843.3419     1388.462     1760.684      90.3971     181.2989     362.2376      1.822     6.14      1194.81     63.86933     114.7067         9     1.411     0.752  76.81   0
        30    918.4570    967.4053 307.5278788  +6.2901854     8050.074     13390.13     13749.98     90.25259     181.0828     362.0214      1.802     3.88     1190.585     63.86933     982.6611        40     1.631     1.148 -72.93   0
        31    892.0694    963.6314 307.5389798  +6.2908683     11054.74     18785.18      20289.2     90.68546     181.2269     362.3457      1.822     3.77     1190.497     63.86933     1389.874        50     1.652     1.296 -66.49   0
        32   1013.7563    963.0084 307.4883939  +6.2951648     4899.263     7775.793     7841.927     90.25259     181.0107     362.0574      1.638     3.94     1188.186     63.86933     633.2944        27     1.501     0.966 -70.07   0
        33    604.5989    964.2844 307.6585077  +6.2810374     988.2979     1638.054     1933.955     89.96285      180.722     362.0214      1.845     5.46      1194.87     63.86933     156.6083        12     1.315     0.925 -80.36   0
        34    536.4611    962.7046 307.6868968  +6.2794199     3142.594     6177.135     6959.093      90.5414     181.2989     362.4178      2.124     4.95      1194.83     63.86933     327.3591        35     1.667     1.310 -64.06   0
        35    645.6979    962.4677 307.6414775  +6.2831566     1111.884     1962.366     1751.394     90.82928     181.3709     362.3818      1.891     6.90     1193.691     63.86933     137.1351        15     1.340     1.028 -30.71   0
        36    489.5201    959.3607 307.7065305  +6.2792365     1634.721     2961.302     3633.566     90.68546     181.2989     362.3097      1.988     5.59     1194.346     63.86933     177.2401        23     1.532     1.131 -68.28   0
        37    923.8719    951.1621 307.5261735  +6.2970761     39221.51     66377.85     70809.95     90.68546     181.1549     362.4178      1.806     3.80     1189.729     63.86933     4813.034        68     1.721     1.285 -71.30   0
        38    231.1401    949.5457 307.8143101  +6.2746649     1259.136     2849.502     2860.004     90.97289     181.1549     362.3097      2.184     7.92     1194.039     63.86933      144.311        21     1.473     1.190 -30.78   0
        39    770.0665    943.0162 307.5904121  +6.2953310     5513.216     10483.29     11569.53     90.25259     181.0828     362.2376      2.045     4.63     1190.198     63.86933     599.4597        44     2.018     1.205 -69.54   0
        40    821.7173    945.2026 307.5688581  +6.2961448      1907.11     3254.474     3879.014     90.10783     180.7942     361.9853      1.852     5.33     1189.725     63.86933     227.6459        21     1.364     1.049 -73.15   0
        41    239.7222    942.1897 307.8109905  +6.2779907     1053.927     1966.613     1948.808      90.3971     180.7942     362.2016      1.916     7.73     1194.044     63.86933     123.1769        17     1.373     1.218   8.50   0
        42    204.5230    941.9227 307.8256370  +6.2769243      688.462      1020.53     1414.862     91.11626     181.5148     362.4178      1.905     5.89     1193.748     63.86933     80.62659         6     1.301     0.751 -88.13   0
        43    556.9136    941.8179 307.6790968  +6.2887306     744.1439     1280.997      1023.38      90.3971     180.9386     362.2376      1.634     4.35     1194.035     63.86933     104.9393         6     0.819     0.658   6.15   0
        44     64.6643    940.3341 307.8838496  +6.2729007     2028.001         3777     3732.395     90.82928     181.2269     362.3457      1.944     4.97     1192.832     63.86933     239.5692        24     1.397     1.231 -41.01   0
        45    958.1438    937.9355 307.5123653  +6.3036784     6353.665     10251.54     10788.79     90.97289     181.1549     362.3457      1.735     3.66     1187.944     63.86933     789.2401        35     1.497     1.140 -71.19   0
        46    932.0902    929.5991 307.5234811  +6.3062577     1874.496     3269.934     3344.811     89.96284     180.6497     362.0574      1.826     4.76     1188.483     63.86933     214.0361        20     1.354     0.984 -64.58   0
        47    652.7604    925.6064 307.6397841  +6.2986207     3273.981         6699     7931.203     90.10783     180.8664     362.0574      2.205     4.88     1191.016     63.86933     369.5802        37     1.698     1.313 -62.86   0
        48    791.4995    926.0774 307.5820694  +6.3030418     1216.185     2333.312     2617.577      90.3971     181.4429     362.3818      1.882     5.36     1188.973     63.86933     178.0034        14     1.321     0.875 -75.96   0
        49   1001.5228    925.6614 307.4947372  +6.3101889     718.4748      1305.04     1405.063     91.11627     181.2989     362.3457      1.715     3.46     1185.365     63.86933     117.7166         5     1.166     0.296 -69.10   0
        50    475.7323    923.9476 307.7134612  +6.2934072      762.152     1425.424     545.5422     90.68546     181.1549     362.2737      1.817     5.25     1194.043     63.86933     104.3712         7     1.114     0.700  81.89   0
        51     33.8932    923.2440 307.8972254  +6.2789305     1607.734     3184.512     3357.976     90.82928     181.1549     362.4898      2.085     4.95     1192.133     63.86933     175.4131        23     1.358     1.199 -49.77   0
        52    884.1567    922.2569 307.5436632  +6.3076993     678.5764     1064.387     922.8826     90.68546     181.1549     362.4178      1.090     3.19     1188.522     63.86933     143.3752         5     1.066     0.306 -78.90   0
        53    976.3135    919.6252 307.5054246  +6.3118463     747.5719     1165.475     1257.585     90.97289     181.0107     362.1656      1.748     4.48     1186.181     63.86933     128.0828         6     1.231     0.463 -88.31   0
        54    264.9998    926.2154 307.8010199  +6.2854351     2904.263     6212.118     7257.662      90.3971     180.8664     362.0574      2.249     5.59     1194.243     63.86933     313.2225        36     1.734     1.342 -83.21   0
        55    577.3553    918.4468 307.6713849  +6.2990673      1155.08      2426.03     2342.284     90.82928     181.1549     362.3097      2.089     7.53     1192.916     63.86933     138.3876        19     1.492     1.064 -45.24   0
        56    300.6419    919.2758 307.7864329  +6.2894930     759.3766     1194.218     1717.453     90.68546     181.2269     362.3818      1.951     5.52     1194.462     63.86933      120.594         7     1.335     0.644 -73.82   0
        57   1008.5151    918.0541 307.4920849  +6.3135638     819.1137     1159.575     1032.413     90.82928     181.2269     362.5258      1.489     6.02     1184.682     63.86933      124.168        11     1.291     0.791  85.43   0
        58    616.9165    915.7007 307.6550250  +6.3015196     783.6422     1178.203     1404.092     90.82928     181.8022     362.4538      1.611     4.34     1192.127     63.86933     126.3774         5     0.802     0.670 -13.23   3
        59    616.2861    913.3289 307.6553672  +6.3024786     688.3542      1188.43      797.564     90.97289     181.5148     362.3818      1.792     4.66     1191.984     63.86933      107.275         5     0.845     0.779  63.84   3
        60    296.1889    911.7007 307.7885412  +6.2924737     986.9053     1773.013     2159.883      90.5414     180.7942     362.0935      2.285     6.41     1194.351     63.86933     116.8644        13     1.184     0.975 -37.87   0
        61    900.8982    904.9014 307.5372847  +6.3154258     6120.608     10403.66     10759.32     90.82928     181.6586     362.1656      1.814     3.85      1187.83     63.86933     732.3169        32     1.519     1.136 -73.94   0
        62    436.8793    902.4416 307.7303460  +6.3009962     1671.669     3377.983     3885.516     90.68546     181.2269     362.3457      2.232     6.70     1193.651     63.86933     174.4066        23     1.484     1.185 -64.46   0
        63    338.6025    900.6963 307.7712754  +6.2984368     6361.609     13515.62     14194.35     90.39711     180.8664     361.9853      2.153     5.03      1193.92     63.86933     623.2781        48     1.821     1.430 -83.19   0
        64    258.6856    899.6540 307.8045453  +6.2961974     4852.457      10118.2     11587.63     90.82928     181.1549     362.5258      2.249     5.06       1193.8     63.86933     492.8455        46     1.876     1.403 -81.96   0
        65    586.6489    894.9399 307.6683135  +6.3090886     707.6196     1358.984     1067.749     90.82928     181.1549     362.4178      2.043     4.63     1191.616     63.86933     90.14612         6     0.905     0.671 -52.81   0
        66    916.8436    889.7731 307.5311622  +6.3222056     1017.564     1721.472     1960.823      90.3971     181.2989     362.2376      1.927     5.94      1187.09     63.86933     124.8953        10     1.113     0.892  80.37   0
        67    872.9357    888.8436 307.5494548  +6.3211313     698.8571     1326.388     1150.115     90.82928     181.1549     362.3457      2.017     5.35     1187.658     63.86933     91.08606         7     1.017     0.795  69.21   0
        68    984.0451    886.0686 307.5033376  +6.3259668     783.0359     1265.411     1589.316     90.82928     181.1549     362.3457      1.961     4.82      1184.26     63.86933     104.5179         7     1.031     0.639 -31.06   0
        69    752.9749    883.1070 307.5995395  +6.3195138       1317.6     2235.575     2688.819     90.97289     180.9386     362.1656      1.771     5.18     1187.961     63.86933     165.5667        15     1.315     0.809 -61.89   0
        70    984.3044    878.8497 307.5034725  +6.3289579     1236.273     1923.833     2174.916     90.68546     181.1549     362.5258      1.820     4.90     1183.935     63.86933     178.1106        14     1.269     0.900 -77.57   0
        71      4.6532    880.2096 307.9108458  +6.2957295     752.7687     1526.197     1731.003     90.10783     181.1549     326.8513      2.084     5.25     1189.908     63.86933     111.0825         6     1.186     0.655 -65.64  16
        72    538.0450    878.7590 307.6890737  +6.3141540     945.0098     1548.927     1150.497     90.68546     181.2269     362.1656      1.776     4.57     1192.171     63.86933     172.9811         9     1.446     0.651 -61.79   0
        73    671.6464    876.2715 307.6335941  +6.3196318     1827.583     3544.152     4526.964     90.82928     181.2269     362.3457      2.386     5.33     1187.592     63.86933     186.4052        22     1.438     1.130 -56.72   0
        74     68.4003    872.6194 307.8845939  +6.3010004     2120.686     4261.051      4274.72     90.39711      180.722     361.9853      2.066     6.22     1191.967     63.86933     220.8094        29     1.737     1.189  88.88   0
        75    212.0244    871.7156 307.8248966  +6.3061797     1445.625     3028.764     3089.173     90.68546     180.9386     362.2737      2.175     6.45     1193.262     63.86933     196.1761        26     1.525     1.377 -78.76   0
        76     86.0731    872.1523 307.8772604  +6.3017851     1335.725     2654.499     3198.181     90.82928     181.2989     362.3457      2.302     6.68     1192.623     63.86933     159.1956        22     1.562     1.132 -73.17   0
        77    949.3954    871.4854 307.5182391  +6.3308419     759.8629     1036.686     552.1016     90.25259     180.7942     361.9853      1.509     4.27     1185.199     63.86933     104.6229         6     1.078     0.483 -55.74   0
        78    832.1229    871.8579 307.5670009  +6.3267928     691.1248     1153.563     939.7083     90.97289     181.2269     362.2737      1.682     6.03     1187.234     63.86933     94.84106         7     1.179     0.869  31.98   0
        79    666.2213    865.6019 307.6362103  +6.3238593     4903.236     9897.832     11107.47     90.39711     180.8664     362.0214      2.141     4.81     1187.299     63.86933     496.6736        44     1.747     1.391 -76.08   0
        80     26.2202    863.8315 307.9024331  +6.3032182     844.8316     1964.665     2200.411     90.25259     181.0107     362.2016      2.353     6.86     1190.166     63.86933     161.1365        14     1.680     1.011  74.36   0
        81    903.8645    861.8934 307.5374986  +6.3332930      2432.08     4197.981     4172.793     90.68546     181.4429     362.3818      1.832     4.71     1186.146     63.86933      316.027        25     1.446     1.143 -66.84   0
        82     40.4637    863.0805 307.8965354  +6.3040055     667.7039     1097.288     1365.175     91.11626     181.2989     362.3097      1.580     4.69     1190.707     63.86933     99.39417         6     1.364     0.458  81.20   0
        83    349.2764    858.9683 307.7682487  +6.3160325     10449.37     22785.84     26270.01     90.68546     181.2989     362.3097      2.279     5.22     1193.031     63.86933     1025.771        64     1.901     1.577 -70.50   0
        84     84.5733    859.8441 307.8783018  +6.3068197     1034.745     1738.932     1625.412      90.3971     181.2989     362.2376      1.621     5.43     1192.317     63.86933     138.5089         9     1.111     0.802   8.53   0
        85    220.5543    858.4980 307.8217973  +6.3119255     1023.852     1843.035     1597.459     90.82928     181.0828     362.5618      1.893     6.49      1193.07     63.86933     121.4357        13     1.241     0.954 -33.78   0
        86    427.1910    850.1553 307.7361433  +6.3222743     665.4808     1469.028     1238.461     90.25259     181.0828     362.0214      2.116     6.68     1192.053     63.86933       99.495         8     1.463     0.857 -68.12   0
        87    112.5444    849.5034 307.8670204  +6.3120281     1196.197     2621.183     2475.036     90.68546     181.2269     362.5618      2.146     7.87     1192.482     63.86933     146.1298        20     1.596     1.086  78.44   0
        88    894.1008    843.2397 307.5421874  +6.3406755     1738.218     3017.041     3520.412     90.82928     181.0828     362.5978      2.015     4.29      1184.91     63.86933     223.6278        17     1.324     0.859  87.58   0
        89    864.8624    843.0899 307.5543531  +6.3397661     1655.081     2638.481     2548.641     90.82928     181.3709     362.4178      1.705     4.35     1185.523     63.86933     225.2462        19     1.380     0.959 -61.26   0
        90     96.2217    843.0507 307.8740274  +6.3141475      1602.59      3416.07     3819.458     90.25259     181.2989     362.2016      2.150     5.90     1191.914     63.86933     195.5552        23     1.500     1.209  86.69   0
        91    828.4738    842.4542 307.5695090  +6.3388196     2397.491     4238.287     4611.424     90.68546     181.1549     362.3097      1.881     4.59     1185.467     63.86933     291.3971        24     1.419     1.118 -64.17   0
        92    564.2951    834.0434 307.6796667  +6.3335027     219461.9     466699.7     520058.7     90.82928     181.1549     362.4898      2.224     4.92     1188.805     63.86933     20206.17       165     2.032     1.710 -72.48   0
        93    408.6395    836.5867 307.7443176  +6.3272609     5012.289     10606.65     11308.37     90.25259     181.0107     362.0574      2.164     4.97     1191.494     63.86933     498.0914        43     1.716     1.433 -57.99   0
        94    351.7667    835.1415 307.7680194  +6.3259593     7899.042     17672.16     19623.86     90.68546     181.2989     362.2737      2.280     5.21      1192.71     63.86933     830.9886        55     1.855     1.562 -70.09   0
        95    652.3066    836.1489 307.6429913  +6.3355644     719.6785     1369.346     1731.513     90.68546     181.0107     362.5618      2.192     5.43      1186.16     63.86933     117.1426         7     1.385     0.601  -3.20   0
        96    670.2006    831.2286 307.6357150  +6.3381929     2357.956     4944.061     5533.646     90.25259     181.0107     362.1295      2.172     5.17     1185.314     63.86933      231.271        34     1.648     1.338 -68.01   0
        97    902.5866    830.0350 307.5391025  +6.3464128      4351.67     7637.557     8616.638     90.25259     181.0107     362.2016      1.889     4.05     1183.729     63.86933     483.5828        32     1.533     1.144 -67.75   0
        98    644.8217    825.4090 307.6464667  +6.3397523     2329.557     5078.015      5769.07      90.3971     180.9386     362.1295      2.228     5.72     1185.784     63.86933     231.5092        34     1.652     1.394 -68.82   0
        99    833.3555    824.0856 307.5680974  +6.3465708      1240.78     2390.163     2326.189     90.82928     181.0828     362.3097      2.014     7.10     1184.234     63.86933     144.4946        17     1.382     1.122 -81.38   0
       100    960.6342    824.5793 307.5151428  +6.3505941     507.8123     1171.209     1483.476     90.25259     181.0107     362.1295      2.083     4.85     1181.729     63.86933     76.42932         5     1.134     0.588  32.14   0
       101    637.3521    821.0524 307.6497205  +6.3413035     1520.858     3720.838     5402.754     90.97289     181.0828     362.3457      2.950     9.97     1185.815     63.86933     163.8419        34     2.283     1.213 -55.68   0
       102    331.4580    820.0381 307.7769769  +6.3315208     589.5743     1322.482     1270.657     90.82928     181.2989     362.3457      2.266     6.12       1192.6     63.86933     79.51379         7     1.434     0.733  63.45   0
       103    921.3981    817.7686 307.5316912  +6.3521054     2532.197     4479.228      4739.15     90.10783     181.0107     362.1295      1.910     4.55     1182.403     63.86933     317.3381        24     1.461     1.068 -82.34   0
       104    379.2615    814.7894 307.7572732  +6.3352856     1310.269     2831.773     3526.284     90.10783     181.0107     362.0935      2.529     7.13     1191.458     63.86933     151.0049        19     1.658     0.929  29.10   2
       105    380.6542    812.4485 307.7567732  +6.3362991     1254.611     2141.834     2761.035     90.82928     181.2269     362.4178      1.690     4.50     1191.282     63.86933     196.2942        10     1.217     0.614   7.51   3
       106    515.9721    803.6373 307.7007918  +6.3444540     1897.662     4441.888     4817.425     90.25259     180.8664     362.0935      2.307     6.77     1187.702     63.86933     188.6421        33     1.704     1.417 -69.52   0
       107    562.7539    799.8734 307.6814618  +6.3475684     3847.958     8355.562     10535.58     90.68546     181.2989     362.3457      2.451     5.59     1186.526     63.86933     411.5809        45     1.748     1.615 -59.93   2
       108    859.9677    802.4465 307.5577576  +6.3563953     870.8667     1410.991     1841.528      90.5414     181.2269     362.2376      1.965     4.71     1182.546     63.86933     137.5074         8     1.126     0.591  19.38   0
       109    898.3424    797.8798 307.5419502  +6.3595568     1054.681     2065.196     2213.246     90.82928     181.2269     362.3097      2.149     6.70      1181.46     63.86933     151.2755        16     1.599     0.931 -53.15   0
       110    479.2553    798.9613 307.7162207  +6.3451614     795.9493     1510.512     2152.615     90.82928     181.2989     362.3457      1.759     2.60      1188.01     63.86933     161.5399         4     0.773     0.330  56.87   2
       111    482.2680    797.0565 307.7150321  +6.3460489      740.425     1559.007     1947.562     90.97289     181.1549     362.2737      2.346     8.32      1187.88     63.86933      131.101        10     1.716     1.262  61.29   2
       112    122.7993    798.0272 307.8645018  +6.3336375     972.0313     1870.957      1694.72      90.3971     180.8664     362.1295      2.008     4.45     1190.584     63.86933     147.6495        11     1.077     0.989 -84.74   0
       113    533.4460    793.7891 307.6938570  +6.3491052     12279.25     27176.91     30351.28     90.25259     181.0107     361.9853      2.279     5.33     1186.758     63.86933     1138.129        70     1.963     1.624 -75.93   0
       114    946.9672    791.7147 307.5219331  +6.3637185     3224.293     5691.098     6255.816     90.82928     181.0107     362.3097      1.889     4.20     1179.995     63.86933     366.9265        27     1.412     1.125 -71.38   0
       115    244.4344    789.8654 307.8141915  +6.3410782     679.7109     1796.598     4741.848     90.68546     181.2269     362.3457      6.020     7.39     1192.034     63.86933     99.94629         9     1.826     0.838  66.43   1
       116    241.7058    782.2242 307.8155852  +6.3441438     937.3198       2640.7     7352.903     90.97289     180.9386     362.1656      7.228     8.59     1191.795     63.86933      121.189        16     1.719     1.199 -70.97   3
       117    326.2923    782.4257 307.7803986  +6.3468872     1971.982     4447.405     4515.961     90.97289     180.9386     362.1656      2.261     6.26     1191.599     63.86933     246.5409        30     1.662     1.355  89.56   0
       118     43.7404    784.7147 307.8978330  +6.3364901     914.3257     2116.921     2211.817     90.82928     181.2989     362.4538      2.260     6.85     1189.689     63.86933     113.2716        12     1.295     1.014 -25.53   0
       119    791.4883    778.1858 307.5870576  +6.3641424     40088.07     77332.34     84448.38      90.5414     181.0107     362.2016      2.052     4.48      1181.44     63.86933     4083.755        82     1.854     1.525 -68.04   0
       120     26.2890    780.5656 307.9052317  +6.3376195      1402.16     2833.638     3108.929     90.97289     181.1549     362.3457      2.051     6.91     1189.624     63.86933     159.5687        23     1.485     1.219 -86.08   0
       121    248.3261    754.8824 307.8137582  +6.3556609     787180.4      2422425      2895904     91.11626     181.5867     362.4178      2.746     5.82     1191.207     63.86933     63569.43       555     2.793     2.152 -86.41   4
       122    713.4779    769.2881 307.6198046  +6.3652236     59681.99     124006.8     137638.2     90.68546     181.5148     362.4898      2.173     4.78     1182.368     63.86933     5560.803        99     1.957     1.619 -69.87   3
       123    916.7756    773.3051 307.5351104  +6.3703220     6883.708     12297.28     13679.09     90.97289     180.9386     362.2016      1.921     4.27     1179.554     63.86933     824.0332        42     1.685     1.246 -69.49   0
       124    358.4410    770.4031 307.7674347  +6.3529279     11738.34     28234.79     32295.85     89.96285     180.8664     362.0574      2.375     5.66      1190.04     63.86933      1099.67        72     2.007     1.690 -79.10   0
       125    719.7517    772.6987 307.6170801  +6.3640233     14824.57     31163.32     34600.12     90.82928     181.1549     362.5618      2.200     4.91     1182.458     63.86933     1532.754        60     1.877     1.526 -77.70   3
       126    420.3158    768.1707 307.7417756  +6.3559158     12943.11     30068.15     34318.27     90.82928     180.9386     362.2016      2.356     5.42     1187.648     63.86933     1185.656        71     1.985     1.651 -74.50   0
       127    407.8198    771.5874 307.7468573  +6.3540872     753.8531     1578.327     2115.693      90.5414     180.8664     362.2376      2.604     5.27      1188.22     63.86933     97.58813         6     1.112     0.704   7.36   0
       128    957.2164    766.5639 307.5185162  +6.3744498     1752.524     3167.988     4062.774     90.39711     180.9386     362.0935      2.225     5.16     1178.506     63.86933     206.4426        19     1.310     1.060 -86.57   0
       129    913.6139    764.6246 307.5367177  +6.3738034     5405.361     9633.419     10482.54      90.5414     181.0107     362.2737      1.954     4.12     1179.147     63.86933     656.3431        40     1.595     1.313 -75.95   0
       130    654.3220    764.0300 307.6445868  +6.3654270     4143.922     9212.551     10083.96     90.68546     181.2989     362.3457      2.268     5.56     1182.822     63.86933     423.1245        41     1.687     1.474 -73.27   0
       131    442.7786    761.3326 307.7326642  +6.3594904     983.1843      2228.35     2343.494     90.39711     181.2269     362.2376      2.250     7.40      1187.02     63.86933     118.0278        14     1.325     1.158  82.01   0
       132    689.5037    753.6296 307.6303045  +6.3708950     1820.771     3165.306     3752.561     90.97289     180.9386     362.3457      2.028     5.77     1182.093     63.86933     220.6154        22     1.434     1.149 -70.10   0
       133    423.2261    750.8019 307.7411527  +6.3631886     30605.92     73138.77     83295.74      90.3971     180.8664     362.1295      2.373     5.50     1186.853     63.86933     2901.856        95     2.041     1.748 -76.62   0
       134    540.9441    749.8729 307.6922221  +6.3674987     4251.556     9746.275     10852.04     90.68546     181.0828     362.3097      2.343     5.32     1183.659     63.86933     427.6564        45     1.767     1.526 -69.34   0
       135    457.8833    748.3578 307.7268205  +6.3653548     2489.634     5980.942     7227.445     90.82928     181.2269     362.2737      2.428     6.07     1186.281     63.86933     254.2954        38     1.644     1.552 -53.38   0
       136    786.1104    746.2959 307.5903692  +6.3771388      8073.65      16424.8     18124.05     90.82928     181.6586     362.3457      2.126     4.85     1179.474     63.86933      828.274        54     1.812     1.472 -65.88   0
       137    454.4568    741.6425 307.7284728  +6.3680148     1347.695      3329.76     3348.018     90.68546     181.1549     362.3457      2.294     8.60     1186.083     63.86933     129.3472        26     1.564     1.320  89.95   1
       138    152.1889    739.0587 307.8542790  +6.3589826     1710.798     4143.799     4644.967     90.10783     181.0828     362.0214      2.394     6.35     1188.952     63.86933     194.4539        31     1.668     1.332 -69.52   0
       139    144.0598    738.6346 307.8576743  +6.3588858     6720.921     15744.79     19205.98     90.68546     181.2269     362.3097      2.442     5.34     1188.815     63.86933     714.4635        61     2.023     1.645  88.71   3
       140    136.5955    735.6835 307.8608789  +6.3598552     1694.112     4375.815     6165.497     90.25259     180.7942     362.0214      3.056    11.08     1188.564     63.86933     229.2622        35     2.553     1.338  79.46   3
       141    136.7754    729.9558 307.8609983  +6.3622275      1199.48     2641.673     3762.747     90.25259     181.2269     362.2016      2.474     5.81     1188.245     63.86933      161.953        19     1.666     1.157 -48.61   3
       142    807.8229    740.3445 307.5815386  +6.3803195     976.3424      1627.97     1478.468      90.3971     181.2269     362.1295      1.692     5.84     1178.515     63.86933     136.7725        11     1.107     0.867 -28.97   0
       143    931.6401    734.8627 307.5302215  +6.3866980     5070.454     9538.625     10670.28     90.82928     181.1549     362.3818      2.017     4.39     1177.124     63.86933     621.8657        36     1.638     1.245 -69.02   0
       144    980.7443    734.7405 307.5098005  +6.3883786     1388.637     2165.625     3192.432     90.97289     181.2269     362.3818      2.000     4.55     1176.639     63.86933     169.2836        15     1.238     0.853 -58.93   0
       145    687.3681    732.3654 307.6319101  +6.3796091     1058.765     2122.815     2246.003     90.39711     180.9386     362.0574      2.078     6.98     1181.307     63.86933     130.1277        13     1.246     1.096 -85.86   0
       146    574.0884    731.9799 307.6790407  +6.3759957     1469.514     2917.633     2875.832     90.68546     180.9386     362.2016      2.010     6.16     1182.065     63.86933     169.7646        22     1.431     1.249 -84.34   0
       147    955.2297    726.3008 307.5206974  +6.3910186      2611.21     4733.204     4784.776     90.82928     180.9386     362.4178      1.927     4.59     1176.438     63.86933     286.5942        29     1.544     1.178  86.27   0
       148    925.8137    726.7667 307.5329175  +6.3898495     2513.995     4611.716     5226.064      90.3971     180.9386     362.2376      1.982     4.72     1176.759     63.86933     305.7714        25     1.515     1.107 -78.00   0
       149    986.0003    725.9340 307.5079105  +6.3921914     1439.686     2708.917     3057.217     89.96285      180.722     362.0574      2.099     5.26     1176.176     63.86933      191.448        22     1.373     1.181 -18.62   0
       150    677.9433    726.3091 307.6360347  +6.3817975      833.821     1739.267     1358.505     90.68546     181.0828     362.4538      2.050     7.96     1181.082     63.86933     90.22168        13     1.663     1.065 -59.71   0
       151    251.1879    721.1217 307.8137119  +6.3697041      1026.16     2578.405     2705.802      90.3971     180.7942     362.1656      2.430     8.54     1189.485     63.86933     135.8408        17     1.524     1.336  50.66   0
       152    943.7781    716.7678 307.5257816  +6.3945770     791.4257     1465.768      1427.81     90.25259     181.0107     362.1295      2.084     6.13     1176.057     63.86933     99.88977         8     1.221     0.864 -20.95   0
       153    917.9475    714.1085 307.5366156  +6.3948180     828.0933     1706.826     1860.756     90.68546     181.0107     362.5618      2.238     5.98     1176.149     63.86933     99.40967        10     1.124     0.895  17.19   2
       154    970.1268    713.7340 307.5149237  +6.3967050     2153.318     3732.233     4352.664     90.97289     181.2989     362.3457      1.985     4.09     1175.729     63.86933     259.6967        23     1.249     1.202  39.65   0
       155   1012.1536    707.3594 307.4976565  +6.4007333     1379.685     2270.866     1982.457     90.68546     181.2269     362.1656      1.725     5.37     1175.161     63.86933     175.4208        17     1.391     0.884 -29.55   0
       156    813.8923    705.1100 307.5802013  +6.3950783     1030.881     1997.269     2456.134     90.82928     181.8022     362.3818      2.239     7.42     1176.504     63.86933     144.4323        16     1.428     1.080 -35.36   0
       157    899.7207    702.9603 307.5445725  +6.3988185     1134.847     2305.279     2400.919     90.68546     181.2989     362.3097      2.050     5.39      1175.76     63.86933     181.2041        13     1.174     1.033 -59.43   0
       158    856.4941    694.5880 307.5628352  +6.4008414     1201.475     2057.413     1765.212      90.5414     180.9386     362.1295      1.750     5.15     1175.754     63.86933     144.7469        12     1.324     0.805 -43.82   0
       159     57.3242    693.3352 307.8952859  +6.3746962     1149.326     2703.854     3889.979     90.97289     181.2269     362.3097      2.908     6.31     1185.517     63.86933     145.8887        14     1.648     0.679 -70.37   2
       160    668.2157    682.3393 307.6415646  +6.3996395     3854.073     8727.757      9442.38     90.25259     181.1549     362.0574      2.240     5.51     1178.546     63.86933     390.0228        43     1.706     1.549 -55.10   0
       161    615.5095    681.6040 307.6635130  +6.3981881     864.1765     2164.785     2445.979     90.25259     180.8664     362.0214      2.373     8.33     1179.019     63.86933     104.1179        15     1.535     1.262 -60.44   0
       162    131.2549    678.2296 307.8650492  +6.3834122     1960.458     4726.923     5661.014      90.5414     181.2989     362.2737      2.466     8.73     1185.359     63.86933     230.9521        40     2.109     1.522  88.05   0
       163   1005.0167    677.5641 307.5016273  +6.4128065     1975.653     3412.291     3384.296      90.3971     181.0107     362.0935      1.839     3.81     1173.952     63.86933     246.9178        19     1.233     1.004 -57.74   0
       164    642.1672    677.9548 307.6525477  +6.4005836     1315.934     3098.721     3366.689      90.5414     181.2269     362.1656      2.318     7.58     1178.562     63.86933     149.0642        22     1.488     1.195 -15.70   0
       165    785.0170    674.2876 307.5932512  +6.4068524     13043.63     27284.05     30395.86      90.5414     180.9386     362.2016      2.183     4.87     1175.573     63.86933     1371.363        64     1.847     1.539 -67.14   0
       166    915.0416    673.9552 307.5391761  +6.4113108     2648.667     5101.219     5666.364     90.68546     181.2269     362.1656      2.050     5.11      1173.93     63.86933     302.5143        30     1.580     1.240 -63.20   0
       167    484.2014    674.2617 307.7183792  +6.3968447     847.0274     1720.931     1677.802     90.10783     181.0107     362.0214      2.184     5.84     1181.723     63.86933     105.1127         8     1.164     0.826  46.96   0
       168    665.6392    667.3104 307.6431436  +6.4057629     4043.016     9319.167     10145.22     90.82928     181.1549     362.3818      2.276     5.45     1177.661     63.86933     417.5563        46     1.797     1.552 -60.69   0
       169    258.7621    668.2964 307.8123515  +6.3917811     3334.469     8378.316     9665.581     90.82928     181.0828     362.5258      2.502     5.98     1185.068     63.86933     380.3967        45     1.837     1.572 -70.55   0
       170    925.8334    659.5429 307.5351721  +6.4176236     866.6422     1723.684      1908.53     90.68546     181.2269     362.3457      2.172     6.72     1173.095     63.86933     114.1318        10     1.301     0.972 -58.17   0
       171    737.4032    655.4831 307.6136911  +6.4130377     2444.112     5123.528     6144.488     90.10783     180.7942     361.9853      2.338     5.02     1176.286     63.86933     243.4222        35     1.598     1.394 -77.62   0
       172   1003.5933    652.0181 307.5030787  +6.4233136     7224.903     12802.59     13711.12      90.3971     180.8664     362.1656      1.927     3.98     1172.546     63.86933     859.5989        43     1.652     1.271 -70.57   0
       173    942.0516    652.7037 307.5286559  +6.4209877     1829.449     3478.285     3724.075     90.68546     181.1549     362.6338      2.036     5.26     1172.672     63.86933     198.0502        21     1.303     1.159 -54.14   0
       174     23.4977    651.9778 307.9107594  +6.3906486     1204.496      2707.12     3986.858     90.68546     180.9386     362.1295      2.921     6.44     1183.521     63.86933     179.4835        18     1.593     1.275 -25.21   0
       175     81.2025    647.3500 307.8869153  +6.3944936     13908.62     34545.41     39718.35     90.10783     180.7942     361.8771      2.418     5.57      1183.48     63.86933     1525.614        76     2.055     1.704 -79.52   0
       176    543.5046    647.3123 307.6946224  +6.4099560     999.7283     2153.283     2488.201     90.82928     181.6586     362.4178      2.062     6.32     1179.898     63.86933     127.7062        11     1.436     0.780  79.69   3
       177    540.8110    648.0093 307.6957194  +6.4095783     825.9463     1747.956     1876.624      90.3971     181.0107     362.2737      2.170     5.85     1179.975     63.86933      105.472         9     1.343     0.723  75.65   3
       178    510.8712    644.7031 307.7082849  +6.4099460     814.6459     1672.416     1872.361     90.68546     181.3709     362.3818      2.040     7.40       1180.2     63.86933     104.4515        10     1.745     0.880   1.09   0
       179    931.9704    643.4595 307.5331607  +6.4244722     754.4434     1434.436     1173.293      90.5414     181.2269     362.3097      1.917     5.60     1172.156     63.86933     122.1307        10     1.639     0.539 -43.09   0
       180    727.2202    639.1501 307.6184778  +6.4194468     2155.643     4657.393     4851.321     90.25259     181.2989     362.2016      2.185     5.75     1175.146     63.86933     230.7983        27     1.474     1.288 -39.59   0
       181    749.0878    637.4722 307.6094380  +6.4208676     2365.653     5024.631     5263.223     90.97289     181.5148     362.3457      2.166     5.56     1174.582     63.86933     252.1982        29     1.474     1.403 -30.42   0
       182    580.4432    635.1750 307.6796673  +6.4162016     1750.099     4140.689     4099.273     90.39711     181.2269     362.2376      2.302     6.89     1178.074     63.86933     184.2358        31     1.667     1.446 -58.35   0
       183    415.3845    635.4166 307.7483178  +6.4105969     609.6429     1328.083     1800.924      90.5414     180.8664     362.2737      2.155     5.75     1181.362     63.86933     99.51648         8     1.517     0.614  77.54   0
       184    241.3672    635.0822 307.8207124  +6.4049214     1084.153     2570.159      3328.59     90.82928     181.1549     362.2737      2.668     8.04     1183.629     63.86933      127.927        18     1.679     1.080 -70.59   0
       185   1021.7507    633.3607 307.4961530  +6.4316244     4142.193     7300.441     7889.022     90.82928     172.0636      306.232      1.905     3.99     1171.427     63.86933     528.9443        37     1.648     1.210 -72.30  24
       186    987.1915    632.3376 307.5105637  +6.4309004      6297.01     11501.08     12661.36     90.10783     180.9386     362.1295      1.932     4.19     1171.449     63.86933     708.6757        42     1.692     1.270 -64.01   0
       187    707.4915    631.5488 307.6269410  +6.4219307     650.6484     1414.521     1959.979     90.68546     181.0107     362.5618      2.919     6.55     1174.877     63.86933      110.642         7     1.372     0.876   1.70   0
       188    145.9125    626.2617 307.8607156  +6.4053722     12818.48     31981.85     35849.27     90.82928     181.4429     362.3818      2.409     5.74     1183.391     63.86933     1367.028        69     2.002     1.692 -82.23   0
       189    434.0020    626.8669 307.7408629  +6.4147504      1353.73     3470.464     4512.536     90.25259     180.7942     362.0935      2.905     7.17     1180.562     63.86933      152.422        21     1.574     1.092 -64.76   2
       190    982.0710    615.2631 307.5132683  +6.4377848     5298.092     10819.59     12381.21     90.82928     181.2269     362.4178      2.198     4.72     1170.517     63.86933     595.8274        50     1.708     1.571 -81.17   0
       191     27.7975    616.0706 307.9101905  +6.4056268     684.6858     1493.663     2322.569     90.25259     180.7942     362.1656      1.995     5.55     1182.027     63.86933     96.31506         9     1.688     0.514 -77.76   0
       192    575.7377    610.8745 307.6824455  +6.4260843     25588.67     64019.72     73204.31     91.11626     181.2269     362.3457      2.456     5.83     1177.192     63.86933      2394.41        94     2.070     1.798 -71.15   0
       193    183.5473    607.6494 307.8456927  +6.4143208     1572.949     4166.197     5480.551     90.97289     181.0828     362.3457      2.841     9.78     1182.731     63.86933     165.0626        35     1.986     1.469 -73.96   0
       194     77.6767    600.8887 307.8899591  +6.4135698     688.7776      1331.85      1670.82     90.82928     181.5867     362.4178      2.290     6.18     1181.994     63.86933     96.45276         9     1.171     0.916 -88.66   0
       195    473.0229    594.7136 307.7257188  +6.4293362     31784.78     83261.68     96929.94     90.82928     181.0107     362.2016      2.510     6.08     1177.896     63.86933     3194.521       103     2.134     1.842 -70.07   0
       196     17.9489    597.0827 307.9149319  +6.4131411     881.2485     2128.371     3181.445     90.82928     181.1549     362.4178      3.105     5.49     1181.673     63.86933     145.8027         9     1.735     0.490 -68.47   0
       197     14.5601    596.1641 307.9163727  +6.4134071     674.3561     1592.973     3215.165      90.5414     181.1549     362.1656      4.195     7.17     1181.661     63.86933     99.64185        10     1.606     0.896 -50.16   0
       198    147.8701    590.4704 307.8611155  +6.4202240     837.8546      2120.14     2742.132     90.82928     181.3709     362.3097      2.614     8.20     1181.676     63.86933     130.8361        16     1.591     1.181 -15.18   0
       199    317.9874    584.9538 307.7905399  +6.4281921     1013.038     2899.409     3381.219     90.10783     181.0107     362.0935      2.656     7.97     1178.954     63.86933     146.9006        14     1.651     1.076  46.32   2
       200    745.0489    577.9716 307.6131248  +6.4453156     3039.263     7170.207     8235.753      90.3971     181.2989     362.2376      2.377     5.91     1171.818     63.86933     316.0603        42     1.874     1.485 -70.91   0
       201    798.5725    573.3320 307.5910155  +6.4490127     8690.168     19143.62     21212.76     90.39711     181.1549     362.2376      2.244     5.05      1171.51     63.86933     889.6388        57     1.866     1.560 -70.31   0
       202   1014.8350    574.3834 307.5010137  +6.4557615      685.983     1158.339      720.608      90.3971     180.9386     362.1656      1.777     3.50     1168.034     63.86933     105.7281         5     0.825     0.430 -18.84   0
       203    622.3424    570.8518 307.6644104  +6.4441721     1471.301     3809.052     4572.877     90.82928     181.2269     362.3457      2.625     8.42     1173.265     63.86933     151.6166        27     1.804     1.239 -34.50   2
       204    541.3239    574.2881 307.6979973  +6.4400525     648.4866     1605.845     1421.702     90.82928     181.5867     362.4538      2.163     5.16     1175.506     63.86933      106.782         5     1.063     0.707 -13.52   0
       205    939.0156    567.7046 307.5327800  +6.4560043     792.8442     1243.391      1965.76      90.5414     181.0107     362.1656      2.196     5.08     1168.049     63.86933     105.6018         9     1.352     0.541 -73.17   0
       206    874.6770    556.7231 307.5599153  +6.4584042     1804.208       3654.5      3631.17     91.11626     181.5148     362.4538      2.088     5.34     1169.814     63.86933     220.3263        24     1.458     1.156 -72.57   0
       207    833.2695    553.7133 307.5772426  +6.4582716     1510.592     3092.481      3326.93     90.97289     181.5148     362.3818      2.150     7.35     1170.639     63.86933     180.2955        23     1.497     1.211 -64.99   0
       208    261.5987    549.2899 307.8152044  +6.4410413     3662.815     10248.75     11536.38     89.96285      180.722     362.0935      2.565     6.34     1177.727     63.86933     393.2601        58     2.039     1.751 -81.84   0
       209    804.2094    549.7493 307.5894655  +6.4589432     1534.159     3736.005     5159.633     90.25259     181.0828     361.9853      2.756     7.05     1171.017     63.86933     146.1842        29     1.610     1.368 -68.35   1
       210    813.9401    545.2156 307.5855702  +6.4611398     93930.73     213892.3     241448.3     90.25259     181.1549     362.0574      2.303     5.15     1170.735     63.86933     9687.315       125     2.045     1.733 -71.96   0
       211    195.7152    543.7966 307.8427967  +6.4411073     27663.58     75892.09     91363.01     90.25259     180.7942     362.0214      2.613     6.20     1178.177     63.86933     3010.448       111     2.240     1.914 -70.96   0
       212    119.7937    540.1086 307.8745031  +6.4400900     3152.163     8129.808      9395.63      90.3971     180.8664     362.0935      2.497     6.18     1179.978     63.86933     361.5994        47     1.959     1.587 -85.88   0
       213    984.8458    537.4949 307.5147307  +6.4700068     925.8923     1793.971     1252.339     90.68546     181.1549     362.4898      1.953     5.63     1166.169     63.86933     107.5168         9     1.203     0.743  21.78   0
       214    850.4986    532.5057 307.5707897  +6.4676061     2916.659     6252.302     7100.335     90.82928      181.874     362.1656      2.204     5.50     1169.185     63.86933      277.225        36     1.779     1.324 -66.88   0
       215    369.0276    531.0429 307.7711337  +6.4521695     7678.153     21902.65     26373.86      90.3971     181.2989     362.2016      2.647     6.67     1174.016     63.86933     840.4601        73     2.149     1.803 -76.61   0
       216    172.4528    530.2394 307.8529331  +6.4459299     893.7913     1996.307     3365.578     90.68546     181.2269     362.3097      3.459     5.95     1177.931     63.86933     117.4701        12     1.504     0.662 -59.99   0
       217    804.4559    525.8358 307.5901690  +6.4688312     3429.852     7728.748      8227.01     90.68546     181.2269     362.3818      2.257     5.29     1169.337     63.86933     348.3079        47     1.826     1.526 -76.18   0
       218    535.4268    525.7521 307.7020909  +6.4599081      3014.34     8452.456     9866.654     90.39711     181.2989     362.2737      2.623     6.72     1171.884     63.86933     285.7832        53     1.963     1.761 -47.90   0
       219    183.7328    518.8118 307.8486285  +6.4510284     3214.916     6767.607     8373.082     90.25259     181.0828     362.2376      2.330     7.50     1177.135     63.86933     392.4071        35     2.007     1.374 -74.80   3
       220    181.0000    518.9592 307.8497603  +6.4508760     2265.799     4124.323     5774.556     89.96285     180.7942     361.9492      1.996     6.44     1177.205     63.86933     288.6942        17     2.108     0.626  88.67   3
       221    580.2198    518.9348 307.6836871  +6.4642177     1247.167     3380.064     3970.127      90.3971     181.2269     362.1656      2.785     8.27     1171.067     63.86933      161.007        22     1.706     1.444  82.87   0
       222     54.2247    517.8987 307.9025321  +6.4470694     2674.405     6378.028     7148.571     90.97289     180.9386     362.1656      2.419     6.01      1180.09     63.86933     290.8934        44     1.992     1.448 -79.04   0
       223    820.0000    518.0547 307.5839647  +6.4725627     808.1102     2008.546      2285.24     89.96285     180.7942     361.8771      2.446     4.98     1168.464     63.86933     107.1239         7     1.398     0.503  86.47   2
       224    277.6677    515.4194 307.8096678  +6.4555715     39979.66     113227.9     135818.8     90.39711     181.1549     362.2376      2.666     6.57     1174.637     63.86933      4337.85       115     2.239     1.949 -78.98   0
       225    504.3409    506.1660 307.7156850  +6.4669632     20572.61     56102.09     68254.41     90.68546     181.2269     362.2737      2.680     6.08     1170.523     63.86933     1842.917       103     2.186     2.000 -67.51   0
       226    800.6954    507.5850 307.5923487  +6.4762464     9435.622     21238.17     23791.15      90.5414     180.9386     362.1295      2.298     5.24     1167.871     63.86933     932.8402        63     1.950     1.584 -71.45   0
       227    977.1589    508.6316 307.5188999  +6.4816766     1243.454     2170.987     2412.257     90.25259     181.0828     362.2016      1.983     5.84     1164.989     63.86933      159.446        16     1.344     1.012 -72.60   0
       228    215.3970    503.1961 307.8359861  +6.4585390     940.2131     2032.751     2612.433     90.10783      180.722     362.1295      2.593     8.12     1175.479     63.86933     106.6764        13     1.533     1.203  85.12   2
       229    218.0416    502.0685 307.8349243  +6.4590933     1038.827     2152.377     2750.387     90.68546     181.1549     362.4538      2.497     6.64     1175.337     63.86933     122.9541        13     1.481     0.835  83.59   2
       230    664.2491    501.1727 307.6493296  +6.4743552      1521.45     3635.293     4501.462      90.3971     181.2269     362.2737      2.531     8.75     1169.723     63.86933     157.6008        29     1.620     1.445  34.24   0
       231    675.1957    501.4600 307.6447660  +6.4746010     725.9633     1476.235     1776.608     90.10783     181.0828     362.0935      2.083     5.19     1169.648     63.86933     102.2539         7     1.414     0.538 -21.29   0
       232    148.7791    493.9350 307.8640127  +6.4601358     12135.18     33372.11     39931.71      90.3971     181.2269     362.2016      2.617     6.36     1176.712     63.86933     1362.082        80     2.142     1.814 -80.50   0
       233    403.2720    497.4779 307.7580242  +6.4671799     762.8301     2043.493     2548.158     91.11626     181.5148     362.3457      2.868     7.05     1171.357     63.86933     101.2687        11     1.699     0.819 -74.95   2
       234    333.5487    495.2584 307.7871045  +6.4657682      1875.32     5117.171     6164.541     90.82928     181.2269     362.3457      2.608     7.89     1172.019     63.86933     201.7877        41     1.933     1.612  74.00   0
       235    513.0211    494.0000 307.7124852  +6.4722789     886.1885     2401.147     2832.459     90.25259     180.7942     361.9492      2.574     6.82     1169.691     63.86933     117.5438        10     1.335     0.977 -28.91   2
       236    876.6129    493.5637 307.5612375  +6.4845627     915.5903     2006.171     1697.102     90.25259     181.0107     362.0214      2.108     7.05     1165.855     63.86933     139.5719        13     1.310     1.064 -64.80   0
       237    114.1959    491.8850 307.8784684  +6.4598249     1309.369     3211.038      4451.05     90.25259     180.7942     362.0214      2.828     7.90     1176.969     63.86933     160.1753        22     1.555     1.281  27.90   0
       238    974.0989    488.0595 307.5208653  +6.4900743     3592.181     6989.749     7448.979      90.5414     181.1549     362.4898      2.006     4.69      1164.08     63.86933     381.0394        35     1.616     1.325 -73.13   0
       239     13.1117    478.3287 307.9209784  +6.4620388     13081.17     32902.09     37846.07     90.97289     181.5148     362.3457      2.452     5.76     1179.866     63.86933     1429.525        75     2.105     1.711 -78.49  16
       240    445.7015    474.8581 307.7411386  +6.4779413     19799.61     54449.89     65058.49      90.5414     181.2269     362.5258      2.623     6.32     1168.998     63.86933     1936.284        98     2.162     1.933 -76.39   0
       241    655.4670    474.0316 307.6538995  +6.4852759     4427.334     8037.516     9201.935     90.68546     181.2269     362.3097      2.023     8.51     1168.612     63.86933     567.4829        27     2.384     0.848 -68.29   3
       242    652.4965    474.5084 307.6551192  +6.4849800     5538.771     10647.95     11890.02     90.82928     181.8022     362.3097      2.094     5.79      1168.67     63.86933     583.3159        31     1.865     1.001 -77.86   3
       243    210.9421    472.6850 307.8388740  +6.4709950      9118.08      25223.8     30726.51     90.82928     181.2269     362.4538      2.675     6.37     1173.566     63.86933     939.1594        82     2.228     1.878  89.09   0
       244    987.2557    472.9356 307.5159006  +6.4967594     789.5435     1738.991     1808.839     90.97289     181.2269     362.3457      2.253     6.67     1163.189     63.86933     103.5044        10     1.536     0.812 -46.10   0
       245    576.7148    472.2624 307.6867222  +6.4833831     1162.945     2211.876     2775.892     90.97289     181.3709     362.3457      2.048     6.75     1168.118     63.86933     156.0251        15     1.683     0.759 -61.83   3
       246    574.5170    470.4672 307.6876972  +6.4840516     1094.959     1992.101     2837.727     90.97289     181.5148     362.4178      2.042     6.33     1167.928     63.86933      128.271        13     1.654     0.680 -55.90   3
       247      1.3235    472.0295 307.9260961  +6.4642460     1041.057     1943.457      2387.76     78.66047     143.7954     272.4399      2.083     5.33     1179.997     63.86933     218.7482        13     1.729     0.463  87.74  24
       248    622.5401    466.8268 307.6678413  +6.4871558     3120.235     8224.057     9220.458     90.39711     181.2989     362.2016      2.503     6.33     1167.879     63.86933     300.8168        50     1.967     1.629 -79.30   0
       249    949.2095    468.1181 307.5318916  +6.4974868     3324.049     6455.477     6642.822      90.3971     180.7942     362.1656      2.070     4.67     1163.135     63.86933     342.1315        34     1.566     1.306 -71.17   0
       250    971.8839    460.5128 307.5227140  +6.5013817     2232.593     4347.734     3979.593      90.5414     181.4429     362.3818      1.978     5.64     1162.514     63.86933     258.8169        27     1.643     1.107 -60.77   0
       251    536.1862    458.1575 307.7040598  +6.4878594     2977.547     6367.508     7874.509     90.10783     181.0107     362.0574      2.272     7.67     1166.752     63.86933     355.4834        30     2.149     1.002 -62.48   3
       252    533.4590    457.3024 307.7052233  +6.4881217     2966.963     5839.579     7028.777      90.5414     181.1549     362.4898      2.131     6.07     1166.663     63.86933     353.0419        27     1.923     0.885 -65.30   3
       253    381.0728    458.1040 307.7685922  +6.4827053     1194.074     3215.164     3078.554     90.68546     181.3709     362.3097      2.429     9.26     1168.573     63.86933     149.7826        30     1.595     1.501 -27.00   0
       254    891.0224    453.6432 307.5565874  +6.5015345     1981.709     4380.987     4494.284     90.25259     181.0828     362.1295      2.177     6.11      1163.16     63.86933     259.6527        27     1.465     1.368  38.89   0
       255    898.6324    448.0930 307.5536082  +6.5040804     1387.913     2737.959     3734.474     90.97289     181.0828     362.4178      2.250     6.61     1162.736     63.86933     178.3961        22     1.662     1.114  79.15   0
       256    937.6962    446.8300 307.5373984  +6.5058996      1019.32     2092.208     2221.243     90.97289     180.9386     362.3818      2.191     5.83     1162.219     63.86933     129.5386        11     1.049     0.913  21.34   0
       257    722.4050    444.3495 307.6270529  +6.4997673     1581.308     4067.007      5223.26     90.10783     181.0107     361.9132      2.649     7.87     1165.062     63.86933     153.9998        28     1.504     1.432  75.17   0
       258    393.4822    442.5280 307.7639569  +6.4895547     1612.951     4578.645     5540.824     91.11627     181.5867     362.3818      2.831     8.35      1167.22     63.86933     188.7875        37     1.795     1.730 -36.90   0
       259     84.0539    445.6296 307.8925776  +6.4779247      716.074     1374.012     1827.716      90.5414     181.2989     362.2737      1.505     4.89     1175.847     63.86933     112.0873         5     1.370     0.494   2.58   3
       260     86.3712    442.8240 307.8917089  +6.4791614     954.7286      1841.33     2179.554     90.25259     181.0828     362.1656      2.175     7.23       1175.7     63.86933     125.9474        13     1.478     0.992  56.37   2
       261    622.6102    439.1599 307.6687466  +6.4985884     4140.208     7875.633     9370.304     90.10783     181.0107     362.0574      2.023     6.52     1165.454     63.86933     459.6813        29     2.025     0.899 -77.93   3
       262    619.6213    439.1844 307.6699893  +6.4984787      4017.17     7291.479     9668.756      90.5414     180.9386     362.2376      2.205     6.48     1165.383     63.86933     434.2534        31     2.119     0.894 -80.12   3
       263    783.9705    435.3399 307.6017428  +6.5055379     9173.609      21843.9     26128.48      90.5414     181.2269     362.3097      2.467     5.56     1162.911     63.86933     905.6577        79     2.339     1.651 -56.54   0
       264    304.9779    436.7600 307.8009719  +6.4889810     1221.532     2623.025     3566.979      90.3971     181.0107     362.1295      2.541     8.43     1166.935     63.86933     137.3141        18     1.716     1.157  63.60   2
       265    301.6899    436.3154 307.8023549  +6.4890548     741.6866     1686.065     2476.888      90.5414     181.5148     362.4898      2.553     3.95     1166.844     63.86933     131.7635         5     1.073     0.417 -84.97   3
       266    387.9148    432.9821 307.7665963  +6.4933125     798.7114      2132.06     3287.073      90.3971     180.9386     362.2737      2.705     8.07     1166.401     63.86933     131.7206        12     1.725     1.064 -56.78   0
       267    811.7521    433.5032 307.5902463  +6.5072206     769.9665     1938.596     1531.303     90.82928     181.0828     362.5258      2.325     6.02     1162.487     63.86933     86.87061         8     1.564     0.652  89.38   2
       268    968.8267    430.4629 307.5249974  +6.5136953     1181.133      2063.28     2112.237     90.39711     181.1549     362.2737      1.861     4.62      1160.63     63.86933     168.3392        15     1.217     0.914 -24.76   0
       269    121.3959    427.7147 307.8776514  +6.4865764     1939.852     5525.369     6927.745     90.25259     180.7942     362.0214      2.648     7.84     1174.025     63.86933     275.4333        38     1.883     1.553 -84.23   0
       270   1022.3845    425.0975 307.5028948  +6.5176894     2885.516     5358.955     5935.827     90.82928     163.9838     295.8246      2.034     4.94     1158.871     63.86933     326.6664        33     1.659     1.227  84.13  24
       271    758.2512    426.0525 307.6127565  +6.5085194     1149.524      2831.45     3470.335     90.97289     181.0828     362.3818      2.539     5.92     1162.659     63.86933     141.0969        16     1.336     0.943 -71.95   2
       272    357.5382    422.4227 307.7795913  +6.4966604     1458.095     4081.806      4522.47     90.39711     181.2269     362.2376      2.558     9.06     1165.501     63.86933     177.7065        35     1.816     1.584 -89.96   0
       273    280.5885    425.9502 307.8114847  +6.4926316     759.2462     1695.735     2263.045     90.10783     181.0828     361.9853      2.542     4.40     1166.183     63.86933     113.2662         5     1.018     0.566  16.42   2
       274    839.4982    409.8642 307.5794993  +6.5179093     1005.826     2072.993     1789.923     90.82928     181.2989     362.3818      2.113     7.76     1160.756     63.86933     117.0325        16     1.410     1.194  63.45   0
       275    824.8499    408.6741 307.5856340  +6.5179141     1224.173      2712.95     3356.353     90.82928     181.2989     362.3818      2.411     8.17     1160.784     63.86933      144.835        22     1.478     1.261 -76.00   0
       276    722.2437    407.2111 307.6283732  +6.5151054     7746.743     19682.89     22998.07     90.25259     181.0828     362.0214      2.492     5.82       1162.2     63.86933     740.1846        65     1.987     1.752 -76.26   0
       277    643.1183    403.2578 307.6614269  +6.5141042     1240.854     3534.015     4244.726     90.97289     181.2269     362.3818      2.745     9.10      1163.06     63.86933     158.4907        30     1.647     1.536 -88.95   0
       278    615.6858    398.5171 307.6730003  +6.5151489     7774.737     21506.67     30077.04      90.5414     181.4429     362.4538      2.996     7.25     1162.082     63.86933     734.4108        94     2.623     1.952  43.93   0
       279    947.3211    397.1227 307.5350675  +6.5267557     2518.178     4923.438     5070.324     91.11626     181.5148     362.4898      1.996     4.80     1159.125     63.86933     281.2644        28     1.421     1.320 -61.20   0
       280    386.7912    393.3366 307.7684060  +6.5096539     12515.93     36727.57     44187.89     90.25259     181.0107     362.1295      2.674     6.64     1163.112     63.86933     1270.202        87     2.194     1.901 -72.56   0
       281    132.8252    394.0114 307.8740406  +6.5008827     1007.779     2583.615     3134.012      90.3971     181.0107     362.2737      2.568     5.63     1171.644     63.86933     135.8363        12     1.385     0.884  28.06   2
       282    902.4519    392.4284 307.5538942  +6.5272049     911.7297     1892.973     2575.479      90.5414     181.3709     362.2376      2.516     5.74      1159.27     63.86933     125.1221         9     1.327     0.700 -73.39   0
       283     66.9566    388.7730 307.9016210  +6.5008407     749.1608     1821.504     2039.939      90.3971     181.2989     362.2376      2.455     7.87     1174.064     63.86933     98.66223        10     1.565     1.108 -78.51   0
       284    916.3997    387.3194 307.5482630  +6.5297790     3043.273     6363.646     6714.904     89.96285     180.5052     362.0214      2.132     5.17     1158.878     63.86933     321.6348        33     1.646     1.266 -64.13   0
       285    244.3562    384.0368 307.8279791  +6.5087357     6130.333     17398.58     21049.71      90.5414     181.1549     362.1656      2.678     6.56      1164.91     63.86933     687.8243        71     2.163     1.835 -76.47   0
       286    144.6591    372.7258 307.8698398  +6.5100725     2334.523     6690.741       8196.2     90.97289     181.2269     362.3457      2.673     7.20     1169.628     63.86933      262.824        47     1.898     1.701 -74.98   0
       287    967.2337    376.2626 307.5274848  +6.5360351     662.3201     1452.383     1374.492     90.68546     181.2989     362.2737      1.817     3.90     1157.269     63.86933     90.16687         5     1.372     0.317  58.99   0
       288    167.8121    368.5973 307.8603476  +6.5125532      1274.77     3268.049     3624.833     90.39711     180.8664     362.1656      2.619     6.20     1167.923     63.86933     181.1987        19     1.625     0.850 -75.66   2
       289    388.7188    362.9527 307.7686327  +6.5222709      829.262       2296.5     2572.015     90.82928     181.2269     362.3818      2.834     8.56     1160.684     63.86933     113.8635        14     2.041     1.004  27.66   2
       290    279.3313    363.8527 307.8141124  +6.5182439     617.5479     1196.612     1137.454     90.68546     181.1549     362.2737      1.964     6.20      1162.56     63.86933     102.5219         7     1.254     0.862 -80.24   0
       291   1016.5747    376.2383 307.5069560  +6.5376828     640.0229     922.6631     1277.937     90.39711     181.0107     362.1295      1.425     3.47     1156.262     63.86933     82.96448         5     0.783     0.445 -70.45  16
       292     40.4297    357.8318 307.9137078  +6.5127342     1666.488     4281.104     5417.498     90.25259     180.9386     362.0574      2.749     7.39     1173.247     63.86933     242.2705        38     2.090     1.428 -73.46   0
       293    445.4440    356.7767 307.7452411  +6.5267162     3018.335     5715.823     7077.426     90.25259     181.0828     362.1295      2.104     6.90     1159.828     63.86933     346.3309        25     1.791     0.930 -72.99   3
       294    442.3879    356.9791 307.7465058  +6.5265306     2717.958     5656.994     7434.289      90.3971     180.8664     362.2376      2.426     7.26     1159.856     63.86933     295.1021        29     2.215     0.925 -83.69   3
       295    784.3817    353.7910 307.6043220  +6.5392430     7067.224     16810.14     19987.96      90.5414     180.9386     362.1295      2.479     5.71     1157.688     63.86933     729.5839        64     1.951     1.712 -74.04   0
       296    493.1667    340.6721 307.7259306  +6.5349621     1303.348      2932.85     3799.776     90.68546     181.2269     362.3097      2.393     8.87     1157.987     63.86933     142.5514        23     2.274     0.965 -60.40   3
       297    490.6814    339.3452 307.7270095  +6.5354273     1114.887     1801.926     2499.125     90.82928     181.2269     362.3818      2.149     5.51     1157.826     63.86933     125.5039        13     1.143     0.855 -88.33   3
       298    464.1740    340.8970 307.7379857  +6.5339018     974.3194     2835.372     3136.445     90.97289     180.9386     362.2376      2.549     7.73     1158.326     63.86933     135.8947        21     1.766     1.497 -60.44   0
       299    849.7643    336.7147 307.5776934  +6.5484720     19846.98     45453.14     51823.14     90.82928     181.1549     362.3457      2.358     5.26     1156.163     63.86933     1905.352        83     2.071     1.677 -76.47   0
       300    621.6456    329.4613 307.6728535  +6.5438771     1448.249     3802.904      4525.82     90.68546     181.0828     362.4178      2.600     9.07     1156.519     63.86933      162.245        29     1.692     1.423 -14.91   0
       301    706.2679    322.7871 307.6378695  +6.5494527     40457.33     103500.5     121507.6     90.25259     181.0828     362.2376      2.507     5.87     1156.172     63.86933     3993.048       111     2.153     1.846 -68.23   0
       302    863.4737    324.5644 307.5723987  +6.5539474     748.7414     1586.554      1721.39     90.68546     181.2269     362.3097      2.167     4.75     1155.553     63.86933     94.75452         8     1.623     0.395 -62.11   0
       303    567.2575    319.5372 307.6958183  +6.5461645     1213.045     3127.583     4614.433     90.97289     181.1549     362.3818      3.284     7.42     1155.388     63.86933     146.7025        17     1.882     0.819 -44.42   2
       304    106.2148    318.6999 307.8876680  +6.5311045     3028.914     8171.772     10126.69     90.82928     180.9386     361.9492      2.730     6.71     1170.876     63.86933     350.0616        54     2.084     1.691 -88.37   0
       305    947.7374    319.5998 307.5375047  +6.5587978     658.1696     1073.318     846.0311     89.96285     180.9386     361.9492      1.702     5.83     1153.945     63.86933     90.69519         7     1.376     0.694  51.78   0
       306    551.9942    315.8112 307.7022949  +6.5471950     3200.029     8930.755     10825.63      90.3971     181.0107     362.2376      2.617     6.50     1154.933     63.86933     333.8394        56     2.054     1.711 -66.04   0
       307    282.1875    314.4042 307.8146001  +6.5387679     1219.486      2290.41     2851.938     90.39711     180.8664     362.2016      2.158     7.24     1160.852     63.86933     150.1748        17     1.856     0.791 -59.65   2
       308    279.4242    312.4053 307.8158176  +6.5395014     887.1879     1611.817     2113.575     90.25259     180.9386     362.1656      2.444     7.37     1160.892     63.86933      109.021        13     1.676     0.907 -45.84   3
       309    416.1595    311.5173 307.7589571  +6.5444368     11179.59      24513.5     28853.59     90.82928     181.2989     362.2737      2.332     6.61     1156.629     63.86933     1162.464        55     2.368     1.262 -70.96   3
       310    413.0000    310.9974 307.7602893  +6.5445461     7709.273     14455.94     17124.32     89.96285     180.6497     362.0574      2.082     7.18     1156.651     63.86933     909.0417        29     2.050     0.819 -82.71   3
       311    503.9911    301.3955 307.7227553  +6.5515497     3676.754     10882.88     12716.49     90.10783     180.8664     362.1656      2.622     6.89     1154.088     63.86933     405.9419        55     2.000     1.784 -77.31   0
       312    774.4904    300.1100 307.6102482  +6.5610919     1440.711     2728.704     3478.539     90.82928     181.8022     362.4538      2.152     6.61     1154.858     63.86933     169.0455        20     1.646     0.875 -73.28   3
       313    771.8226    299.6264 307.6113746  +6.5612029     1351.847     2282.752      3094.16     90.25259     181.0107     362.2737      1.955     7.52     1154.862     63.86933     173.0681        18     2.023     0.783 -77.35   3
       314    394.0470    285.5811 307.7690356  +6.5544135     3205.694     9594.325     11755.74     90.25259     181.2269     362.1295      2.711     7.05     1155.822     63.86933     365.8573        55     2.072     1.747 -70.29   0
       315    248.1611    286.1687 307.8297144  +6.5492949     850.2571     1687.239     2280.789      90.3971     180.9386     362.1656      2.286     5.90     1161.099     63.86933     99.93042        12     1.254     0.781  66.65   2
       316    251.5871    285.6859 307.8283054  +6.5496090      873.785     1410.899      1833.06     90.39711     181.0828     362.2016      1.798     4.69     1160.988     63.86933     116.1919         9     1.042     0.633 -81.37   3
       317    760.6590    281.4820 307.6166318  +6.5683277     25338.75     52105.17     60276.25     90.97289     181.2989     362.3818      2.251     5.95     1153.917     63.86933     2734.185        72     2.331     1.338 -89.67   3
       318    763.3118    281.3513 307.6155324  +6.5684699     19747.52     29719.58     32481.46     90.82928     181.0828     362.4538      1.637     4.29     1153.917     63.86933     2489.139        27     1.469     0.929 -62.62   3
       319    746.3700    284.8930 307.6224623  +6.5664430     602.7872     1318.702     1481.139     90.97289     180.9386     362.2376      2.069     4.15     1154.089     63.86933     97.65039         5     1.159     0.424  77.67   0
       320    433.2449    281.2163 307.7528740  +6.5575255     1081.352      3013.17     3559.479     90.25259     181.0828     362.0935      2.734     9.60     1154.182     63.86933     124.3185        26     1.774     1.449 -47.85   0
       321    996.4523    278.2283 307.5186272  +6.5775075     1249.404     2686.591     3231.897      90.5414     181.3709     362.2376      2.263     6.55     1148.654     63.86933     178.8787        13     1.355     0.890  44.72   0
       322    937.6204    277.7992 307.5431220  +6.5757316     1562.614     3182.386     3699.282     90.39711     180.8664     362.0214      2.252     5.47     1151.882     63.86933     190.0458        22     1.426     1.102 -52.52   0
       323    420.8044    276.3312 307.7582156  +6.5591284     975.7361     2593.116      3208.98     90.25259     180.7942     362.0935      2.585     8.78     1154.394     63.86933     110.9574        21     1.539     1.397 -25.24   0
       324    841.5608    271.1370 307.5833174  +6.5752922     671.9533     1528.342     1540.385     90.82928     181.1549     362.4178      2.322     7.17     1153.246     63.86933     103.5087         9     1.590     0.905  35.55   0
       325    197.6450    268.7462 307.8513235  +6.5548025     1053.147     2841.581     3731.485     90.82928     181.2269     362.3818      2.861     7.39     1163.856     63.86933       154.96        14     1.630     0.938 -69.10   2
       326    760.0873    265.8774 307.6173962  +6.5747556      3228.01     7759.015     8898.018     90.82928     181.5867     362.4538      2.394     5.56     1153.271     63.86933     376.1511        44     1.727     1.579 -67.95   0
       327    776.4926    263.6768 307.6106441  +6.5762105     1493.534     3504.618     3788.026      90.5414     181.4429     362.3457      2.253     7.28     1153.185     63.86933     147.5098        27     1.715     1.303 -69.86   0
       328    366.5995    259.1392 307.7813514  +6.5644206      821.121     2096.154     2971.899     89.96285     181.0107     361.9853      2.535     5.77     1155.933     63.86933     115.4183         9     1.480     0.634 -84.81   0
       329   1014.6837    254.5260 307.5118387  +6.5879051     4448.454      8580.07     10023.47     90.97289     181.5867     362.4178      2.101     4.36     1146.012     63.86933      512.142        39     1.699     1.330 -75.98  16
       330    492.9682    255.2794 307.7289017  +6.5702341     877.7918     2021.461     2309.552     90.68546     181.2269     362.3097      2.205     6.46     1151.065     63.86933     130.2004        14     1.409     1.067 -36.13   0
       331    255.4622    250.5776 307.8278835  +6.5642428     2494.289     7617.757     9264.239     90.39711     181.2269     362.2376      2.779     7.77     1160.961     63.86933     299.3411        51     1.985     1.820 -71.75   0
       332    975.0690    240.8413 307.5287837  +6.5922440     633.3636     1103.467     1230.688     90.68546     181.2269     362.4538      1.660     5.02     1147.535     63.86933     103.2502         5     1.131     0.631  84.77   0
       333    390.5059    240.1448 307.7720476  +6.5730663     670.2495     1724.007     1967.221     90.68546     181.2269     362.5978      2.591     4.76     1154.433     63.86933     86.78613         6     0.935     0.687  -9.40   0
       334    160.1071    237.3671 307.8680067  +6.5665095     899.6762     2223.726     2494.149     90.97289     181.0828     362.4178      2.394     8.36       1166.3     63.86933       144.47        14     1.798     1.086 -87.80   0
       335    568.9874    232.3151 307.6980469  +6.5822568     1193.569     3218.762     3392.573      90.3971     181.0828     362.1656      2.393     8.95     1149.589     63.86933     156.2489        25     1.567     1.427  34.71   0
       336    912.7004    231.4783 307.5550519  +6.5940411     1071.981     2534.539     2630.043      90.5414     181.5148     362.3818      2.287     7.51     1150.119     63.86933     127.5527        18     1.640     1.015  67.89   0
       337    732.5038    230.0412 307.6300832  +6.5886430     2581.703     6581.517     7669.524     90.82928     181.1549     362.5258      2.542     6.71     1151.676     63.86933     288.2581        46     2.016     1.576 -70.77   0
       338    674.8146    228.9654 307.6541247  +6.5871669     956.6189     2285.559     2995.185      90.3971     180.9386     362.2016      2.732     9.69     1150.998     63.86933     115.0194        18     2.341     1.120 -57.47   2
       339    232.2175    217.1612 307.8386885  +6.5772703     1128.991     2987.897     3645.795      90.3971     181.0828     362.0935      2.702     9.70     1162.883     63.86933     145.7406        23     2.087     1.285 -50.42   2
       340    875.0541    214.2256 307.5712987  +6.5999180     1010.088     2056.243     2099.458      90.3971     181.2989     362.1656      1.951     7.58      1149.72     63.86933     135.4675        15     1.356     1.186  82.80   0
       341    765.3926    214.0911 307.6169359  +6.5963271     898.3442      2039.03      2622.65      90.3971     180.8664     362.1295      2.643     7.08     1150.729     63.86933      115.598        11     1.250     1.123  76.21   0
       342    466.1917    205.3227 307.7417336  +6.5899794     9974.574     29590.37     36279.32      90.3971     180.6497     362.1656      2.738     6.80     1149.462     63.86933     1075.685        86     2.309     1.923 -56.38   0
       343    791.9953    204.3605 307.6061942  +6.6012322     7054.367     17688.96      20841.2     89.96284     180.9386     361.9853      2.445     5.62     1150.078     63.86933     753.5835        64     2.021     1.701 -67.86   0
       344    155.4458    198.6062 307.8712618  +6.5823664     1373.001     3038.428     3823.097     90.25259     180.9386     361.9492      2.592     8.62     1166.685     63.86933     183.1033        21     1.783     1.165  80.47   2
       345    928.1744    195.1428 307.5498369  +6.6095668     920.6833     1830.845     1811.647      90.3971     181.2269     362.2016      2.148     5.00     1147.603     63.86933     128.4114        10     1.105     1.012 -52.27   0
       346    590.1864    191.0332 307.6906212  +6.6000185     2163.531     6327.524     7276.825     90.25259     180.9386     362.2376      2.618     7.47     1148.066     63.86933      230.417        46     1.975     1.633 -85.46   0
       347    553.5091    192.9581 307.7058182  +6.5980005     925.3622     2183.338     3368.097     90.82928     181.2269     362.4178      2.532     6.77     1148.223     63.86933     122.6927        12     2.025     0.635 -66.06   2
       348    552.6608    189.6896 307.7062817  +6.5993225     866.4684     2245.353     2902.502     90.68546     181.3709     362.4178      2.783     7.19      1148.13     63.86933     108.0647        11     1.873     0.773 -56.88   2
       349    312.5800    191.2461 307.8061288  +6.5906640       570.75     921.2597     1712.579     90.39711     181.1549     362.1656      1.623     4.40     1158.204     63.86933     103.0157         5     1.115     0.493  89.41   0
       350    897.0807    187.4202 307.5630362  +6.6117244     6943.333     14976.19     15928.08      90.5414     180.8664     362.2737      2.208     5.03      1147.64     63.86933     740.2035        53     1.862     1.478 -76.65   0
       351    950.9802    188.3077 307.5405768  +6.6131481     1668.635     3509.153     4030.286     90.68546     180.9386     362.1656      2.215     5.74     1146.117     63.86933     195.3296        25     1.542     1.211 -68.53   0
       352     23.4113    184.5112 307.9266781  +6.5837656      12815.4     34155.12     40940.78      90.5414     180.8664     362.1295      2.606     6.28     1174.076     63.86933     1510.474        81     2.182     1.803 -77.11   0
       353    983.6509    185.1921 307.5270862  +6.6155200     6643.744     13484.64     14288.56     90.25259     181.0828     361.9853      2.117     4.75     1144.487     63.86933     786.0198        50     1.792     1.442 -77.78   0
       354    695.4070    185.4881 307.6470239  +6.6058147     1625.247     3998.275     4429.349     90.25259     180.8664     362.0574      2.438     6.62      1148.97     63.86933     178.0503        32     1.628     1.422 -76.40   0
       355    504.8058    180.9852 307.7264893  +6.6013224     894.9651     2357.886     2776.196      90.3971     180.9386     362.1656      2.654     7.39     1147.887     63.86933     111.1459        12     1.720     0.888 -79.10   2
       356    515.8777    176.7105 307.7220268  +6.6034578     1066.435     3179.494     3593.222      90.5414     181.5148     362.4898      2.616     9.65      1147.76     63.86933     140.2565        26     1.771     1.492 -47.74   0
       357    887.6083    176.0772 307.5673603  +6.6160959     1144.032     2643.642     3198.821      90.3971     180.6497     362.1656      2.365     7.48     1147.109     63.86933      157.208        20     1.633     1.283 -73.36   0
       358    835.5827    176.9473 307.5889807  +6.6140072     1270.414     2605.985     2536.521     90.25259     181.2989     362.0214      2.148     5.97     1147.908     63.86933      147.614        16     1.265     1.077  69.29   0
       359    747.2968    173.4949 307.6258359  +6.6124968     21116.74     52501.95     61102.18     90.82928      181.874     362.1656      2.480     5.83     1147.749     63.86933     2074.271        89     2.096     1.809 -77.04   0
       360    350.4060    173.2605 307.7909987  +6.5993585     3187.422     9393.408     12751.86     90.10783     181.0828     362.0935      2.953     7.48     1155.119     63.86933     363.2825        66     2.339     1.854 -83.93   0
       361      5.7269    177.2742 307.9342823  +6.5861624     1658.012     1629.294     1333.357     91.11626     181.5148      340.696      1.453     4.85     1175.293     63.86933     556.8629         7     1.302     0.513   7.85  16
       362    981.0607    172.0391 307.5286069  +6.6208681     2049.888     3942.521     4002.291     90.82928     181.2269     362.4178      2.020     5.53     1144.122     63.86933     218.7314        26     1.549     1.225 -74.53   0
       363    915.2087    170.4806 307.5560632  +6.6193251     4725.991     10344.55     11711.82     90.39711     180.7942     362.1656      2.246     5.20     1146.223     63.86933     490.9445        44     1.788     1.456 -74.61   0
       364   1019.1801    171.0470 307.5127772  +6.6225432     1199.317     2392.381     2500.164      90.3971     181.2269     341.6526      2.041     7.33     1142.665     63.86933     134.7748        21     1.455     1.264 -60.27  16
       365    458.7514    169.8956 307.7460286  +6.6043671     2228.393     6187.065     6912.863     90.68546     181.0828     362.5258      2.569     7.05     1148.465     63.86933     268.1545        44     1.932     1.594 -53.01   0
       366    116.3032    161.3335 307.8888142  +6.5964537     2170.272     6221.033     7371.588     90.82928     181.2989     362.3818      2.707     7.08     1168.432     63.86933     245.2751        48     1.946     1.815 -42.30   0
       367    286.4421    157.9487 307.8181336  +6.6035461     15212.09      43724.9     53471.96     90.82928     181.2269     362.3457      2.739     6.65     1161.915     63.86933     1654.672        93     2.261     1.947 -78.79   0
       368    261.8426    159.2291 307.8283263  +6.6021945     3001.646     8561.006     9424.088      90.3971     181.1549     362.2016      2.614     6.91     1163.139     63.86933     345.6324        51     1.998     1.688 -83.25   0
       369    410.4929    153.3866 307.7666688  +6.6095762     22280.45      64381.4     78244.62      90.5414     180.9386     362.1295      2.720     6.54     1150.279     63.86933      2319.86       100     2.255     1.945 -75.29   0
       370    166.5718    154.9261 307.8681150  +6.6007841     2015.938     5415.777     6827.664     90.68546     181.1549     362.2737      2.670     7.66     1166.377     63.86933     239.2395        43     1.953     1.639 -83.70   0
       371    314.6537    151.1791 307.8066239  +6.6072860     8299.621     23755.41     30799.25     90.25259     181.2269     362.1295      2.855     6.60     1159.239     63.86933     917.1443        86     2.206     2.044 -61.54   2
       372    749.6959    149.3850 307.6256512  +6.6225374     17751.74     43964.71     51361.48      90.5414     180.9386     362.0935      2.472     5.71     1146.589     63.86933      1793.01        86     2.082     1.789 -77.81   0
       373     66.7070    147.0260 307.9099371  +6.6007026     4630.031     11698.48     13413.19     90.97289     180.9386     362.1656      2.497     6.07      1171.13     63.86933     518.6875        55     1.991     1.664 -78.35   0
       374    100.8768    145.8779 307.8957580  +6.6023219     909.6675     1907.703     2178.692     91.11626     181.5148     362.4538      2.329     6.45     1168.773     63.86933     133.9149         9     1.263     0.926 -30.96   0
       375   1008.0117    143.0752 307.5183665  +6.6337289     828.0952     1657.953     2023.227      90.3971     180.8664     362.1295      2.249     6.35     1141.981     63.86933     102.3567         8     1.233     0.918 -18.88   0
       376   1009.0130    129.9336 307.5183922  +6.6391915      1595.77     3123.272     3669.357     90.25259     181.0107     362.2376      2.253     5.06     1141.348     63.86933     212.1647        22     1.377     1.255  84.43   0
       377    285.3452    124.2067 307.8197341  +6.6174491     13984.76        40161     49708.57     90.25259     180.9386     362.0214      2.716     6.56     1162.961     63.86933     1548.668        91     2.247     1.921 -74.62   0
       378     30.7348    123.1916 307.9257151  +6.6093432     2131.171     5923.928     7544.847     90.25259     180.9386     362.2016      2.765     8.87     1173.424     63.86933     244.1582        48     2.354     1.563 -81.25   0
       379    345.1109    125.9056 307.7948066  +6.6187451     649.1805     1220.923     685.3754     90.82928     181.7304     362.4178      2.012     4.59     1157.094     63.86933     124.3853         5     0.836     0.715  65.56   0
       380    716.9470    120.6387 307.6402499  +6.6333235     4374.978     10675.04     12240.31     90.68546     181.2989     362.3457      2.443     5.79     1146.258     63.86933     430.7025        52     1.952     1.568 -80.34   0
       381    127.9512    118.1558 307.8854337  +6.6146813     2447.028     6465.684     7486.622     90.82928     181.1549     362.3457      2.602     7.27     1167.446     63.86933     276.5928        49     2.071     1.637 -70.73   0
       382    398.5529    113.8826 307.7729752  +6.6254976      2023.58     5841.153     7279.305     90.82928     181.2269     362.3457      2.777     8.09     1151.679     63.86933     213.4144        42     1.909     1.607 -77.69   0
       383    363.0120    112.7626 307.7878028  +6.6247730      1448.67      4210.91     4940.243     90.25259     181.0107     362.0214      2.637     9.05     1155.714     63.86933     179.3678        41     2.102     1.544 -77.67   0
       384    118.0451    113.1357 307.8897262  +6.6164234     949.2358     2007.318     2638.547     90.82928     181.1549     362.3457      2.272     6.76     1167.659     63.86933     137.0284        11     1.690     0.760 -54.95   0
       385   1009.1737    106.4579 307.5191156  +6.6488956     1075.126     1863.669     1770.616     90.39711     181.2269     362.1656      1.908     5.61     1140.224     63.86933     153.2485        11     1.195     0.939 -37.41   0
       386    214.9101    101.8845 307.8498008  +6.6243147     2703.383     7369.569      8719.94      90.5414     181.5148     362.4898      2.639     7.03       1165.8     63.86933     298.2927        53     2.077     1.731  88.14   0
       387     98.6431    102.0675 307.8981756  +6.6203459     1151.897     2611.927     3418.103     90.82928     181.1549     362.4178      2.657     7.58      1167.94     63.86933     157.2241        17     1.690     0.952 -52.35   2
       388    676.4811    100.4349 307.6577720  +6.6403230     3208.938      7938.79     9026.516     90.68546     181.2269     362.3457      2.485     6.16     1146.024     63.86933     295.6731        47     1.849     1.638 -65.35   0
       389    628.8752     97.6797 307.6776765  +6.6398753     4836.927     12614.68     14891.09     91.11626     181.5148     362.4898      2.601     6.72     1146.558     63.86933     448.7538        50     1.928     1.676 -77.66   3
       390    632.1913     89.2273 307.6765821  +6.6434778     26022.44     68819.66     82909.66      90.3971     181.0107     362.1656      2.597     6.03     1146.208     63.86933     2420.288       108     2.268     1.893 -74.12   3
       391    357.3630     93.9464 307.7907910  +6.6323577     1506.392     2798.467     4052.892     90.68546     181.2269     362.3818      2.137     7.13     1157.056     63.86933     199.4138        18     2.003     0.710 -63.51   3
       392    354.6414     93.0074 307.7919554  +6.6326547     1559.414     3417.141     4767.288     90.10783     181.0107     362.0214      2.629     9.07     1157.308     63.86933     182.0958        25     1.970     1.165 -70.04   3
       393    600.0966    125.5501 307.6887107  +6.6274021     1048.221     2518.635     3450.051     90.68546     181.1549     362.5258      2.576     7.63     1146.912     63.86933     120.8832        16     1.430     1.140  50.51   0
       394    537.5078     93.3279 307.7158461  +6.6386273     701.7682     1856.312     2114.533     90.68546     181.3709     362.3457      2.406     6.56     1147.243     63.86933     126.4772         8     1.442     0.837  79.31   0
       395    311.3338     83.1339 307.8103119  +6.6352861     1725.121     4994.274      6440.21     90.82928     181.2269     362.3818      2.815     8.15     1161.871     63.86933     195.3412        41     1.943     1.584 -48.57   0
       396    806.1900   1019.2046 307.5728227  +6.2650550      12334.7     20877.12      21906.5     90.25259     180.9386     341.3468      1.793     3.84     1193.799     63.86933     1500.247        48     1.634     1.217 -70.35  16
       397    696.6375     73.4812 307.6502942  +6.6521297     1717.879     3998.087     4753.502     90.82928     181.2989     362.2737      2.475     8.09     1144.649     63.86933     182.5896        30     1.838     1.357  84.17   0
       398    682.9130     77.5344 307.6558689  +6.6499982     625.4554     1667.695     1254.851     90.82928     181.4429     362.3818      2.189     4.46     1145.122     63.86933      107.558         5     1.177     0.482  -6.96   0
       399    438.2914     64.4612 307.7581119  +6.6472420     1983.963     5352.222      6019.68     90.68546     181.2989     362.4538      2.562     8.60     1150.731     63.86933     228.9912        40     1.879     1.609 -86.78   0
       400    893.0629     60.6853 307.5689795  +6.6639502     1292.167     2886.137     2957.577     90.97289     181.3709     362.3457      2.268     7.10     1140.059     63.86933     162.5703        19     1.659     1.038 -61.56   0
       401    910.6342     59.5693 307.5617043  +6.6649951     2501.289     5116.126     5473.696     90.25259     180.9386     362.0574      2.088     4.94     1139.344     63.86933     310.3032        34     1.685     1.282 -86.49   0
       402    603.5217     58.2703 307.6895595  +6.6553117     952.2057      2156.68      2739.31     91.11626     181.5148     362.3097      2.512     7.53     1145.462     63.86933     107.3956        11     1.489     1.064   3.01   0
       403    402.1703     55.6188 307.7734432  +6.6496887     977.0358     2389.725     2715.436      90.3971     181.0107     362.2376      2.414     7.84     1153.924     63.86933     173.4713        14     1.705     1.008  67.35   0
       404    150.0611     53.1548 307.8784404  +6.6422749     1716.138     4353.634      5255.62     90.68546     181.0828     362.4538      2.498     7.18     1166.296     63.86933     209.9762        32     1.760     1.430 -69.57   0
       405     31.6791     50.9926 307.9277763  +6.6392012     6493.967     16689.94     20407.73      90.3971     180.6497     362.0935      2.595     6.04     1171.088     63.86933     741.9923        63     2.108     1.692 -76.97   0
       406    298.8093     53.1177 307.8165415  +6.6472677     664.8182     1482.489     2528.369      90.3971     180.7942     362.1656      2.458     4.37     1163.959     63.86933     103.2577         6     1.087     0.499 -64.74   0
       407    833.1205     45.2372 307.5944471  +6.6683398     3751.788     8299.611     8776.599     90.68546     181.2989     362.3457      2.277     5.22     1140.314     63.86933      431.408        42     1.800     1.409 -75.07   0
       408    778.2606     45.7828 307.6172601  +6.6662897     1873.101     4340.382     5018.227      90.3971     181.1549     362.1295      2.490     6.75     1141.138     63.86933      192.036        33     1.748     1.434 -67.28   0
       409     71.9253     42.9438 307.9113022  +6.6438754     1619.712      4185.93     4946.263     90.68546     181.1549     362.2737      2.526     7.53     1168.987     63.86933     235.0763        36     1.846     1.497 -86.70   0
       410     14.5016     38.9125 307.9353350  +6.6436156     1427.529      3430.66     4299.009     90.82928     181.7304     362.3818      2.594     8.64     1171.302     63.86933     156.0658        25     1.665     1.362 -55.05   0
       411    772.7952     33.1508 307.6199610  +6.6713265     1203.025     2793.688     3727.263     90.10783     181.0107     361.9492      2.681     7.13     1140.357     63.86933     135.6315        21     1.488     1.319  74.42   0
       412    589.7819   1010.0192 307.6631256  +6.2616490     125006.8     231141.2     256321.5      90.5414     181.0107     362.2737      2.008     4.19     1196.863     63.86933     12922.37       107     1.868     1.508 -69.31   3
       413    428.8593     26.9135 307.7633085  +6.6624390     1213.374     3191.788     3630.131     90.82928     181.2989     362.4898      2.491     9.75     1153.659     63.86933     146.6443        29     1.742     1.521 -83.00   0
       414    591.4966   1002.9465 307.6626513  +6.2646281     59133.84     109145.9     117903.6     90.68546     181.2269     362.6338      1.975     4.42     1196.563     63.86933     6008.959        73     1.696     1.442 -65.12   3
       415    223.9716   1012.9794 307.8151420  +6.2482189     3089.359     5640.875      6365.51     90.25259     181.0107     362.2737      1.949     4.38     1195.025     63.86933     321.9978        28     1.450     1.193  89.07   0
       416    764.9954   1012.1326 307.5901919  +6.2666072     808.8026     1475.732     1277.739     90.25259     180.8664     362.1295      1.770     4.10     1194.088     63.86933     132.4091         7     0.918     0.522 -48.28   0
       417    800.5521   1006.9388 307.5755805  +6.2699352     5999.497     10039.59     10404.43     90.82928     181.1549     362.4178      1.807     3.79     1193.181     63.86933      686.947        38     1.546     1.210 -72.72   0
       418    898.3524   1003.6919 307.5350186  +6.2745261     1362.676     2241.974     2159.968     90.82928     181.1549     362.4898      1.751     5.74     1192.538     63.86933     171.2366        16     1.348     0.888 -73.50   0
       419    221.4122   1002.4966 307.8165614  +6.2524641     1726.409     3279.521     3538.549      90.5414     180.9386     362.0935      2.007     4.81     1194.778     63.86933     215.1272        23     1.416     1.156 -74.83   0
       420    439.3477    999.6847 307.7260318  +6.2609038      3103.17     6024.799     7306.292     90.82928     181.1549     362.4898      2.174     4.91     1194.478     63.86933     319.6876        34     1.670     1.271 -73.77   0
       421    580.5953    998.6608 307.6673293  +6.2660356     3321.016     6271.245     7401.198     90.10783     181.0828     362.0935      2.037     4.85     1196.389     63.86933     375.7126        30     1.600     1.199 -67.12   0
       422    716.7899    998.5146 307.6106974  +6.2706301      1139.69      1885.36     2959.283     90.39711     180.8664     362.1656      2.035     4.57     1194.506     63.86933     161.8632        14     1.182     0.915 -31.59   0
       423    756.6111    995.1867 307.5942496  +6.2733295     1242.056     2311.633     3276.961      90.5414     180.9386     362.2737      2.217     4.56     1193.291     63.86933     159.3107        15     1.223     0.831 -62.61   0
