#   1 NUMBER                 Running object number                                     
#   2 X_IMAGE                Object position along x                                    [pixel]
#   3 Y_IMAGE                Object position along y                                    [pixel]
#   4 ALPHA_J2000            Right ascension of barycenter (J2000)                      [deg]
#   5 DELTA_J2000            Declination of barycenter (J2000)                          [deg]
#   6 FLUX_APER              Flux vector within fixed circular aperture(s)              [count]
#   9 FLUXERR_APER           RMS error vector for aperture flux(es)                     [count]
#  12 FLUX_RADIUS            Fraction-of-light radii                                    [pixel]
#  13 FWHM_IMAGE             FWHM assuming a gaussian core                              [pixel]
#  14 BACKGROUND             Background at centroid position                            [count]
#  15 THRESHOLD              Detection threshold above background                       [count]
#  16 FLUX_MAX               Peak flux above background                                 [count]
#  17 ISOAREA_IMAGE          Isophotal area above Analysis threshold                    [pixel**2]
#  18 A_IMAGE                Profile RMS along major axis                               [pixel]
#  19 B_IMAGE                Profile RMS along minor axis                               [pixel]
#  20 THETA_IMAGE            Position angle (CCW/x)                                     [deg]
#  21 FLAGS                  Extraction flags                                          
         1    989.2654     21.6786 307.5286661  +6.6977303     1697.575     3417.251     4043.871     90.57697     180.5099     360.7329      2.265     6.52     1103.542     63.59137     193.3038        24     1.588     1.203 -62.02   0
         2    708.6354     18.2406 307.6455273  +6.6898332     4633.716      10397.5     10833.69     90.14735     180.4382     360.5535      2.207     5.21     1119.688     63.59137     455.9792        45     1.741     1.516 -80.76   0
         3    628.7586     17.6615 307.6787758  +6.6874153     2372.991     5184.562     5547.393     90.43399     180.4382     360.8405      2.223     5.69     1120.539     63.59137     272.0427        35     1.629     1.461 -67.61   0
         4    429.2439     13.6829 307.7619079  +6.6824123      3617.23     8686.537     9395.534     90.43399     180.4382     360.7329      2.309     5.91     1130.583     63.59137     360.8912        46     1.818     1.598 -36.62   0
         5     30.3212     13.5230 307.9278557  +6.6691472     5529.539     12369.19     13423.46     90.71973     180.7248     360.8764      2.245     5.42     1150.682     63.59137     626.7164        46     1.804     1.486 -64.24   0
         6    325.7984      8.6879 307.8051095  +6.6810241     7092.556     17975.59     20124.88     89.57133     180.0074     360.4458      2.419     5.82     1140.886     63.59137     837.9537        57     1.922     1.680 -54.22  16
         7     99.6173      9.1843 307.8991787  +6.6732591     1493.105     3496.932     3888.624     90.14735     180.0793     360.6971      2.356     7.59     1149.384     63.59137     194.1344        24     1.717     1.133 -42.13  16
         8     90.9905      7.8669 307.9028120  +6.6735146      929.365     2042.846     3136.967      89.8598     180.2229     358.2853      2.646     6.95     1149.507     63.59137     117.9954        12     1.545     0.876 -22.83  16
         9    392.1049      6.7180 307.7775937  +6.6840507     1461.077     3600.541     3929.635     90.14735     180.7964     349.6207      2.395     7.11     1133.897     63.59137     174.3726        28     1.681     1.326 -45.06  16
        10    652.6243      2.7133 307.6693537  +6.6943845     6724.295     12771.91     13494.61     90.43399      164.376      295.896      1.997     5.72     1119.783     63.59137     671.9584        38     1.700     1.272 -16.50  24
        11    817.3463      1.8666 307.6008562  +6.7002100     1157.626     1975.926     2258.632     85.73286     152.3647     281.3241      2.064     5.87     1113.285     63.59137     158.2046        11     1.159     0.869  -5.93  24
        12    528.7372      2.6033 307.7208949  +6.6903055     606.7385     1059.998     1139.494     89.71568     163.2701     294.1415      1.665     4.94     1121.283     63.59137     102.9261         5     1.138     0.607 -58.01  26
        13    531.5790      2.4731 307.7197171  +6.6904539     635.2073     826.7953     888.6015     90.00369     161.3568     291.9779      1.202     3.53     1121.131     63.59137     119.3033         5     0.790     0.455  17.69  18
        14    252.2736      1.5046 307.8359386  +6.6815358     1762.036     2362.038     2125.384     81.07837     146.6522     274.7618      1.415     4.89     1147.336     63.59137     305.0321        13     1.389     0.614  -8.51  24
        15   1006.9340    997.7936 307.4884127  +6.2950679     5438.141     7570.251     7065.844      89.8598     180.1511     360.5535      1.458     3.35     1172.222     63.59137     799.6453        27     1.328     0.938 -69.14   0
        16    957.1935   1023.0110 307.5082395  +6.2830019     6643.759     8214.156     8218.121      86.3345     153.9699     283.2494      1.303     3.11     1175.528     63.59137      1075.74        20     1.189     0.836 -32.21  24
        17    716.9203   1021.5508 307.6081644  +6.2756318     2677.508     4266.314     4797.613     90.43399     173.4168     308.1919      1.812     3.79      1178.38     63.59137     346.5804        24     1.385     1.047 -43.31  24
        18    241.6379   1023.2881 307.8056601  +6.2590865     990.1228     1361.147     1292.376     83.90206     149.7951     278.4576      1.455     4.76     1183.859     63.59137     163.2202        10     1.118     0.714   4.34  24
        19    885.2426    998.2412 307.5389832  +6.2908490     12740.38     19208.27     20555.49     90.14735     180.4382     360.6253      1.618     3.25     1174.489     63.59137     1829.138        42     1.458     1.149 -47.57   0
        20    597.8788    998.5431 307.6584241  +6.2811792     1384.314      2197.94     2179.751     90.43399     180.4382     360.7329      1.562     4.19     1179.188     63.59137     196.5499        14     1.316     0.774 -41.77   0
        21    529.6530    997.3293 307.6868246  +6.2794104      3715.26     6022.081     7288.326     90.29079     180.3665     360.6971      1.834     3.77     1180.471     63.59137     450.6801        33     1.582     1.191 -42.31   0
        22    639.2422    996.4809 307.6413002  +6.2834067     1281.618     2108.108     2071.844     90.43399     180.4382     360.7329      1.657     4.50     1178.687     63.59137     178.4717        13     1.278     0.697 -49.61   0
        23     65.1929    995.8255 307.8799307  +6.2645364     620.6506     1051.216      1114.92      89.8598     180.2947     360.5894      1.824     2.87     1182.146     63.59137      119.576         5     0.717     0.683  42.46   0
        24    482.4873    993.9978 307.7065427  +6.2792164     1847.289     3271.404     3125.322     89.71568     180.0074     360.4458      1.859     5.03     1181.835     63.59137     237.8418        20     1.356     1.113 -47.31   0
        25    916.9547    985.8748 307.5262179  +6.2970095     46160.01     68535.14     71716.16     90.29079     180.5099     360.8047      1.565     3.24     1173.472     63.59137     6226.097        66     1.521     1.194 -62.21   0
        26    224.6796    984.2501 307.8140337  +6.2746469     1502.464     2356.169      2620.05     90.43399     180.5099     360.7688      1.716     4.64     1182.875     63.59137     181.0867        14     1.217     0.890 -74.71   0
        27    623.5680    982.6353 307.6482837  +6.2886052     739.3827     1025.324     1281.875     90.00369     180.1511     360.4817      1.405     4.28     1178.482     63.59137     133.1791         7     0.959     0.683 -46.25   0
        28    112.9619    982.4365 307.8605309  +6.2716642     708.7121      898.531     854.7709     90.14735     180.2947     360.5894      1.486     5.05     1182.252     63.59137     89.57361         6     1.055     0.684  54.57   0
        29    814.9613    979.7429 307.5688223  +6.2961590     2406.014     3564.998     3905.579     90.43399     180.5099     360.7688      1.598     4.26     1173.451     63.59137     317.9095        16     1.377     0.747 -56.87   0
        30    763.1878    977.6254 307.5904154  +6.2953148     6430.064     10274.97     11398.32     90.00369     180.2229     360.6971      1.746     3.54     1174.747     63.59137     876.2063        36     1.559     1.122 -62.48   0
        31    549.7494    976.6698 307.6791702  +6.2886139     844.5471     1579.414     2002.607     90.29079     180.3665     360.8047      2.077     5.90     1179.526     63.59137      141.012         9     1.409     0.871  84.06   0
        32    232.8988    976.4337 307.8108827  +6.2781502     1192.895     1903.459     1987.804     90.43399     180.2947     360.9122      1.641     6.46      1182.71     63.59137     142.6003        13     1.475     0.794 -32.41   0
        33    197.4612    976.5869 307.8256073  +6.2769037     688.7056     1136.888     1433.179      89.8598     180.2229     360.4458      1.996     5.21     1182.693     63.59137     105.6924         6     1.153     0.666 -43.09   0
        34     57.8653    974.9652 307.8836855  +6.2729086     2507.627     4154.004     4388.317     90.29079     180.4382     360.8047      1.747     4.13     1181.953     63.59137     277.6023        23     1.262     1.169 -69.19   0
        35    951.2594    972.5952 307.5124052  +6.3036328     7176.279     10173.22     10433.65     89.71568     180.2947     360.5176      1.523     3.25     1171.803     63.59137     1002.278        27     1.327     0.960 -60.15   0
        36    207.8198    968.3709 307.8215806  +6.2806436     599.0991     1189.581     1314.165     90.00369     180.2229     360.6612      2.078     4.79     1182.459     63.59137     118.9802         6     0.996     0.652 -79.23   0
        37    925.1077    964.2263 307.5235585  +6.3062232     2152.108     2792.767     2858.112     90.57697     180.1511     360.5894      1.433     3.61     1171.689     63.59137     286.1716        16     1.183     0.871 -55.54   0
        38    784.5934    960.7208 307.5820880  +6.3030092     1472.558     2350.393     2108.006     90.00369     179.8636     360.5176      1.765     5.07      1172.97     63.59137     198.0364        16     1.370     0.878  89.37   0
        39    645.7858    960.2794 307.6398039  +6.2985795     4142.741      6686.92     7102.066     90.00369     180.1511     360.5176      1.735     3.64     1177.295     63.59137     524.4611        30     1.417     1.182 -76.14   0
        40    258.2409    960.7249 307.8008821  +6.2854854     3792.312     6692.907     7027.023     90.29079     180.4382     360.8047      1.878     4.31     1182.529     63.59137     423.8427        31     1.410     1.263 -52.12   0
        41    995.3318    959.7086 307.4945185  +6.3104171     719.8035     1515.016      2042.44     90.43399     180.5816     360.7688      2.170     3.70     1169.726     63.59137     139.6052         5     0.965     0.408 -74.46   0
        42     27.1181    958.0997 307.8970390  +6.2788472     1997.777     3535.928     3235.204     90.43399      181.011     360.8764      1.848     4.22     1182.002     63.59137     232.0052        23     1.412     1.048  74.55   0
        43    468.4951    958.6224 307.7135566  +6.2933642     945.0272     1188.875     1080.313     90.43399     180.2229     360.5894      1.484     5.11     1180.674     63.59137     128.2478         9     1.012     0.730 -53.26   0
        44    877.9602    956.5981 307.5434148  +6.3078109     916.2044     1476.384     1459.788     89.42673     180.1511     360.4458      1.823     4.92       1171.8     63.59137     109.7588        10     1.067     0.644 -63.89   0
        45    570.3647    953.1794 307.6713955  +6.2990040     1473.634     2449.374     1818.506      89.8598     180.2229     360.5176      1.673     5.63     1178.741     63.59137     182.4911        16     1.375     0.892 -56.34   0
        46    969.3504    954.1768 307.5055054  +6.3118414     655.4671     895.8561     580.0109     90.00369     180.5099     360.6612      1.427     3.38     1169.895     63.59137     120.6576         6     0.721     0.654 -37.86   0
        47   1001.7061    952.4749 307.4921124  +6.3136166     963.6782     1646.508     2455.736     90.14735     180.6532     360.7329      2.152     5.98     1168.967     63.59137     127.0752        13     1.435     0.700 -53.10   0
        48    294.4214    953.5245 307.7860873  +6.2896672     803.7156     1123.269     1111.714     90.00369     180.2229     360.6971      1.584     4.30     1182.584     63.59137     93.13477         6     1.121     0.469   9.72   0
        49    609.7974    949.0414 307.6551438  +6.3020252     1090.478     1650.448     1348.692     89.71568     180.0793     360.4458      1.668     4.38     1178.051     63.59137     149.8844        11     1.009     0.893 -24.98   0
        50    289.5609    946.9173 307.7883318  +6.2922345     1339.708     2214.702     1861.829     90.43399     180.5099     360.7329      1.779     6.47     1182.522     63.59137     158.9908        18     1.277     1.097 -15.36   0
        51    756.6565    942.9327 307.5943018  +6.3094299      891.112     1352.555     904.4722     90.57697     180.3665     360.7329      1.524     4.33     1173.182     63.59137     135.2765         7     0.782     0.681  60.34   0
        52    893.9640    939.5627 307.5373366  +6.3153793     7131.405     10540.86     10449.19     90.14735     180.2947     360.5176      1.568     3.34     1170.378     63.59137     1006.466        31     1.352     1.055 -61.04   0
        53    331.7280    935.2917 307.7711983  +6.2984437     7813.498     13954.08     14513.12     90.29079     180.6532     360.7688      1.914     4.06     1181.478     63.59137     789.9368        41     1.580     1.321 -65.49   0
        54    599.4117    937.5137 307.6598509  +6.3064420     564.9835     863.5856     611.9715     90.00369     180.1511     360.5894      1.468     4.89     1178.025     63.59137     95.11902         5     1.140     0.594 -54.68   0
        55    430.0862    936.8146 307.7302611  +6.3010935     1820.411     3132.155     3556.856     90.00369     180.1511     360.6253      1.823     4.69     1180.209     63.59137     215.2837        21     1.371     1.026 -47.35   0
        56    251.8674    934.2128 307.8044310  +6.2962248     5882.532      10612.6     11065.45      89.8598     180.2229     360.6612      1.920     4.15     1181.892     63.59137     602.6836        38     1.582     1.270 -69.31   0
        57    579.4690    928.0952 307.6684595  +6.3096694     907.5588     1506.831     1281.451     90.29079     180.5816     360.8047      1.467     3.61     1178.085     63.59137     131.0627         6     1.115     0.337 -39.85   0
        58    909.8401    924.7665 307.5312357  +6.3220184     1145.894     1662.672      1837.73     90.14735     180.2947     360.5535      1.622     4.10     1169.098     63.59137     161.0709        11     0.931     0.861 -46.12   0
        59    866.4009    922.7938 307.5493603  +6.3213925     655.0449     1243.575     1470.201     89.71568     180.0793     360.5535      2.601     4.37     1169.898     63.59137     109.5521         5     1.043     0.624 -23.76   0
        60    977.0403    920.6086 307.5034398  +6.3259639     922.6193     1413.257       1587.9     89.71568     180.2229     360.4458      1.639     4.87     1167.435     63.59137     125.4314         8     0.947     0.709 -72.36   0
        61    746.2447    917.7041 307.5994820  +6.3195064     1480.319     2364.999     2524.479     90.43399     180.2947     360.9481      1.729     4.02      1172.34     63.59137     180.2394        17     1.093     1.078 -21.41   0
        62    622.2061    913.9928 307.6511708  +6.3169169     512.5345     558.3271    -279.9949     89.71568     180.2229     360.5894      1.233     3.68     1176.248     63.59137     92.27673         5     1.438     0.272  77.74   0
        63    977.4215    913.3799 307.5035249  +6.3289629     1400.532     1903.225     2197.345     90.14735     180.3665     360.6971      1.439     3.13      1167.06     63.59137     218.8737        13     1.062     0.805 -61.11   0
        64    664.6911    911.2394 307.6336027  +6.3194670     1956.518     3098.109     2940.872     90.43399     180.3665     360.8047      1.710     4.55     1174.623     63.59137     248.6007        23     1.485     1.023 -55.60   0
        65    531.4299    913.2856 307.6889303  +6.3141886     955.3215     1913.703     2027.909     90.57697     180.1511     360.6253      2.286     5.47     1178.176     63.59137     126.4884        13     1.059     1.012  33.96   0
        66   1015.9951    909.5198 307.4876192  +6.3318356     626.2886     652.0495     405.7786     90.00369     179.9355     360.5176      1.343     5.44     1165.886     63.59137     112.2441         6     0.965     0.865  39.65   0
        67    955.4577    908.8429 307.5128086  +6.3301092     572.5621     950.0443     1526.457     90.29079     180.3665     360.8047      2.130     4.91     1167.461     63.59137     123.0056         5     1.363     0.500 -48.30   0
        68     78.9758    906.5793 307.8772356  +6.3018642     1707.475      3062.99     3342.227     90.00369     180.2229     360.7329      1.981     5.45     1181.008     63.59137     193.0038        21     1.498     1.080 -67.97   0
        69     61.5132    907.3207 307.8844691  +6.3009740     2499.333     4565.552     4857.869     90.14735     180.7964     360.9122      1.953     4.63     1181.166     63.59137     285.8739        28     1.413     1.305  81.01   0
        70    824.8132    907.6001 307.5671614  +6.3262892     833.3775     1266.915     1252.271     90.00369     180.0793     360.5535      1.645     6.21     1169.555     63.59137     106.1019        11     1.308     0.828 -14.80   0
        71    204.8509    906.2191 307.8249249  +6.3062192     1779.854     3345.538     3632.138      89.8598     180.5099     360.5176      2.049     5.43     1181.226     63.59137     193.7281        22     1.339     1.157 -40.02   0
        72    942.7717    906.1603 307.5181728  +6.3307969     820.4211     905.0366     1088.295     90.00369     180.1511     360.6253      1.327     4.23     1167.669     63.59137     124.7958         7     1.081     0.473 -61.11   0
        73    659.3389    900.2969 307.6361975  +6.3238095     5977.493     10248.16     10605.14     90.14735     180.4382     360.8764      1.808     3.90     1174.349     63.59137     656.6135        35     1.491     1.225 -54.36   0
        74    239.6701    902.4054 307.8105807  +6.3089573     647.2186     1037.397     1283.475      89.8598     180.0074     360.5894      1.666     3.91     1181.356     63.59137      87.3125         5     1.034     0.424 -15.22   0
        75     19.6767    898.8952 307.9021457  +6.3030551     1056.451      1804.31     2357.043     90.14735     180.5816     360.8764      2.126     7.16     1181.339     63.59137      126.429        14     1.396     1.030  85.25   0
        76    896.9429    896.5329 307.5375493  +6.3332545     2672.612     3918.485     3771.698     90.57697     180.3665     360.7329      1.563     3.74     1168.152     63.59137     340.1327        19     1.312     0.871 -59.26   0
        77     32.7539    897.0295 307.8967734  +6.3042633     932.6398     1784.743      1543.05      89.8598     180.5816     360.6253      1.940     6.77     1181.193     63.59137     115.9762        13     1.253     1.026  28.49   0
        78    342.4555    893.5391 307.7681549  +6.3160496     13025.94     23959.68     25843.46     90.57697     180.4382     360.8047      1.975     4.17      1180.66     63.59137     1335.203        52     1.660     1.406 -58.96   0
        79     77.2568    894.4586 307.8783623  +6.3068137     1034.963     1674.123     1774.504     90.57697     180.4382     360.8047      2.025     5.81     1180.838     63.59137     147.9183        13     1.155     1.127 -36.89   0
        80    213.3083    893.1917 307.8218516  +6.3118832     984.6554     1689.151     1697.071     90.00369     180.0793     360.5176      1.969     6.31     1181.102     63.59137     126.0275        10     1.195     0.945 -77.12   0
        81    419.9769    883.9047 307.7362561  +6.3226140     873.1425     1719.006     966.8376     90.43399     180.1511     360.5894      1.819     5.80     1178.916     63.59137     120.1121         7     1.229     0.771  88.86   0
        82    106.0953    884.0548 307.8667284  +6.3120756     1394.089     2512.443     2433.468     90.29079     180.3665     361.0198      1.961     5.92     1180.666     63.59137     178.5222        16     1.324     1.026  12.42   0
        83    673.6548    880.2007 307.6309255  +6.3325874     814.7131     1555.704     1429.707     89.57133     180.0793     360.3381      1.908     6.57      1173.18     63.59137     147.4034        11     1.405     1.134 -78.10   0
        84    500.5472    881.6944 307.7028377  +6.3262110     509.3112     1012.294     1782.018     90.29079     180.2947     361.0556      2.163     4.94     1177.686     63.59137     105.4756         5     1.324     0.522 -44.98   0
        85    858.1282    878.0389 307.5543092  +6.3396070     1829.898     2962.249     3138.054     90.29079     180.4382     360.8405      1.703     3.96     1167.718     63.59137     260.4012        20     1.276     1.061 -72.31   0
        86    887.2498    878.3038 307.5421937  +6.3404637     1817.633     2805.222     2038.285     90.29079     180.3665     360.9481      1.544     3.47     1167.403     63.59137     291.4005        14     1.096     0.877 -62.78   0
        87    821.6453    877.0407 307.5695097  +6.3388086     2733.302     4800.459     5270.936     90.29079     180.4382     360.5894      1.882     4.64     1168.458     63.59137     363.3699        28     1.531     1.184 -56.37   0
        88     89.2937    877.7097 307.8739282  +6.3141350      1826.58      3279.42     3908.235     90.43399      181.011     360.8047      1.967     4.54     1180.571     63.59137      212.111        20     1.326     1.078  71.33   0
        89    557.4576    868.6547 307.6796208  +6.3334924       269596     487544.2       522614     90.57697     180.5099     360.8047      1.958     4.08      1175.55     63.59137     28013.72       162     1.815     1.578 -59.21   0
        90    401.7734    871.2668 307.7442516  +6.3272281     5937.976     11023.28     11676.91     90.00369     180.2947     360.6612      1.962     4.32      1178.98     63.59137      634.599        40     1.582     1.326 -56.82   0
        91    344.9162    869.6808 307.7679410  +6.3259876     9607.684     18443.26     20422.48     90.29079     180.7248     360.8405      2.075     4.34     1180.316     63.59137     985.1992        55     1.718     1.480 -48.22   0
        92    645.6435    871.1819 307.6428751  +6.3353819     883.6251     1249.007     1420.213      89.8598     180.2947     360.4817      1.458     3.06     1173.281     63.59137     141.4528         6     0.731     0.620  22.43   0
        93    663.1797    865.8657 307.6357647  +6.3381612     2791.237     4977.507     5790.998     90.00369     180.4382     360.6253      1.884     4.52     1172.834     63.59137     320.5359        29     1.509     1.202 -40.68   0
        94    895.6705    864.6832 307.5391524  +6.3463699     5130.926     7959.547     8657.651     90.71973     180.7248     360.8047      1.674     3.46      1166.77     63.59137     656.8986        29     1.435     1.047 -67.05   0
        95    735.0521    862.0387 307.6060151  +6.3421307     712.0338     1069.834     860.3826     90.14735     180.4382     360.7688      1.531     4.75     1169.322     63.59137      88.8252         6     0.886     0.722  44.60   0
        96    638.2430    859.8756 307.6463339  +6.3398066      2796.59     4894.326     5941.768     90.29079     180.5099     360.8047      2.046     4.37     1172.758     63.59137     337.4882        30     1.416     1.374 -84.09   0
        97    826.2937    858.8099 307.5681925  +6.3464944     1459.299     2366.985     2668.494     90.00369     180.0074     360.5535      1.742     4.70     1167.563     63.59137     180.5729        14     1.178     0.920 -44.68   0
        98    953.3489    857.8752 307.5154031  +6.3510950     926.4153      1306.54     1135.212     90.43399     180.5099     360.7688      1.528     4.42     1165.192     63.59137     145.2565         9     1.103     0.619  81.79   0
        99    630.4140    855.3906 307.6497403  +6.3413990     1681.013      4001.54     5587.456     90.14735     180.1511     360.6971      2.633     9.17     1172.532     63.59137     193.7026        32     2.236     1.050 -67.09   0
       100    914.5334    852.4463 307.5317231  +6.3520508     3088.864     4768.414     4668.143     90.43399     180.3665     360.8047      1.686     3.52     1165.575     63.59137     429.4451        25     1.394     1.014 -60.41   0
       101    325.1752    853.9717 307.7766801  +6.3318186     755.5464     1266.216     1391.024      89.8598     180.2229     360.6253      1.954     5.08     1180.333     63.59137     94.33618         7     1.061     0.688  24.15   0
       102    373.0314    848.5189 307.7569709  +6.3356672     2104.927     3975.126     3964.908     90.29079     180.2947     360.7329      1.966     4.65     1178.898     63.59137     222.1168        25     1.364     1.220 -62.02   0
       103    508.9132    838.3127 307.7008285  +6.3444109      2429.23      4689.54     5120.969     90.14735     180.7964     360.8764      1.997     4.64     1175.213     63.59137     290.8484        31     1.505     1.327 -88.44   0
       104    853.7631    837.2211 307.5575011  +6.3563247     1071.954     1807.982     2331.555     90.00369     180.1511     360.4817      1.906     5.67     1165.167     63.59137     140.9009        10     1.240     0.731 -38.12   0
       105    555.8232    834.5439 307.6814546  +6.3475294     4579.321     8830.657     9869.706     90.00369     180.4382     360.5535      2.061     4.60      1173.68     63.59137     503.7803        38     1.642     1.336 -40.63   0
       106    562.6356    834.0736 307.6786384  +6.3479505     990.9244     2102.435     2662.628     90.29079     180.4382     360.7329      2.459     6.50     1173.335     63.59137     141.5791        13     1.235     0.959 -76.64   0
       107    473.1973    833.6601 307.7158339  +6.3451435     1000.216     2003.841     2033.592     89.71568     180.1511     360.4458      2.070     6.96      1175.86     63.59137      144.775        14     1.461     0.930 -34.44   0
       108    891.3480    832.3445 307.5420401  +6.3595862     1154.609     1612.687     1440.047     90.43399     180.4382     360.7329      1.656     4.83     1164.089     63.59137     179.6622        13     1.314     0.829 -71.92   0
       109    115.8206    832.6487 307.8644329  +6.3336363     1068.538     1993.598     2630.132      89.8598     180.5099     360.5894      2.152     6.98     1179.769     63.59137     133.5793        15     1.319     1.034   8.02   0
       110    526.5472    828.3457 307.6938351  +6.3491155     15209.86     28656.32      29888.2     90.71973     180.3665     360.7329      1.996     4.40     1174.168     63.59137     1625.693        55     1.711     1.415 -56.53   0
       111    939.9732    826.4931 307.5220218  +6.3636161     3602.459     5334.083     4878.865     90.57697     180.1511     360.5894      1.614     3.70     1162.977     63.59137     468.1287        21     1.340     0.910 -50.44   0
       112     37.2706    818.8032 307.8975566  +6.3367290     1215.365     2159.545     2719.417      89.8598     180.0074     360.5894      2.163     5.81     1179.897     63.59137     135.2894        16     1.178     1.062 -35.56   0
       113    319.2823    817.0687 307.7803815  +6.3468667     2467.011     4760.947     5077.536     90.71973     180.7248     360.8047      2.036     5.42      1179.42     63.59137     252.1755        25     1.386     1.232 -43.94   0
       114    784.5939    812.8380 307.5870806  +6.3641017     46256.02     80850.21     85326.17     89.42674     180.1511     360.4817      1.847     3.87     1166.346     63.59137     5424.725        71     1.678     1.349 -56.74   0
       115     19.3678    815.3547 307.9051160  +6.3375546      1724.85     3259.104     3238.037     90.14735     180.5099     360.5894      1.947     5.19     1180.015     63.59137      210.547        21     1.384     1.209 -63.43   0
       116    241.9947    810.6616 307.8127285  +6.3469341     3880.472     8444.409     11477.53     89.71568     180.2229     360.5176      2.769     5.44     1180.035     63.59137      370.834        45     1.893     1.462 -88.00   1
       117    428.0995    811.2383 307.7353416  +6.3529035     798.2227     1528.617     843.1855     90.43399     180.2947     361.0198      1.898     7.23     1176.005     63.59137     105.0452        12     1.568     0.933 -83.11   0
       118    909.8098    808.0314 307.5351847  +6.3702427      7655.42     12677.72     14115.93      89.8598     180.1511     360.5894      1.756     3.72     1161.849     63.59137     982.0896        39     1.544     1.183 -68.62   0
       119    712.8966    807.4728 307.6170694  +6.3639364     17121.62     31527.56     34008.56     90.00369     180.6532     360.7329      1.950     4.10     1167.586     63.59137     1866.195        55     1.742     1.347 -60.15   3
       120    706.6070    803.9448 307.6198035  +6.3651849     69027.23     128110.5     138580.3      89.8598     180.2229     360.4458      1.971     4.15     1167.637     63.59137     7895.338        94     1.792     1.482 -57.56   3
       121    351.6201    804.9772 307.7673482  +6.3529404     14798.06     30064.01     32837.75     90.14735     180.2229     360.6971      2.123     4.69     1177.456     63.59137     1436.299        63     1.795     1.527 -59.57   0
       122    413.4368    802.8137 307.7417228  +6.3558951     15599.07     31699.91     34093.96      89.8598     180.2229     360.4458      2.090     4.66     1176.163     63.59137     1578.572        59     1.737     1.500 -60.55   0
       123    400.6964    805.4774 307.7469290  +6.3543701     980.7447     2217.242     2260.525     90.14735     180.6532     360.8405      2.409     7.06     1176.474     63.59137     113.3813        14     1.627     0.858 -18.54   0
       124    950.3222    801.7184 307.5185545  +6.3741940     1962.874     3183.881     3409.749     90.71973     180.7248     360.9122      1.816     5.09     1160.923     63.59137     249.6239        19     1.472     0.887 -60.11   0
       125    241.4475    789.4124 307.8136773  +6.3556939     763529.8      2303838      2616469     89.71568     180.2947     360.4099      2.614     5.06     1179.183     63.59137     63331.07       570     2.441     2.196 -80.65   4
       126    906.7294    799.4868 307.5367535  +6.3736705     6295.663     10387.78     11132.99     90.57697     180.7248     360.8047      1.842     3.72     1161.228     63.59137     717.4359        39     1.519     1.231 -60.61   0
       127    879.4634    799.8179 307.5480783  +6.3726293     683.3112     1321.617     1110.411     90.00369     180.3665     360.5894      2.024     5.32     1161.713     63.59137     91.32971         6     1.392     0.575 -68.58   0
       128    647.3727    798.5100 307.6446133  +6.3654610     5054.132     9350.084     9806.484     90.57697     180.1511     360.6253      1.965     4.34     1168.794     63.59137      590.199        38     1.560     1.343 -59.92   0
       129    436.4390    796.5202 307.7323734  +6.3592616     1190.118     2366.943     1642.493     90.29079     180.5099     360.7329      1.981     5.63     1175.013     63.59137     166.6421        14     1.246     0.931 -40.71   0
       130    875.8324    790.4872 307.5499026  +6.3763635      761.752     1220.407     1288.576     90.57697     180.2229     360.7688      1.818     4.09     1161.484     63.59137     108.3303         6     1.046     0.457 -62.05   0
       131    601.5690    790.5714 307.6639243  +6.3672171     717.7917     1153.535     1289.169      89.8598     180.1511     360.5176      1.794     4.52     1169.225     63.59137     108.2524         6     1.238     0.470 -46.38   0
       132    682.4915    788.6747 307.6303454  +6.3706917     1939.437     3746.415     3683.173     90.43399     180.6532     360.7688      1.934     5.53     1167.395     63.59137     243.3555        25     1.516     1.151 -47.27   0
       133    127.5492    789.2875 307.8610310  +6.3519406     838.2676     1547.575     1533.631     90.43399     180.2947     360.9122      2.155     5.56     1178.566     63.59137     114.2197         8     1.157     0.817  81.94   0
       134    416.3588    785.4435 307.7410967  +6.3631682     37942.28     77252.66     83988.05     90.14735     180.4382     360.6612      2.123     4.72     1175.051     63.59137     3657.148        80     1.813     1.586 -56.53   0
       135    533.9775    784.4648 307.6922315  +6.3674904     5118.987     10080.89     10388.91     90.00369     180.4382     360.6253      2.028     4.50     1171.089     63.59137       538.01        41     1.701     1.344 -64.09   0
       136    450.9927    783.0717 307.7267786  +6.3653022     3302.625       6555.3     7586.416      89.8598     179.9355     360.6971      2.069     4.91      1173.58     63.59137     361.8873        32     1.559     1.287 -49.96   0
       137    779.2277    780.9900 307.5903870  +6.3770804     9688.573     17268.99     17878.85     90.00369     180.2229     360.6253      1.895     3.99     1164.426     63.59137     1184.971        45     1.596     1.304 -52.50   0
       138    447.6194    776.4830 307.7284042  +6.3679116     1466.346     3083.267     3565.681     90.00369     180.0793     360.6971      2.242     6.59     1173.276     63.59137     184.3799        25     1.586     1.310 -32.74   0
       139      9.1866    777.6041 307.9106327  +6.3528083     965.5699     1559.451     1490.403     90.00369     180.0793     360.6253      1.653     4.76      1178.85     63.59137     136.0864         9     1.124     0.571  64.82   0
       140    800.9292    775.2161 307.5815594  +6.3801862     1011.485     1592.568     1313.833      89.8598     180.3665     360.6253      1.665     4.29     1163.687     63.59137     140.9824         9     0.995     0.818 -30.69   0
       141    137.2198    773.2271 307.8575565  +6.3588983     7967.707     16791.14     18556.62     90.00369     180.2229     360.6612      2.170     4.87      1177.99     63.59137     851.1141        56     1.755     1.580 -65.72   3
       142    129.6072    770.5690 307.8608116  +6.3597419     2058.865     4621.988     5495.222      89.8598     180.2229     360.5176      2.575     6.83     1177.917     63.59137     241.1395        35     1.951     1.332  77.12   3
       143    130.1881    763.6034 307.8608068  +6.3626388     1334.287     2408.721     2477.402     90.00369     180.0793     360.6253      1.973     5.59     1177.665     63.59137     171.8804        15     1.239     1.076  19.58   3
       144    145.4810    773.4217 307.8541156  +6.3590940     2385.244     4482.043     4810.333     90.14735     180.0793     360.6971      2.053     4.51      1177.99     63.59137     299.4218        28     1.387     1.329 -76.88   1
       145    924.7029    769.4132 307.5302951  +6.3866904      6142.25     9924.758     10673.03     90.29079     180.1511     360.4817      1.768     3.59     1159.747     63.59137     717.8838        34     1.452     1.155 -67.65   0
       146    973.8842    769.3000 307.5098511  +6.3883677      1355.15     2097.448     2731.698     90.43399      181.011     360.8764      2.210     4.73     1158.415     63.59137     203.0337        15     1.401     0.791 -53.61   0
       147    680.0323    766.6450 307.6321125  +6.3797106     1328.603      2547.15     2907.254     90.14735     180.5099     360.5894      1.994     5.21     1165.765     63.59137     200.5106        18     1.435     1.094 -51.75   0
       148    567.1762    766.5771 307.6790348  +6.3759849      1646.58     3195.345     2892.858      89.8598     180.2947     360.7329      1.996     5.79     1168.906     63.59137     181.7417        22     1.418     1.203 -37.29   0
       149    415.4207    765.6575 307.7421573  +6.3713106      925.869     1973.484     2488.129     90.00369     180.2947     360.5535      2.524     6.91     1173.911     63.59137      127.882        11     1.340     1.076  72.51   0
       150    918.8643    761.5585 307.5329875  +6.3897417     2890.537      4478.71     5210.338     90.43399     180.3665     360.8764      1.664     4.25     1159.621     63.59137     336.2047        22     1.497     0.890 -52.56   0
       151    979.3301    760.6310 307.5078791  +6.3921295     1814.142     2734.216      3016.67     90.29079     180.4382     360.7329      1.615     4.31     1157.672     63.59137     231.2996        14     1.237     0.808 -50.61   0
       152    948.3640    760.7892 307.5207484  +6.3910377     2525.872      4050.77     4250.252      89.8598     180.2229     360.5176      1.766     3.64     1158.699     63.59137     381.5963        21     1.322     0.973 -50.98   0
       153    671.6550    760.6918 307.6357966  +6.3818915     1108.633     2138.338     2475.439     90.29079     180.2947     360.9122      1.955     6.27     1165.552     63.59137     149.2996        15     1.481     1.041 -25.57   0
       154    818.9540    759.0704 307.5746106  +6.3874547     825.0822     1308.891     1156.701     90.43399     180.3665     360.7688      1.805     4.13     1162.077     63.59137     107.5187         7     0.901     0.539 -42.34   0
       155    243.8683    755.6490 307.8138172  +6.3697224     1333.721     2680.308     3416.326     90.43399     180.3665     360.7688      2.444     6.36      1177.33     63.59137     156.4545        19     1.473     1.208  -6.52   0
       156    893.7628    756.0165 307.5436108  +6.3911987     650.6625      1127.98     1123.152     90.00369     180.2229     360.4817      1.660     4.16     1160.058     63.59137      99.0835         5     1.008     0.531 -53.85   0
       157    936.9036    751.6211 307.5258224  +6.3944453     922.3912     1494.671     934.7858     90.29079     180.2229     360.5535      1.558     6.16     1158.648     63.59137     130.5388        12     1.408     0.757  13.61   0
       158    962.9909    748.6810 307.5150752  +6.3965247     2313.543     3783.705     4272.936     90.00369     180.0074     360.6253      1.816     4.01     1157.429     63.59137     262.9775        22     1.318     1.061 -68.58   0
       159    910.7208    749.6962 307.5367733  +6.3943722     975.6933     1583.599     1577.069     90.14735     180.7248     360.8764      1.719     5.42     1159.388     63.59137     115.4432         9     0.934     0.888 -52.94   0
       160   1004.8954    742.0860 307.4978747  +6.4006380     1842.301     2698.227     2904.604     90.43399      180.868     360.8405      1.578     4.33     1155.025     63.59137     240.3312        17     1.297     0.895 -74.61   0
       161    805.8891    740.8877 307.5806563  +6.3945325     959.6497     1971.775     1601.541     90.14735      181.011     360.8764      2.069     6.52     1161.176     63.59137     149.3842        13     1.655     0.758  88.20   0
       162    892.7414    737.7997 307.5446499  +6.3986905     1420.344     2431.233     2451.774     89.57133     180.0074     360.4099      1.826     4.64     1159.511     63.59137     159.4153        17     1.244     0.963 -53.06   0
       163    849.4553    729.2291 307.5629363  +6.4007949     1247.856     2221.282     1867.131     90.14735     180.5099     360.6971      1.797     5.44      1159.99     63.59137     174.6217        16     1.415     0.927 -39.14   0
       164     49.0138    728.3817 307.8957504  +6.3744743      1768.05     3505.417     3612.973     90.00369     180.0074     360.6612      2.097     5.85     1176.607     63.59137     248.2356        25     1.630     1.200  63.97   0
       165    112.6815    727.5450 307.8693104  +6.3769491     922.8041     1984.554     2049.104     90.43399     180.4382     360.8047      2.447     5.00     1176.263     63.59137     134.9481        10     1.012     0.983  56.46   0
       166    661.4498    716.7585 307.6415249  +6.3997015     4717.243     9144.717     9382.646     90.57697     180.4382     360.7329      2.059     4.70     1162.586     63.59137     465.1398        38     1.652     1.333 -58.74   0
       167    607.5861    716.5205 307.6639278  +6.3980084     1102.026     2114.084     2305.941     90.00369     180.1511     360.5176      2.150     6.80     1164.832     63.59137     134.2421        14     1.225     1.059 -63.69   0
       168    635.0104    712.4177 307.6526644  +6.4006156     1574.657     3247.273     4078.152     90.14735     180.0793     360.6253      2.487     7.00     1163.238     63.59137     172.4028        24     1.727     1.096 -59.48   0
       169    124.4552    712.9774 307.8649109  +6.3833605     2412.349     5229.905     6554.839     90.00369     180.4382     360.5535      2.473     5.48     1175.457     63.59137     406.2953        33     1.642     1.474  80.78   2
       170    998.2564    712.0144 307.5016484  +6.4128411     2333.432      3671.74     3831.111     89.71568     180.2947     360.4458      1.720     4.08     1154.118     63.59137     304.4688        18     1.338     0.874 -61.13   0
       171    778.1824    708.9998 307.5932528  +6.4067858     15279.46     28829.78     30765.57     90.00369     179.9355     360.4099      1.999     4.32     1159.553     63.59137     1709.067        60     1.768     1.395 -56.94   0
       172    908.0563    708.5402 307.5392693  +6.4112861     3198.042     5661.463     6129.588     90.57697     180.4382     360.8047      1.931     4.19     1157.331     63.59137     396.2908        27     1.401     1.199 -79.01   0
       173    477.8526    709.4397 307.7181060  +6.3966148      929.186     2084.108      1963.26     90.29079     180.4382     360.7329      2.082     7.16     1168.515     63.59137     133.8462        14     1.602     0.897 -11.86   0
       174    505.4137    709.1804 307.7066559  +6.3976399     581.3576      976.696     1194.516     90.14735     180.1511     360.6612      1.979     3.43     1167.438     63.59137      83.7937         5     0.781     0.435  69.20   0
       175    251.9097    702.7290 307.8122706  +6.3918520     3915.715     8897.132     9516.446     90.29079     180.7248     360.7688      2.223     5.59     1173.502     63.59137     420.0918        45     1.777     1.515 -69.45   0
       176    658.8094    701.8166 307.6431280  +6.4057864     4904.563     10244.66     11824.78     90.14735     180.1511     360.6612      2.196     4.84     1161.412     63.59137      514.161        45     1.666     1.498 -41.22   0
       177    918.4513    693.8358 307.5354432  +6.4177055      1011.09     1607.967     1605.597     90.29079     180.4382     360.6971      1.924     4.48     1156.154     63.59137     132.3506         9     1.136     0.636 -48.49   0
       178    730.3873    690.2556 307.6137583  +6.4129416     2767.193     5626.912     6538.153     89.71568     180.3665     360.4099      2.171     4.97     1159.411     63.59137     297.6891        34     1.520     1.429 -51.07   0
       179    996.7465    686.6755 307.5031302  +6.4232591     8152.276     13313.99      14038.3     90.43399     180.4382     360.7688      1.753     3.61      1153.36     63.59137     995.6544        37     1.470     1.210 -56.90   0
       180    935.2110    687.2592 307.5286965  +6.4209782     2102.903     3519.856     3652.729     89.71568     180.2947     360.4458      1.794     4.23     1155.256     63.59137     299.8475        20     1.319     1.036 -36.62   0
       181     16.4501    686.7322 307.9107052  +6.3905898     1267.863     2859.839     3009.878     90.29079     180.2947     360.7688      2.271     6.91     1177.036     63.59137     151.8911        22     1.551     1.261  24.30   0
       182     74.3649    681.8597 307.8867934  +6.3945401     17071.21     36447.15     40662.88     90.43399     180.4382     360.7329      2.213     4.85     1175.123     63.59137     1968.103        69     1.864     1.610 -65.38   0
       183    535.9992    682.0891 307.6948567  +6.4098499     1210.464     2808.122     3126.196     89.57133     179.8635     360.4458      2.210     6.96     1165.073     63.59137     147.3578        16     1.541     0.881  83.00   2
       184    924.7150    679.1073 307.5333355  +6.4239978     865.6763     1392.232      935.458     90.14735     180.9395     360.8764      1.683     5.40      1155.08     63.59137     102.9578         9     1.194     0.688 -55.29   0
       185    504.5307    680.0577 307.7080093  +6.4096413     859.7457     1613.669      1716.85     90.57697     180.3665     360.7329      2.004     5.78     1166.209     63.59137      103.189         9     1.190     0.790  -9.79   0
       186    720.0771    673.9730 307.6185953  +6.4193256     2514.918     4838.495     4677.364     90.29079     180.3665     360.7329      1.978     4.82     1158.551     63.59137     320.9934        25     1.497     1.128 -65.51   0
       187    742.1981    672.2081 307.6094573  +6.4207897     3037.716     5967.607     6658.035     89.71568     180.0793     360.5176      2.051     4.66     1158.265     63.59137     343.1918        34     1.659     1.231 -59.64   0
       188    573.4296    670.2073 307.6796962  +6.4160043     2151.539     4490.435     5001.717     90.00369     180.2229     360.5176      2.211     5.37     1162.438     63.59137      227.021        31     1.625     1.278 -37.07   0
       189    409.5557    670.4570 307.7478225  +6.4104429      875.842     1906.246     2442.047     90.29079     180.4382     360.7688      2.112     5.31     1167.532     63.59137     102.5022         9     0.969     0.821 -13.24   0
       190   1014.9114    668.0852 307.4962037  +6.4315410     4592.907      7474.15     7638.445     90.14735     180.7248     360.9122      1.712     3.72      1152.12     63.59137     625.7018        29     1.345     1.168 -57.08   0
       191    234.8262    669.6562 307.8204961  +6.4049439     989.9697     2113.551     2274.736     90.00369     180.5099     360.5535      2.172     5.98     1170.998     63.59137     137.4249        11     1.167     0.861  -4.18   0
       192    980.2930    667.0460 307.5106331  +6.4308231         7268     11820.34     12189.29     90.29079     180.3665     360.9122      1.739     3.77     1152.979     63.59137     936.8793        37     1.492     1.148 -54.94   0
       193    318.2219    668.4402 307.7858646  +6.4082300     890.6994     1823.946     1586.924     90.00369     180.2229     360.5535      1.987     5.30     1170.924     63.59137     104.9482         7     0.922     0.859  48.72   0
       194    700.7000    665.5022 307.6269384  +6.4221810     708.7836     1259.624     1309.757     90.43399      180.868     360.5894      1.758     4.87     1158.139     63.59137     88.20972         6     0.951     0.706 -23.74   0
       195    426.1688    661.4297 307.7412212  +6.4147259     1805.929     4223.166     5072.736      89.8598     180.1511     360.4817      2.401     6.38     1166.793     63.59137     186.4969        33     1.684     1.400 -69.27   0
       196    139.1108    660.7889 307.8605917  +6.4054092     15187.06     33999.48     37410.96     90.14735     180.0793     360.5535      2.258     5.19     1172.629     63.59137     1724.863        67     1.837     1.632 -73.02   0
       197    807.3749    661.1696 307.5827302  +6.4275145     965.0961     2057.115     2276.081      89.8598     180.2947     360.5894      2.318     6.29     1156.313     63.59137     131.9553        10     1.432     0.825 -76.33   0
       198    975.2498    650.0181 307.5133041  +6.4376905      6023.36     10829.57     11382.72      89.8598     180.5099     360.5176      1.934     3.77     1152.105     63.59137     778.1273        41     1.458     1.443 -65.01   0
       199     20.4358    648.6805 307.9103430  +6.4064419     698.5217     1297.447      948.625     90.29079     180.5099     360.8047      1.934     5.91     1175.851     63.59137     101.5394         8     1.087     0.903  44.86   0
       200    175.4892    641.7924 307.8461126  +6.4144723      1496.92     4053.904     4692.897      89.8598     180.0793     360.4817      2.664     8.28     1171.464     63.59137     226.9861        23     1.984     1.128  76.02   2
       201    568.8981    645.4802 307.6824172  +6.4260685     31366.27     68716.53     75017.57     90.29079      180.868     360.8405      2.237     5.09     1161.172     63.59137     3186.688        83     1.876     1.628 -57.02   0
       202     69.5355    637.1946 307.8903204  +6.4128294     893.5613     2009.334     1972.011     89.71568     180.1511     360.5176      2.260     7.60     1173.235     63.59137     137.6213        13     1.625     0.995  59.56   0
       203    466.2051    629.2763 307.7256645  +6.4293428     38250.55     88358.13     97908.53     90.00369     179.8635     360.6253      2.301     5.30     1165.194     63.59137     3585.762        91     1.935     1.703 -60.76   0
       204     10.1917    630.7454 307.9152123  +6.4135079     1163.442     2256.462     2435.209     89.71568     180.3665     360.4458      2.068     6.59     1175.437     63.59137     187.3625        21     1.540     1.333  54.48  16
       205    651.1559    626.0784 307.6488714  +6.4368202     652.9037     1226.402     766.6005     90.29079     180.4382     360.8047      1.787     4.54     1156.878     63.59137     104.0121         6     1.089     0.538 -67.11   0
       206    142.3772    623.8926 307.8604877  +6.4207600      788.293     1423.905     739.7223     90.43399     180.2229     360.5894      2.016     3.87      1171.23     63.59137     124.8152         6     0.920     0.468 -53.10   2
       207    611.7254    620.7296 307.6654475  +6.4377183     734.4117     1502.392     1113.201     90.71973     180.5816     360.7688      2.206     4.32     1158.185     63.59137     81.03076         7     1.186     0.449  30.83   0
       208    311.7417    618.7653 307.7902444  +6.4285345     1269.492     3170.332     3309.287     90.29079     180.4382     360.7329      2.344     7.14     1167.535     63.59137     178.1884        25     1.590     1.435 -82.22   0
       209    738.2310    612.7213 307.6131169  +6.4452326     3770.513     7640.315     7615.875     90.29079     180.4382     360.7329      2.069     4.86     1154.961     63.59137     391.5615        37     1.665     1.358 -54.92   0
       210    791.7176    607.9783 307.5910369  +6.4489687     10060.13      19715.6     21267.24     90.14735     180.0793     360.6612      2.045     4.56     1154.649     63.59137     1059.447        51     1.717     1.411 -55.07   0
       211    615.6072    606.1348 307.6643272  +6.4438767     1670.293     3644.837     3094.572      89.8598     180.1511     360.5894      2.105     5.87     1157.319     63.59137     188.3363        24     1.383     1.273 -34.72   0
       212    534.1693    607.2693 307.6981509  +6.4406976     864.2065     1945.659     2655.929     90.29079     180.4382     360.7329      2.689     7.39     1160.351     63.59137     124.1074        12     1.413     1.083  46.76   0
       213    932.2772    602.4102 307.5327779  +6.4559334     963.5566     1422.229     1848.886     90.00369     180.0074     360.5894      1.612     4.54     1150.941     63.59137     132.3612         8     1.002     0.584 -77.80   0
       214    228.6763    600.2441 307.8254102  +6.4334126     933.5311      1830.69     1968.475     90.29079     180.5099     360.8047      2.144     6.94     1169.422     63.59137     152.9482        12     1.384     0.976 -28.34   0
       215    867.8625    591.0837 307.5599450  +6.4584758     2135.104     3904.363      4373.52     90.57697     180.5099     360.7329      1.952     4.71     1151.918     63.59137     236.5532        25     1.502     1.090 -62.57   0
       216    826.1857    588.5835 307.5773594  +6.4581254     1941.534     3746.983     3501.017     90.14735     180.0793     360.6971      1.985     5.68      1152.58     63.59137     209.3805        23     1.484     1.055 -44.22   0
       217    254.7550    583.8498 307.8151238  +6.4410559     4553.509     10680.71     12125.34     90.43399     180.2947     360.7688      2.395     5.34     1166.771     63.59137     516.9281        52     1.844     1.647 -66.80   0
       218    806.9968    579.8966 307.5856319  +6.4610770     111876.2     225955.9     245416.8     90.14735     180.0793     360.4099      2.124     4.63     1152.196     63.59137     11193.62       146     2.128     1.648 -38.38   0
       219    188.8709    578.4086 307.8427024  +6.4411031     33966.99      82808.4     94167.95      89.8598     179.9355     360.6253      2.398     5.61     1168.642     63.59137     3743.994        99     2.016     1.780 -57.92   0
       220    112.8571    574.7477 307.8744322  +6.4400746     3848.971     8895.514     10109.19     90.43399     180.4382     360.7688      2.312     5.39     1169.655     63.59137     413.8833        44     1.706     1.570 -79.11   0
       221    977.9933    571.3075 307.5148168  +6.4702982     1117.224     1752.773     1362.506     90.00369     180.0793     360.5535      1.673     5.16     1147.027     63.59137     172.1158        12     1.069     0.903 -81.81   0
       222    843.5758    567.2499 307.5708485  +6.4675159     3263.338     5941.312     6066.565     90.00369     180.5099     360.6612      1.882     4.27     1150.403     63.59137     337.4584        30     1.435     1.247 -62.61   0
       223    362.2818    565.4739 307.7710383  +6.4522354     9647.469     23708.67     26931.01     90.71973     180.7964     360.8405      2.432     5.79      1162.67     63.59137     951.8279        68     1.936     1.728 -60.21   0
       224    164.5700    564.2325 307.8532882  +6.4461471     1253.402     2869.683     3298.242      89.8598     180.1511     360.4458      2.491     8.14     1168.765     63.59137      149.269        22     1.554     1.379 -40.92   0
       225    797.5162    560.3438 307.5902345  +6.4688398     4051.648      7963.69     9079.151     90.43399     180.4382     360.8764      2.095     4.63     1150.676     63.59137     403.9454        37     1.641     1.312 -59.10   0
       226    528.5919    560.2703 307.7020615  +6.4599275      3791.75     8911.764     9727.822      89.8598     180.0074     360.6253      2.274     5.57     1157.956     63.59137     381.5635        45     1.748     1.551 -64.10   0
       227    101.2271    562.3625 307.8796889  +6.4448019     572.6981     1137.265     1383.195     90.00369     180.2229     360.5894      2.181     4.33     1169.364     63.59137     84.70251         5     1.138     0.470   5.54   0
       228    175.6734    553.5391 307.8490349  +6.4509355     3818.901     9426.055     10879.91     90.57697     180.4382     360.8047      2.471     5.89     1167.791     63.59137     428.3352        50     1.876     1.653 -61.50   0
       229    573.2963    553.5061 307.6837017  +6.4642101     1619.525      3583.14      3512.93     90.43399     181.0825     360.6612      2.203     6.22     1155.554     63.59137      172.236        26     1.575     1.260 -65.72   0
       230    813.4633    553.3298 307.5838402  +6.4722668     985.5227     1879.794     1655.845     90.43399     180.4382     360.8047      1.915     6.24      1149.83     63.59137     117.2406        12     1.340     0.816 -85.01   0
       231    270.8596    550.0416 307.8095755  +6.4555597     47949.15     119962.5     135732.2     90.43399     180.4382     360.8405      2.425     5.80     1163.187     63.59137     5034.338       109     2.020     1.831 -64.81   0
       232     47.3116    552.2044 307.9024517  +6.4471946     3043.585     7102.388     7747.283      89.8598     180.0793     360.4099      2.257     5.47     1170.201     63.59137     354.7194        40     1.707     1.528 -68.51   0
       233    793.7708    542.2689 307.5924025  +6.4761824     11443.91     23126.52     24824.53     90.14735     180.4382     360.6971      2.114     4.71     1149.329     63.59137     1160.561        56     1.747     1.487 -56.80   0
       234    255.2801    545.3300 307.8162134  +6.4569859     780.2043     625.8881     657.5397     90.71973     180.7964     360.7329      1.269     5.33     1163.369     63.59137     108.3677         9     1.439     0.557 -36.62   0
       235    969.5761    543.6280 307.5192502  +6.4814540     1300.037     2217.803     1867.993      89.8598     180.2947     360.5894      1.832     4.91     1145.577     63.59137     160.1771        16     1.274     0.925 -59.53   0
       236    497.5390    540.7755 307.7156341  +6.4669468     23666.45     59058.81     68642.59     90.00369     180.3665     360.6612      2.484     5.62     1157.956     63.59137     2106.739        93     2.036     1.874 -41.43   0
       237    657.4515    535.6028 307.6493137  +6.4744060     1854.296     4299.514      5310.23     89.71568     180.1511     360.3022      2.542     6.14     1151.525     63.59137     206.5342        33     1.634     1.474 -66.25   0
       238    210.4964    537.3338 307.8351062  +6.4587934     1076.431     2417.209     2754.147     90.43399     180.5099     360.8047      2.350     8.75     1164.811     63.59137     127.7794        17     1.674     1.305   1.82   0
       239     46.9860    537.4365 307.9030895  +6.4532842     766.6049     1527.092     1563.525      89.8598     180.2229     360.5176      2.189     4.80     1169.571     63.59137     116.3484         7     0.955     0.685  89.54   0
       240    719.4302    534.4942 307.6235785  +6.4769244     876.8778     1758.599     2053.501     90.57697     180.1511     360.6971      2.107     7.16     1150.288     63.59137     123.1564        12     1.453     0.987 -36.24   0
       241    142.0167    528.4489 307.8638820  +6.4601753     14826.22     35659.75     39303.23      89.8598     180.5099     360.4817      2.344     5.47     1167.221     63.59137     1689.436        68     1.885     1.701 -69.69   0
       242    395.3940    531.1821 307.7584329  +6.4675057      1103.41     2501.744     2922.439     90.00369     180.0793     360.5894      2.246     7.54      1159.17     63.59137      150.967        20     1.509     1.191  33.63   0
       243    326.8925    529.8218 307.7869629  +6.4657827     2142.955     5380.081     6084.163     90.43399     180.2229     360.5535      2.415     6.68     1160.561     63.59137      226.672        40     1.751     1.625 -65.44   0
       244    506.7184    529.1288 307.7122116  +6.4720639      1334.09     3067.852     3192.482     90.71973     180.7964     360.8047      2.360     8.14     1156.484     63.59137     150.0996        23     1.531     1.217 -76.89   0
       245    869.6163    528.1885 307.5613385  +6.4845170     1167.868      2274.75     2784.616     90.14735     180.0793     360.6612      2.293     5.32     1146.791     63.59137     159.5127        12     1.206     1.033 -70.72   0
       246    107.5311    526.8089 307.8782768  +6.4596997     1612.671     3747.103      3886.78      89.8598     180.1511     360.6253      2.318     6.43     1168.117     63.59137     189.6007        27     1.494     1.373 -48.62   0
       247    344.0931    523.7691 307.7800161  +6.4688570     666.1702     1335.161     1592.714     90.57697     180.2229     360.7688      2.122     6.98     1159.925     63.59137        93.62        10     1.549     0.881  49.75   0
       248    542.0128    515.6630 307.6979914  +6.4788020     616.0123      1389.88     1659.983      89.8598     180.2229     360.5176      2.195     4.54     1154.139     63.59137     85.56982         5     1.038     0.564 -75.40   0
       249      6.3006    512.8234 307.9208439  +6.4620900      15395.8     35345.54     39123.12     90.57697     180.1511     345.2631      2.318     5.28     1169.162     63.59137     1678.563        70     1.896     1.687 -71.70  16
       250    438.8881    509.4923 307.7410825  +6.4779158     23603.27      58709.7     65284.46     90.43399     180.9395     360.8764      2.403     5.80     1156.418     63.59137     2402.681        83     1.977     1.757 -58.48   0
       251    646.8380    509.0608 307.6546250  +6.4850178     7273.668     16628.56     18372.24     90.43399     180.5099     360.7688      2.272     5.33     1150.886     63.59137     682.7118        52     1.789     1.564 -57.95   0
       252    204.1484    507.1927 307.8387697  +6.4710325     10595.28     27174.15     31062.73      89.8598     180.2229     360.3381      2.457     5.75     1162.989     63.59137     1068.825        72     1.914     1.837 -87.69   0
       253    287.6428    509.5918 307.8039701  +6.4728298     748.0079     1641.208     2377.917      89.8598     180.2229     360.4817      2.359     5.63     1159.486     63.59137      94.9071         7     1.075     0.832 -21.43   0
       254    570.0000    506.0460 307.6866790  +6.4837066     1312.737     2032.451     2877.154     89.57133     180.0074     360.2303      1.971     7.49     1152.639     63.59137     173.8617        13     1.821     0.877 -72.65   3
       255    567.6366    505.3057 307.6876869  +6.4839337     1487.172     2704.021     3498.905     90.57697     180.2947     360.8764      2.191     6.34     1152.619     63.59137     174.9255        19     1.649     0.879 -86.29   2
       256    171.2265    508.0916 307.8524284  +6.4695611     1026.666     1780.654     2143.224     90.57697     180.1511     360.5894      1.970     4.72     1164.505     63.59137     136.7013        11     1.098     0.781 -61.03   0
       257    820.3788    507.6728 307.5825063  +6.4913580     712.4464     1368.611     1750.504     90.00369     180.2229     360.6971      1.969     6.03     1146.674     63.59137     114.3055         6     1.183     0.866  63.23   0
       258    980.8696    506.9130 307.5157918  +6.4969960     925.2615     1790.529     1807.837     90.57697     180.7248     360.8047      2.187     6.42     1142.361     63.59137     111.3542        11     1.474     0.786 -33.93   0
       259    942.4789    502.8695 307.5318931  +6.4973936      3758.09     6765.409     7317.785     90.71972     180.7248     360.7329      1.926     4.43      1143.95     63.59137     396.0674        34     1.590     1.286 -69.84   0
       260    615.7213    501.5053 307.6678201  +6.4871039     3952.348     9167.145     9982.633     90.14735     180.7248     360.8047      2.274     5.59     1151.415     63.59137     373.9899        43     1.697     1.549 -42.98   0
       261    967.2832    522.7572 307.5209075  +6.4900001     4359.188     7421.894     7091.924     90.43399     180.4382     360.6971      1.789     4.14      1144.19     63.59137     505.0256        30     1.488     1.142 -60.48   0
       262    964.9147    495.1020 307.5228250  +6.5013464     2729.166     5086.903      5577.47     90.43399     180.9395     360.8405      1.981     4.55     1142.262     63.59137     333.2689        29     1.586     1.130 -62.10   0
       263    527.9778    492.9077 307.7045982  +6.4877350     4247.351     10319.65      11855.6     90.43399     180.2229     360.5894      2.400     5.84     1152.586     63.59137     431.1638        53     1.877     1.656 -80.17   0
       264    374.1664    492.3590 307.7685765  +6.4828357      1324.69     3095.767     3860.832     90.14735     180.4382     360.5894      2.510     6.78     1156.829     63.59137     180.8577        22     1.621     1.144  15.16   0
       265    884.1918    488.5045 307.5566167  +6.5013947     2474.665     4499.248     5301.957     90.14735     180.0074     360.5176      2.058     4.47     1143.717     63.59137     260.7041        26     1.417     1.184 -53.63   0
       266    892.6614    483.0057 307.5532801  +6.5039473      1167.28       1979.9     2366.957     89.71568     180.2229     360.5176      1.921     6.22     1143.251     63.59137     137.8833        14     1.493     0.730 -58.12   3
       267    890.4963    482.5256 307.5541967  +6.5040738     984.2478     1826.142     2580.869     90.14735     180.5816     360.8047      2.225     4.89     1143.255     63.59137     151.5793         9     1.330     0.509 -73.93   3
       268    931.1126    481.4966 307.5373408  +6.5058462     881.8806     1745.912     2070.412     90.43399      180.868     360.8047      2.313     7.14     1142.968     63.59137     126.5721        13     1.301     1.099  69.70   0
       269    111.2892    482.1522 307.8782329  +6.4782727     598.2263     1238.297     1229.646     90.43399     180.2947     360.9481      2.317     4.72     1166.183     63.59137     106.0215         5     0.873     0.725 -17.59   0
       270    715.8665    478.8838 307.6269403  +6.4997793     1885.412     4112.212     4693.547     90.71972     180.7248     360.8405      2.239     6.57     1148.679     63.59137      201.671        28     1.537     1.280 -29.94   0
       271     78.5543    478.1027 307.8919821  +6.4788506     1212.277     2398.839     2397.498     90.43399     180.2947     360.9481      1.893     7.13     1167.018     63.59137     149.5481        15     1.379     1.144  53.67   0
       272    387.9799    477.4016 307.7633397  +6.4894753     1691.117     2804.278     3434.591     90.00369     180.0074     360.4458      1.868     5.29     1155.224     63.59137     218.1765        19     1.586     0.841 -67.91   3
       273    385.4165    476.3884 307.7644401  +6.4898083     1620.487     3019.441      3780.62     90.14735     180.0793     360.6612      1.939     7.03     1155.203     63.59137     185.6033        18     1.766     0.785 -71.62   3
       274    614.1801    473.7616 307.6693999  +6.4985138     5955.463     13853.76     15825.99     90.00369     180.2229     360.4817      2.351     5.69     1150.104     63.59137     543.8685        57     1.925     1.599 -56.44   0
       275    777.1511    469.9777 307.6017559  +6.5054948     10730.61      22825.7     25805.04     90.00369     180.5099     360.6612      2.229     5.18     1146.135     63.59137     1047.741        66     2.105     1.509 -53.17   0
       276    297.1195    470.2354 307.8013656  +6.4894042     1190.816     3259.304     3320.937     90.29079     180.5099     360.8047      2.290     8.88     1156.137     63.59137     155.8613        27     1.643     1.338  50.19   0
       277    381.1045    467.4461 307.7665365  +6.4933586     742.9368     1572.723     1428.091     90.43399     180.3665     360.9481      2.068     6.40       1154.4     63.59137     102.3108        10     1.715     0.670 -67.57   0
       278    805.9802    467.1860 307.5898614  +6.5076055     833.9517     1693.729     1424.564     90.14735     180.1511     360.6612      1.984     7.25      1144.82     63.59137      111.902        11     1.383     1.065   1.33   0
       279    961.8074    465.2563 307.5251237  +6.5135731     1524.804     2785.935     2547.721     89.71568     180.2947     360.5176      1.907     4.77     1140.157     63.59137     196.1787        20     1.269     1.095 -55.14   0
       280    114.5163    462.4950 307.8775595  +6.4865009     2399.674      6295.51       7064.6     90.29079      180.868     360.9122      2.486     6.77      1164.44     63.59137     317.3815        39     1.707     1.614 -33.17   0
       281    752.7211    461.2002 307.6122119  +6.5083093     1289.445     2698.855     3358.007     89.57133     179.7196     360.4817      2.231     7.73     1146.504     63.59137     168.2982        21     1.462     1.143  16.71   0
       282   1016.0717    459.6914 307.5027446  +6.5176706     3419.926     6666.906     7359.865     90.29079     180.6532     360.7688      2.047     4.51     1136.846     63.59137     361.6549        34     1.552     1.327  -3.00  16
       283    350.7159    456.8848 307.7795315  +6.4967078     1839.875     4537.436     4579.011     90.14735     180.5816     360.8405      2.333     6.83     1154.469     63.59137     210.7419        32     1.614     1.479  46.03   0
       284    271.1553    458.0705 307.8125753  +6.4935627     666.3434     1379.849     2019.019     90.43399     180.4382     360.7688      2.001     4.05      1156.27     63.59137     99.50842         6     0.967     0.485  53.97   0
       285    705.9794    454.7527 307.6318678  +6.5094194     961.8755      2040.77     1862.306     90.00369     180.4382     360.5894      2.082     7.58     1146.949     63.59137     104.9594        15     1.458     1.101  68.29   0
       286    832.3674    445.1536 307.5796320  +6.5175835     1032.783     2030.539      2296.92     90.14735     180.4382     360.6612      2.174     6.35     1143.002     63.59137     130.4281        12     1.281     0.883 -49.71   0
       287    818.1970    443.6975 307.5855742  +6.5177146     1435.071     2806.176     2715.087     90.14735     180.0793     360.4099      2.021     6.19     1143.341     63.59137     194.4357        20     1.465     1.088 -41.45   0
       288    715.4725    441.8390 307.6283566  +6.5150698     9274.968     20343.08     23000.28     90.29079     180.4382     360.8405      2.264     5.18      1145.88     63.59137     847.6227        63     1.846     1.678 -52.77   0
       289    636.4614    437.9540 307.6613458  +6.5140474     1558.559     3830.306     4332.334     90.29079     180.2947     360.8047      2.405     7.07     1146.615     63.59137     156.5331        32     1.650     1.482 -77.86   0
       290    609.0090    433.1171 307.6729258  +6.5151322     8453.257     22242.67      29597.1     90.00369     180.0793     360.5894      2.854     7.06     1146.729     63.59137     850.1475        87     2.559     1.815  33.95   0
       291    940.8409    431.6389 307.5349770  +6.5267658     2971.564     5716.557     5853.448     90.14735     180.5099     360.6253      2.002     4.73     1138.823     63.59137     311.6855        31     1.422     1.343 -59.01   0
       292    379.9867    427.9208 307.7683420  +6.5096493     14977.78     39491.05      45261.4     90.00369     180.1511     360.5176      2.477     6.21     1150.488     63.59137     1529.793        80     1.992     1.804 -58.70   0
       293    896.4114    427.4899 307.5535942  +6.5270061     1210.572     2182.659     2709.714     90.14735     180.0793     360.5535      2.059     7.19     1140.411     63.59137     148.2856        16     1.367     1.058 -46.53   0
       294    126.3878    427.3213 307.8738191  +6.5014278     1401.691     3253.297     3746.628     90.00369     180.0793     360.5535      2.327     7.68      1161.51     63.59137     142.5104        28     1.635     1.382 -29.18   0
       295    909.4753    422.0651 307.5483443  +6.5296806     3867.765     7157.378     7596.722     90.57697     180.4382     360.7329      1.955     4.49     1139.629     63.59137     453.5048        33     1.482     1.333 -48.53   0
       296     60.6158    422.7065 307.9013261  +6.5011341     944.1071     2049.663     2419.276     90.14735     180.2229     360.5894      2.578     6.94     1163.661     63.59137     129.5511        14     1.260     1.070 -64.43   0
       297    237.5592    418.5950 307.8278865  +6.5087479       7396.1     19225.77     21308.64     89.57133     180.0793     360.4817      2.461     6.13     1156.147     63.59137     965.2461        57     1.876     1.723 -70.07   0
       298    960.7069    410.3175 307.5274344  +6.5362327     751.5103      1452.48     2263.839     90.14735     180.7964     360.9122      2.579     5.10     1136.053     63.59137     123.4263         7     1.130     0.651   2.16   0
       299    348.8112    409.4021 307.7819347  +6.5162594     522.8825      1201.08     1061.917     90.00369     180.0793     360.5176      1.957     3.66     1150.393     63.59137     79.91162         5     1.005     0.383  84.94   0
       300    137.7995    407.0906 307.8697617  +6.5101665     2771.878     7278.985     7499.867     89.57133     179.8635     360.5176      2.339     6.31     1160.291     63.59137     314.3385        42     1.736     1.653  68.87   0
       301    161.5530    403.0055 307.8600229  +6.5126482     1233.275     3000.317     3939.485     89.71568     180.2229     360.4099      2.910     8.34     1159.512     63.59137     172.5917        21     1.843     1.563  75.13   2
       302    244.1554    405.3218 307.8255944  +6.5144514     773.7564     1366.402     1894.743     90.29079     180.4382     360.7688      1.968     4.25     1154.596     63.59137     107.7793         6     0.788     0.653 -76.86   0
       303    385.0000    397.9048 307.7672754  +6.5222161     836.3909     1828.441     2703.481      89.8598     180.0074     360.3022      2.812     3.15     1147.578     63.59137     123.5404         8     0.844     0.731 -89.24   2
       304    382.6509    395.6915 307.7683274  +6.5230521     744.7919     1911.776     2259.877     90.29079     180.2229     360.9839      2.695     3.05     1147.538     63.59137     133.6929         5     0.709     0.614  33.90   3
       305    970.7866    396.5604 307.5237063  +6.5422501     636.3863     1369.425     1238.925      89.8598     180.2229     360.4817      2.037     3.28     1134.652     63.59137     94.65149         5     0.733     0.452  20.79   0
       306    437.1349    391.3203 307.7458178  +6.5266745     3851.515     10019.79     11221.37     90.71973     180.5099     360.7329      2.480     6.50     1144.815     63.59137     386.9691        49     1.858     1.652 -67.19   0
       307     33.5697    392.2483 307.9136093  +6.5128109     2039.051     4949.365     5745.046     90.00369     180.5099     360.6612      2.461     6.62     1163.178     63.59137     227.8116        37     1.814     1.445 -47.91   0
       308    770.0312    390.2362 307.6074113  +6.5382004     1316.023     3084.631     3404.748     90.00369     180.1511     360.4817      2.333     7.74     1141.085     63.59137     147.1599        20     1.577     1.116  53.79   2
       309    777.5891    388.4692 307.6043279  +6.5391814     8123.962     17469.46     19473.77      89.8598     180.2229     360.5894      2.221     5.07     1140.817     63.59137      760.427        52     1.784     1.504 -56.81   2
       310   1021.4640    383.4214 307.5030730  +6.5493576     3027.456     5304.408     5263.507     90.00369     174.0128     309.3653      1.893     4.44     1130.765     63.59137     331.1329        28     1.493     1.152 -57.08  24
       311    485.4368    374.7271 307.7262930  +6.5351389     1610.318     3949.412     4476.688     90.29079     180.4382     360.8405      2.362     7.71     1142.743     63.59137     180.3816        33     1.695     1.525 -11.78   0
       312    456.5292    375.0304 307.7383046  +6.5340504       1107.8     2931.241     2913.988     90.29079     180.4382     360.7329      2.423     7.20      1143.21     63.59137     141.5747        16     1.668     0.870  86.66   2
       313    842.9328    371.3722 307.5777297  +6.5484143     22776.19     47498.73     52535.44     90.00369     180.3665     360.6612      2.168     4.82     1138.405     63.59137     2274.044        77     1.884     1.583 -67.56   0
       314    614.6454    363.8640 307.6729257  +6.5439287     1410.135     3275.479     3669.606     90.43399     180.3665     360.8047      2.314     8.18     1140.503     63.59137     151.9954        23     1.448     1.293 -12.68   0
       315    699.4531    357.4317 307.6378729  +6.5494067     47885.46     110159.4     121682.3     90.29079     180.5099     360.6612      2.308     5.44     1139.305     63.59137     4215.552        98     1.944     1.723 -53.31   0
       316    857.6391    359.3951 307.5720179  +6.5538503     942.2775     1710.446      1784.17     89.42674     180.1511     360.4817      1.933     6.98     1137.193     63.59137     135.0881        13     1.429     0.955 -41.84   0
       317    561.8887    354.2840 307.6951908  +6.5461303     1520.071     3819.522     4653.562     90.14735     180.6532     360.8764      2.502     7.72     1139.847     63.59137     172.9708        28     1.649     1.407  69.41   0
       318     99.3754    353.3584 307.8875677  +6.5310778     3570.632     8775.433     9144.021     90.00369     180.2947     360.5176      2.361     5.80     1160.333     63.59137     415.3107        47     1.890     1.560 -58.78   0
       319     79.4876    356.3238 307.8957372  +6.5291875     730.7769     1677.865     1942.912     90.43399     180.7964     360.8764      2.277     5.72     1160.644     63.59137     101.9692         9     1.972     0.467  -0.65   0
       320    546.5002    351.0219 307.7017011  +6.5469656     3365.955     6082.701     6650.418     90.43399     180.1511     360.5176      1.942     5.10     1139.647     63.59137     408.4113        22     1.714     0.848 -70.33   3
       321    544.0000    351.0122 307.7027412  +6.5468863     3219.241     6477.322     7289.685      89.8598     180.0074     360.5176      2.220     7.28     1139.674     63.59137     354.7699        26     2.095     0.952 -84.66   3
       322    273.6593    349.3440 307.8152262  +6.5385608      1248.29     2500.162     2760.867     90.57697     180.4382     360.8047      2.120     7.03     1149.946     63.59137      140.947        17     1.517     0.912  58.90   3
       323    275.7584    347.7141 307.8144086  +6.5393043     1287.655     2129.105     2412.687     90.43399     180.3665     360.7688      1.928     7.10     1149.842     63.59137     160.5387        14     1.412     0.999  44.08   3
       324    408.2087    345.6486 307.7593961  +6.5445771     13448.92     35866.23     41015.72      89.8598     180.2229      360.374      2.501     6.19     1142.349     63.59137     1465.781        76     1.980     1.814 -54.22   0
       325    517.7189    342.9483 307.7139443  +6.5493423     639.0997     1386.833     2125.108     90.43399     180.4382     360.7688      2.208     3.84     1139.453     63.59137     85.07434         5     0.841     0.502  35.04   0
       326    497.1807    336.0921 307.7227182  +6.5514904     4562.204     11959.53     13240.48     90.29079     180.1511     360.5894      2.457     6.45     1139.209     63.59137      511.698        53     1.874     1.683 -46.82   0
       327    766.1144    334.6532 307.6109188  +6.5610321     2102.261     4731.844      5275.91     90.43399     180.3665     360.9481      2.312     6.14     1136.785     63.59137     228.8082        33     1.647     1.414 -67.56   0
       328    921.3949    334.3096 307.5463484  +6.5663289     705.7224     1117.205     1336.658      89.8598     180.0793     360.4458      1.902     4.66     1133.091     63.59137     110.3862         6     1.047     0.588 -31.18   0
       329    387.2434    320.2977 307.7689751  +6.5543504     3844.686     10160.63     11768.29     90.43399     180.3665     361.0198      2.539     6.07     1142.126     63.59137     409.4164        55     1.954     1.684 -50.93   0
       330    242.8999    321.2519 307.8289724  +6.5491383     1134.371     3210.515     3220.945     90.43399     180.4382     361.0198      2.524     9.54     1149.776     63.59137     123.2235        25     1.642     1.546 -70.59   0
       331    754.9139    315.9706 307.6162086  +6.5683779     33374.98     75112.25     82527.82     90.57697     180.0793     360.6253      2.274     5.28     1135.285     63.59137     3166.965        85     1.876     1.674 -53.21   0
       332    427.4637    316.3917 307.7523805  +6.5573052     1013.302      2176.89     2440.112      89.8598     180.1511     360.5535      2.145     5.83     1139.887     63.59137     157.9565        11     1.602     0.597 -44.29   2
       333    425.1465    314.5719 307.7534059  +6.5579797     1034.899     1859.621      2040.54     90.14735     180.5816     360.6612      1.923     5.83     1139.912     63.59137     126.3896        10     1.348     0.710 -65.95   3
       334    989.5382    313.0017 307.5187255  +6.5773910     1283.819     2252.813     1927.528     89.71568     180.2229     360.4458      1.764     4.46     1128.212     63.59137     170.9161        14     1.118     0.909  69.79   0
       335    930.6212    312.0508 307.5432622  +6.5758303      1747.36     3516.636     3474.945      89.8598     180.5099     360.6253      2.046     6.04     1130.695     63.59137     203.8755        25     1.566     1.221 -50.36   0
       336    464.5191    312.2003 307.7371116  +6.5602718     637.7945     1400.036     1912.999     89.57133     179.8635     360.4458      2.731     4.77     1138.022     63.59137     96.82922         6     1.317     0.489 -85.29   0
       337    414.9896    311.5533 307.7577324  +6.5588880     939.3262     2079.347      2356.43      89.8598     180.2229      360.374      2.484     5.47     1140.194     63.59137     118.6006        10     1.269     0.664  68.82   2
       338    413.0215    313.6685 307.7584792  +6.5579486     651.4272      1259.98     2009.486     90.00369     180.3665     360.6971      1.679     3.50     1140.405     63.59137      94.8689         5     0.831     0.426  19.87   2
       339    834.8118    305.0034 307.5833488  +6.5755623      828.564     1774.782     2101.289     90.00369     180.0793     360.6253      2.104     6.00     1133.468     63.59137     107.4703        10     1.209     0.839  58.26   0
       340    190.4042    302.3960 307.8514449  +6.5551735     1255.316     3182.057     3318.265     89.71568     179.9355     360.5535      2.423     8.56     1152.551     63.59137     162.6553        23     1.695     1.207 -88.04   0
       341    753.3323    300.6270 307.6173851  +6.5746639     3707.289      8370.28     9650.904     90.00369     180.2947     360.6612      2.300     5.46     1134.061     63.59137     366.6257        43     1.736     1.499 -59.22   0
       342    769.6179    298.4229 307.6106862  +6.5761156     1747.663      3517.06     3553.668     90.14735     180.3665     360.6971      2.038     6.19     1133.563     63.59137     178.6072        26     1.513     1.273 -72.97   0
       343    359.8164    293.2964 307.7812979  +6.5645897     966.1617     2857.025     3581.567     90.29079     180.2229     360.5894      3.032    10.27     1142.067     63.59137     122.6281        22     2.097     1.511  42.87   0
       344   1007.8506    289.2919 307.5119085  +6.5877928     4811.554     8557.369     9747.843     90.29079     180.2947     360.9839      1.903     4.27     1126.027     63.59137     508.8945        33     1.504     1.206 -57.96   0
       345    486.0081    289.5528 307.7289421  +6.5703436     1182.451     3159.108     3076.314      89.8598     180.2947      360.374      2.373     8.79     1135.283     63.59137     136.8845        24     1.531     1.409 -43.98   0
       346    248.7453    285.1902 307.8277665  +6.5642304     3103.197     8376.408     9607.028     89.71568     180.3665     360.4458      2.512     6.66     1148.247     63.59137     347.2953        44     1.827     1.606 -53.21   0
       347    382.9157    276.7081 307.7722538  +6.5722128     969.1016     2362.446     2857.587     90.14735      180.868     360.8764      2.583     6.06     1140.006     63.59137     139.2722        11     1.341     0.771 -26.77   2
       348    969.3919    274.6622 307.5283980  +6.5925617     959.3032     1670.903      1391.67     89.71568     180.2229     360.5535      1.797     5.46     1126.619     63.59137     154.6384         9     1.395     0.718 -12.26   0
       349    153.2080    271.8508 307.8679526  +6.5665480     910.3954     1929.217     2477.444      89.8598     180.2947     360.4099      2.286     6.61     1154.055     63.59137     111.9625        13     1.409     0.871 -84.66   0
       350    306.6149    272.0739 307.8041445  +6.5715811     778.0088     1697.811     1900.062      89.8598     180.1511     360.6612      2.169     5.02     1144.516     63.59137     110.1205         7     1.107     0.643 -46.81   0
       351    725.7184    264.9784 307.6300755  +6.5884729     3130.891     7080.549     7847.569     90.14735     180.0793     360.6971      2.294     6.37     1132.016     63.59137     312.5172        41     1.918     1.412 -51.09   0
       352    562.3475    267.7279 307.6979314  +6.5819023      1111.55     2741.106     2789.819     90.29079     180.4382     360.8047      2.126     8.83     1132.626     63.59137     131.2308        23     1.556     1.399 -47.10   0
       353    907.0000    266.9475 307.5546090  +6.5936794     789.7735     1492.064     1801.613     89.57133     179.8635     360.2303      2.092     5.42     1128.458     63.59137     117.0182         8     1.419     0.584  88.10   2
       354    905.0000    266.9914 307.5554394  +6.5935949     881.9085     1657.253     1963.698     89.57133     180.0074     360.5176      1.848     5.08     1128.543     63.59137     165.6642         8     1.355     0.539  89.11   3
       355    666.3033    264.5012 307.6548036  +6.5866946     1213.458      3028.07     3536.267     90.43399      181.011     360.5894      2.435     8.47     1132.906     63.59137      147.943        23     1.549     1.372 -60.63   0
       356    963.3578    264.3892 307.5312544  +6.5966055     587.0257     1170.129      1537.84     89.71568     180.2229     360.4817      1.790     3.49     1126.249     63.59137     104.3494         5     1.058     0.333 -20.77   0
       357    922.1917    256.6846 307.5486367  +6.5984231     767.0984     1555.619     1943.422     90.00369     180.0793     360.5894      2.222     6.82     1127.262     63.59137      98.6886         9     1.608     0.810 -67.12   0
       358    225.5199    250.4085 307.8386076  +6.5778226     1320.123     3111.857     3225.142     90.00369     180.0074     360.5894      2.474     9.88     1148.529     63.59137     175.9443        28     1.884     1.446 -63.42   0
       359    868.0707    249.0502 307.5714053  +6.5997812     1121.983     2278.909     2848.175     90.43399     180.3665     360.8047      2.119     7.64     1128.611     63.59137     134.1547        19     1.564     1.084 -33.99   0
       360    759.1151    248.0486 307.6167573  +6.5965767     1067.211     2146.282     2674.132     90.43399     180.4382     360.8047      2.278     6.56     1130.614     63.59137     115.3672        13     1.310     0.920  78.09   0
       361    459.5619    239.7813 307.7416285  +6.5900229     11800.98     31105.07     36609.57     90.00369     180.2947     360.4817      2.581     6.54     1132.519     63.59137     1334.413        89     2.520     1.764 -44.18   0
       362    785.1971    238.9493 307.6062165  +6.6012022     8373.117      19065.4     22068.33     89.71568     180.1511     360.3022      2.295     5.30     1130.005     63.59137      766.515        61     1.895     1.651 -38.83   0
       363    147.7573    233.4793 307.8715244  +6.5822167     1393.014     3340.898     3826.878     90.43399     180.4382     360.7329      2.371     9.14      1153.74     63.59137      172.016        25     1.598     1.492  24.16   0
       364    921.3963    229.5861 307.5498822  +6.6095914     1155.749     2052.968     1750.854     90.00369     180.0793     360.6253      1.861     6.35     1125.768     63.59137     133.8586        13     1.126     1.006  88.86   0
       365    583.4144    225.6898 307.6905929  +6.5999696     2745.278     6564.695     6469.898     90.14735     180.2229     360.5894      2.290     6.07     1129.133     63.59137     322.6298        41     1.788     1.532 -53.81   0
       366    547.7861    225.7497 307.7054097  +6.5987587     975.8143     2631.687     3641.327     89.71568     180.4382     360.4458      2.905     8.10     1129.432     63.59137     125.2203        15     1.797     1.022  86.69   2
       367    387.8586    225.7243 307.7719279  +6.5934389     870.3105     2109.998     2077.571     90.57697     180.5099     360.7329      2.379     7.04     1136.968     63.59137     135.5283        12     1.365     1.154 -38.29   2
       368    944.0881    222.7113 307.5406756  +6.6131841     2077.537     3808.028     4447.374     90.14735      181.011     360.8764      1.988     5.33     1124.669     63.59137     220.9015        25     1.508     1.149 -57.15   0
       369    890.2079    222.2083 307.5631038  +6.6116045     7999.607     16068.44     16467.94     89.71568     180.2229     360.6253      2.042     4.63     1125.907     63.59137     777.8414        43     1.597     1.413 -53.85   0
       370    976.9108    219.9617 307.5271158  +6.6154084     7611.884     13889.65      14486.1     90.43399     180.3665     360.8047      1.922     4.30     1123.361     63.59137     861.1595        40     1.598     1.278 -58.41   0
       371    688.3267    220.3651 307.6471367  +6.6056599     1645.499     3744.875     4520.738     90.29079     180.4382     360.6971      2.372     6.85     1130.343     63.59137     176.0646        28     1.598     1.349  74.82   0
       372     16.7547    219.0925 307.9264973  +6.5837761     15282.74     35980.06      40284.6     90.43399     180.3665     360.9122      2.355     5.38     1161.787     63.59137     1929.078        71     1.927     1.703 -57.02   0
       373    497.2272    215.3957 307.7267894  +6.6013518     1160.292     2743.422     3129.983      89.8598     180.2229     360.5894      2.395     8.27     1129.145     63.59137     131.2216        20     1.632     1.172 -63.05   0
       374    828.9244    211.8388 307.5889446  +6.6138540     1407.337     2662.701     2952.432     90.29079     180.4382     360.8405      1.975     4.83     1127.245     63.59137     156.3809        17     1.182     1.035 -30.66   0
       375    740.4782    208.1697 307.6258573  +6.6124316     24452.13     55378.66     61348.41     90.29079     180.5099     360.7329      2.291     5.39     1128.717     63.59137     2194.301        79     1.900     1.667 -61.83   0
       376    510.7800    211.0429 307.7212999  +6.6036014     1087.524     1971.967     2493.871      89.8598     180.2947     360.5894      1.912     7.63     1128.959     63.59137     163.2677        14     1.875     0.870 -46.61   3
       377    507.6275    210.2847 307.7226368  +6.6038096     1252.345     2331.618     2750.052     90.57697     180.1511     360.6253      2.131     4.11      1128.95     63.59137     172.5686        14     1.180     0.880 -86.02   3
       378    881.1873    210.4860 307.5672518  +6.6161477     1470.866     3075.074     3454.658     90.00369     180.2947     360.6253      2.156     5.79     1125.146     63.59137     194.3627        22     1.552     1.074 -45.71   0
       379    343.6545    207.8261 307.7909206  +6.5993578     3726.807     10269.96     12934.64     90.00369     180.5816     360.5894      2.757     7.16     1139.563     63.59137     367.5339        65     2.310     1.748 -75.20   0
       380    974.1360    206.9768 307.5287081  +6.6206806     2314.368     4344.328     4306.489     90.00369     180.4382     360.6253      1.931     4.62     1122.362     63.59137     239.9579        27     1.409     1.278 -84.01   0
       381    908.3322    205.1871 307.5561397  +6.6192375     5325.404     10613.76     11883.76      89.8598     180.2229     360.6612      2.104     4.71     1124.139     63.59137     506.1403        41     1.546     1.451 -60.60   0
       382    452.0605    204.5824 307.7459420  +6.6043135     2601.132     6921.583     7623.568     90.00369     180.3665     360.5535      2.502     6.40     1131.039     63.59137     307.6034        45     1.870     1.614 -41.76   0
       383   1012.4941    205.3703 307.5128071  +6.6226157     1210.422     2484.127     2305.296     90.57697     180.1511     360.6612      1.985     7.25      1120.95     63.59137     127.6078        17     1.504     0.978 -12.94   0
       384    109.5162    195.9621 307.8887052  +6.5964355     2813.808     6695.821     7763.313     90.43399     180.3665     360.6971      2.455     5.95     1155.567     63.59137     367.9646        40     1.867     1.456 -73.39   0
       385    279.6992    192.5848 307.8180385  +6.6035188     18067.12     47100.97     53504.61     90.43399     180.1511     360.4458      2.501     6.13      1145.86     63.59137     2063.198        78     2.002     1.807 -63.67   0
       386    254.9908    193.6783 307.8282781  +6.6022419     3425.381     8999.765     10585.42     90.00369     179.9355     360.5894      2.479     6.56     1146.799     63.59137     377.1827        50     1.913     1.689 -49.41   0
       387    928.5148    195.0186 307.5480880  +6.6241077     650.9169     1075.819     1243.561     90.00369     180.1511     360.6971      1.846     4.16     1122.841     63.59137     99.24268         6     0.977     0.506  12.10   0
       388    403.7508    187.9967 307.7665980  +6.6095541     25765.96     68388.09     78026.02     89.71568     180.1511     360.3022      2.490     6.21     1133.156     63.59137     2910.514        92     2.037     1.836 -55.42   0
       389    160.0425    189.1905 307.8679211  +6.6009226     2294.771     5468.566     5976.397      89.8598     180.2229     360.4817      2.386     5.78     1152.438     63.59137     320.3301        37     1.719     1.541 -37.72   0
       390    421.5017    189.3461 307.7591691  +6.6095887     825.0609     1768.064     1330.076     90.29079     180.4382     361.0198      2.048     6.65      1131.71     63.59137     113.3713         8     1.330     0.932  10.40   0
       391    307.9572    185.7542 307.8065173  +6.6072840     9779.337     25551.09      31043.9     90.43399     180.4382     360.6971      2.606     6.19     1143.343     63.59137      1081.54        84     2.337     1.850 -22.24   2
       392    316.6643    186.0379 307.8028862  +6.6074575     1328.642     2491.078      3160.51     90.43399     180.3665     360.8764      2.093     5.39     1142.311     63.59137     152.8528        17     1.422     0.852 -62.73   3
       393    742.9310    184.0578 307.6256524  +6.6224738     20323.67     46211.81     50921.29     90.57697     180.3665     360.6971      2.288     5.27     1127.845     63.59137       1884.8        73     1.855     1.666 -56.22   0
       394    790.5443    185.4405 307.6058008  +6.6234847     581.8875     1050.959     1002.549     90.29079     180.5099     360.8047      2.120     3.94     1126.975     63.59137     93.07312         5     1.037     0.428 -74.40   0
       395     60.0254    181.5369 307.9097797  +6.6007383     5305.043     12849.72     14517.01     90.00369     180.4382     360.6612      2.389     5.63     1158.737     63.59137     675.3522        56     1.880     1.656 -72.29   0
       396     93.8854    179.8543 307.8957543  +6.6025665     803.1042     1866.178     1809.433     90.43399     180.3665     360.9481      2.299     7.96     1155.873     63.59137     124.1013        14     1.400     1.264  62.25   0
       397   1001.1909    178.4857 307.5184154  +6.6333474     1120.559     1810.123     2212.238     90.00369     180.0793     360.5894      1.870     5.86     1119.005     63.59137     160.8815        13     1.266     0.763 -63.24   0
       398   1002.3154    164.2708 307.5184271  +6.6392570     1859.849     3385.262     3967.342     90.57697     180.7248     360.8047      2.029     5.43     1117.776     63.59137     203.2925        25     1.517     1.158 -45.13   0
       399    595.2844    160.9246 307.6878490  +6.6271194     1034.935     1553.275      2749.13     90.57697     180.7964     360.8405      2.517     6.98     1127.215     63.59137     135.5962        11     1.359     1.006  56.33   2
       400    592.7181    160.9534 307.6889155  +6.6270221     1036.602     2357.894     3425.858     90.43399     180.4382     360.8047      2.605     7.03     1127.184     63.59137     139.3518        13     1.715     0.808 -76.39   3
       401    278.5960    158.8195 307.8196443  +6.6174301     16319.67     42514.87     48712.07     90.00369     179.9355     360.5535      2.497     6.01     1145.974     63.59137     1897.989        80     2.037     1.805 -52.33   0
       402     24.1913    157.3902 307.9255056  +6.6095133     2748.161     6272.448     6520.752      89.8598     180.2229     360.6612      2.229     5.72     1161.619     63.59137     362.7695        35     1.717     1.405 -57.19   0
       403    710.1357    155.1730 307.6402707  +6.6333161     4821.276     11230.83     12847.07     90.00369     180.4382     360.6612      2.324     5.57     1126.824     63.59137     509.0991        45     1.741     1.508 -49.28   0
       404    121.2084    152.6276 307.8853166  +6.6147275     2839.798     6910.322      7563.75     90.00369     180.2229     360.5894      2.319     5.73     1153.516     63.59137     365.9985        40     1.776     1.507 -62.76   0
       405    393.3311    148.4628 307.7722733  +6.6255379     1765.177     3135.542     3614.267     90.43399     180.4382     360.8405      2.098     7.77     1132.388     63.59137     210.4615        18     1.722     0.991 -82.84   3
       406    390.4965    148.0087 307.7734678  +6.6256309     1681.818     3422.782     4132.575     90.14735     180.0074     360.5535      2.321     7.47     1132.775     63.59137     183.9955        19     1.719     0.908 -89.57   3
       407    460.7166    149.6731 307.7442036  +6.6272849     817.0771     1746.828     1605.752     90.57697     180.7964     360.8047      2.146     7.05     1128.156     63.59137     96.88806         9     1.593     0.875 -43.16   0
       408    356.1386    147.5620 307.7877738  +6.6246691     1798.688       4792.8     4879.845     90.43399     180.5099     360.7688      2.377     7.60     1137.169     63.59137     218.9012        36     1.800     1.461 -41.88   0
       409    111.1812    147.4450 307.8896635  +6.6165329     1070.543     2281.029     2916.967     90.00369     180.2947     360.4817      2.397     6.86     1153.673     63.59137       167.16        17     1.400     1.224  76.58   0
       410   1002.6935    141.4780 307.5190386  +6.6486855     1399.898     2360.229     3150.388     90.14735     180.6532     360.8405      1.887     5.32     1116.311     63.59137     170.0115        15     1.243     0.912 -37.58   0
       411    208.0174    136.3603 307.8497635  +6.6243499     2962.091     7761.614     8935.749     90.00369     180.2229     360.5176      2.445     6.54     1148.986     63.59137     355.3331        43     1.899     1.524 -50.36   0
       412    669.7140    135.1161 307.6577631  +6.6402575     3737.567     8808.526     9466.569     90.14735     180.6532     360.8405      2.301     5.39     1125.404     63.59137     368.5143        45     1.714     1.592 -40.80   0
       413     90.7038    136.1897 307.8985635  +6.6204972     1352.772     3150.984     3794.987     90.14735     180.0074     360.5176      2.476     7.05     1154.324     63.59137      186.553        22     1.549     1.401 -89.32   0
       414    621.8314    132.3523 307.6777741  +6.6398062     5240.513     13191.78     15333.09     90.14735     180.4382     360.6612      2.459     5.84     1125.737     63.59137     510.0963        54     1.886     1.671 -59.88   3
       415    625.4161    123.8378 307.6765712  +6.6434428     30799.94     73748.39     82874.21     90.00369     180.2229     360.4817      2.387     5.72     1125.224     63.59137     3053.018        93     1.980     1.763 -55.32   3
       416    817.4270    134.3282 307.5963460  +6.6454923     705.7327     1054.029     1029.219     90.00369     180.3665     360.6612      1.640     4.44     1122.106     63.59137     107.7968         5     1.140     0.491 -86.68   0
       417    349.2156    128.2394 307.7913093  +6.6324201     2043.655     5283.786     5840.144     90.00369     180.2229     360.4817      2.498     6.71     1137.874     63.59137     225.9406        39     1.844     1.496 -79.04   0
       418    531.4288    128.0719 307.7155229  +6.6385645     991.6537     2330.502     2356.918     90.29079     180.4382     360.7329      2.223     7.65      1125.23     63.59137     123.1538        16     1.617     1.134 -33.23   0
       419    306.0000    117.9432 307.8096343  +6.6352309     1366.144      2904.79     3684.245     89.57133     180.0074      360.374      2.335     6.79     1144.279     63.59137     204.3763        15     1.889     0.815  84.24   3
       420    303.6860    118.6543 307.8105727  +6.6348598     1622.222     3271.896     4176.786     90.43399     180.3665     360.9481      2.314     7.11     1144.561     63.59137     180.1392        22     1.784     1.043  79.76   3
       421    675.3838    111.9190 307.6561897  +6.6500288     825.6038     1768.982     1982.386     90.00369     180.0793     360.5894      2.158     7.96     1123.537     63.59137     92.92419        11     1.483     1.196 -55.24   0
       422    689.7121    107.9185 307.6503649  +6.6521580     1954.607     4438.724     5040.818     90.14735     180.6532     360.8764      2.329     6.07     1123.143     63.59137     204.8429        31     1.603     1.377 -57.71   0
       423      2.8846    100.7713 307.9362960  +6.6321879     752483.2      1741111      1904459     90.43399     166.7986     298.8984      2.266     9.95     1160.512     63.59137     63784.34       248     2.233     1.603 -82.05  28
       424    903.9383     94.2205 307.5617138  +6.6649329     2794.866     5473.286     6128.146     90.00369     180.4382     360.6612      2.101     5.14     1115.676     63.59137     307.0248        33     1.583     1.377  79.58   0
       425    886.0054     95.0856 307.5691445  +6.6639804      1614.61     3088.496     3147.219      89.8598     180.0793     360.4458      1.989     6.11     1115.957     63.59137     192.4845        23     1.441     1.152 -45.32   0
       426    596.6840     92.9464 307.6895689  +6.6552478      886.033     1991.368     1916.349     90.43399     180.4382     360.9481      2.219     6.58     1123.784     63.59137     125.9073        10     1.282     0.949  44.32   0
       427    395.4402     90.9003 307.7733493  +6.6493870     1017.419     2508.093     2813.586     90.43399     180.2947     361.0198      2.356     7.23     1131.795     63.59137     145.1887        19     1.631     1.317  28.66   0
       428    143.1819     87.8900 307.8783795  +6.6422046      1959.32      4496.16      4723.53     90.14735     180.1511     360.6612      2.307     6.77     1150.525     63.59137     224.5876        31     1.750     1.364 -52.82   0
       429     24.9250     85.5783 307.9276461  +6.6392020     7529.506     17837.54     20518.57     90.00369     180.2947     360.6971      2.394     5.56     1157.395     63.59137     993.9365        55     1.909     1.593 -64.14   0
       430    292.7004     85.5780 307.8162656  +6.6481565     675.9893      1338.71     1898.246     90.43399     180.1511     360.5176      2.073     4.02     1146.832     63.59137     99.61536         5     1.120     0.412 -73.71   2
       431    289.7527     86.2164 307.8174701  +6.6477943     573.3959     1282.018     1996.273      89.8598     180.3665     360.5176      3.190     4.04     1147.334     63.59137     91.75964         5     0.865     0.540 -57.54   2
       432    566.2294     84.8178 307.7025127  +6.6575917      625.381     1118.037     721.6346     90.00369     180.2229     360.6971      1.887     5.20     1123.305     63.59137     86.36255         5     1.212     0.632 -68.19   0
       433    431.6978     98.9994 307.7579927  +6.6472505     2385.688     5615.673     5719.241      89.8598     180.0074     360.3381      2.254     5.78     1127.848     63.59137     266.2484        37     1.678     1.472 -49.94   0
       434    826.3172     79.8313 307.5944894  +6.6683005     4157.185     8602.874       9288.5     90.43399     180.2229     360.6253      2.158     5.17     1117.543     63.59137     449.7172        38     1.628     1.442 -69.39   0
       435    771.3359     80.1041 307.6173517  +6.6663615     2162.439     4497.396     4949.455     90.29079     180.5816     360.7688      2.131     5.13     1120.012     63.59137     237.2209        31     1.491     1.378  85.57   0
       436    535.3806     79.1825 307.7155359  +6.6588922     708.0776     1411.451      2205.41     90.14735     180.2229     360.6971      2.637     4.23     1123.164     63.59137     103.1169         6     0.740     0.690 -38.67   0
       437     66.0905     77.6826 307.9107926  +6.6438417     1851.661     3964.865     4172.933     90.14735     180.7248     360.8764      2.191     6.81      1153.81     63.59137     228.2023        26     1.723     1.175  80.99   3
       438     63.0000     78.5480 307.9120486  +6.6433808     835.8046     1417.548     1907.259     89.57133     179.8635     360.2303      1.853     5.66     1154.079     63.59137     131.8286         9     1.667     0.542 -87.67   3
       439    589.3310     75.1661 307.6932299  +6.6623480     634.3869     1388.794     1113.055     90.29079     180.4382     360.8405      1.936     5.50     1123.043     63.59137     80.00122         6     1.514     0.563 -15.35   0
       440      7.8294     72.9462 307.9351871  +6.6438475     1678.723     3839.002     4919.611     90.14735     180.5099     358.1769      2.612     7.01     1157.306     63.59137     187.3397        25     1.663     1.186 -51.98  16
       441    766.4216     67.5633 307.6198201  +6.6713788     1265.741     2557.415     3005.884     90.00369     180.1511     360.4817      2.094     7.49      1119.64     63.59137     143.3915        20     1.410     1.217 -67.55   0
       442    420.4076     62.1479 307.7639393  +6.6620971     1027.489     2288.895     2430.109      89.8598     180.2229     360.4458      2.146     7.65     1130.015     63.59137     140.4381        16     1.845     0.888  87.49   2
       443    423.8315     61.1801 307.7625479  +6.6626111     1093.342      1719.25     1900.827      89.8598     180.2229     360.5894      1.615     5.17     1129.645     63.59137     135.6964        10     1.255     0.602 -82.86   3
       444     92.9896     61.6992 307.9001481  +6.6513444     5554.732     13229.62     14647.66     90.14735     180.0074     360.5176      2.340     5.64     1151.375     63.59137     675.0925        51     1.847     1.608 -51.06   0
       445    635.5453     53.5562 307.6747372  +6.6728132     11490.96      26438.7     29422.34     90.43399     180.4382     360.7688      2.304     5.40     1121.766     63.59137     1141.939        58     1.797     1.650 -54.13   0
       446    535.3984     49.7024 307.7165276  +6.6710710     2994.649     7312.121     8591.692      89.8598     180.1511     360.4099      2.464     6.26     1122.351     63.59137     329.6448        42     1.779     1.583 -44.33   0
       447    254.3511     50.2123 307.8334191  +6.6614848     1158.656     3031.153     5462.323     89.71568     180.3665     360.4099      5.835     9.95     1147.587     63.59137     148.9377        27     1.913     1.443  34.66   1
       448    441.0136     45.2892 307.7559396  +6.6697485     12322.22     31457.85     35622.75     90.14735     180.2229     360.6253      2.443     5.96     1128.258     63.59137     1376.148        73     1.966     1.762 -54.65   0
       449    261.5539     45.7153 307.8305758  +6.6635830     5068.396     12796.31     15494.45     90.43399     180.3665     360.7688      2.684     6.08     1147.552     63.59137     609.4066        58     1.970     1.722 -62.43   0
       450      3.3628     48.0282 307.9378938  +6.6539910     651.6334      1600.48     1617.984      89.8598     172.1436     306.5922      2.187     4.97     1154.866     63.59137     84.99194         6     1.537     0.455  13.74  24
       451    918.4584     45.2422 307.5573272  +6.6856478     1462.115     2649.835     2583.964     90.29079     180.4382     360.8405      1.912     5.35     1113.246     63.59137     154.0182        20     1.326     1.096 -88.29   0
       452     28.3159     46.0918 307.9275805  +6.6556266     1309.273     2835.888     3315.654     90.14735     180.7964     360.8764      2.463     7.01     1153.581     63.59137      212.608        15     1.598     0.861 -47.35   2
       453    621.8058     43.4825 307.6807938  +6.6765174     2153.544     4977.347     5954.475     90.00369     180.0074     360.5176      2.383     5.47     1121.588     63.59137      225.119        32     1.519     1.416 -59.03   0
       454    249.6315     42.0640 307.8356592  +6.6646931     1735.501     4147.646     4953.764     90.14735     180.5099     360.7329      2.432     6.50     1147.552     63.59137     221.4152        29     1.601     1.370 -41.35   0
       455    690.3896     35.4205 307.6525363  +6.6821295     1143.022     2329.462     2074.789     90.00369     180.0793     360.5894      2.092     8.20     1120.396     63.59137     157.7223        19     1.687     1.113 -18.68   0
       456    939.7607     34.9917 307.5488114  +6.6905890     667.4016     1081.911     1202.953     89.71568     180.2229     360.4817      1.635     5.85      1111.23     63.59137     85.21008         9     1.510     0.637   6.25   0
       457    179.1368     27.8748 307.8654652  +6.6681983     6310.471     15500.37     17189.63     90.71972     180.4382     360.7329      2.416     5.75     1147.931     63.59137     734.0579        60     1.962     1.674 -54.59   0
       458    523.3519     26.1037 307.7223386  +6.6804182     1741.864     4010.965     4616.025     90.29079     180.2947     360.9481      2.367     6.63     1122.084     63.59137     213.8959        31     1.673     1.430 -47.28   0
       459    202.0411     29.4237 307.8558851  +6.6683242      503.275     1086.978     724.6004     90.00369     180.2229     360.5176      1.212     3.47      1147.71     63.59137     81.95276         5     1.479     0.236  17.30   0
       460    924.5266     25.2750 307.5554769  +6.6940977     3247.015     5800.807     6089.436     90.71973     180.7248     360.8405      1.923     4.53     1112.167     63.59137     335.8497        30     1.449     1.287 -52.39   0
       461    462.9021     24.7207 307.7475320  +6.6789749     882.0204     2016.781     2529.723     90.14735      180.868     360.8047      2.744     8.71     1125.831     63.59137      135.705        12     2.079     1.018  21.12   2
       462    725.9365     23.9129 307.6381380  +6.6880652     1127.071     2409.309     2589.933     90.43399     180.5816     360.8047      2.262     6.64     1119.708     63.59137     144.2424        14     1.261     0.980  25.51   2
       463    732.0980   1021.1138 307.6018702  +6.2763165     1047.023     1673.725      1454.13     90.43399     177.6192     314.8383      1.625     4.98     1177.885     63.59137     163.0918         9     1.193     0.589 -65.19  16
       464    363.6129   1019.2150 307.7550997  +6.2648381     1625.111     2444.396     2258.238     90.29079     180.0793      339.785      1.617     3.93     1183.984     63.59137     218.5765        16     1.234     0.885 -68.93  16
       465    973.7513   1016.8636 307.5015638  +6.2860902      743.635     1114.104     1059.327     90.29079     180.2947     359.7631      1.519     4.81      1174.57     63.59137     126.8247         8     1.129     0.580  -2.90  16
       466    701.7325   1016.0493 307.6146634  +6.2773999     563.6038     528.0425     36.39786     90.29079     180.3665     360.8047      1.146     3.38     1178.535     63.59137     102.2074         5     0.807     0.481 -34.85   0
       467    545.8702   1009.3776 307.6796760  +6.2749729     3978.196     6891.205     7790.641     90.00369     180.3665     360.7329      1.931     3.90     1180.239     63.59137      466.051        32     1.518     1.168 -76.25   2
       468    542.9852   1001.6400 307.6811370  +6.2780734      7359.28     12285.45     13084.58     90.00369     180.2229     360.5176      1.762     3.82     1180.177     63.59137     857.0559        36     1.513     1.167 -70.61   2
       469    516.1079   1010.6134 307.6920053  +6.2734718     1294.597     2169.859     2177.665     90.14735     180.1511     360.5176      1.817     4.69     1181.283     63.59137     169.4902        12     1.166     0.774 -64.94   0
       470    750.3457   1008.7930 307.5947012  +6.2820126     7729.895     12101.14     12906.13      89.8598     180.1511     360.4458      1.680     3.52     1176.769     63.59137      966.801        34     1.395     1.154 -64.52   0
       471    296.1634   1008.1802 307.7835093  +6.2671471     13365.48     22545.31     25062.84     90.00369     180.2229     360.5176      1.844     3.69     1183.565     63.59137     1578.495        58     1.784     1.345 -43.28   0
       472    811.7085   1007.9312 307.5692232  +6.2844060     1161.992     1486.464     1697.224     90.43399     180.5816     360.7688      1.497     4.89      1175.14     63.59137     154.5021        11     1.079     0.787 -86.70   0
       473    420.5792   1008.1172 307.7317974  +6.2713213     883.4344     1379.641     830.9233     90.14735     180.0793     360.6971      1.615     3.47     1182.245     63.59137     144.5916         8     1.168     0.669 -49.56   0
       474    911.6299   1002.1444 307.5278828  +6.2901117      9460.73     13928.97     14113.68     90.29079     180.5099     360.6971      1.577     3.34     1174.708     63.59137     1222.636        35     1.363     1.091 -63.96   0
       475    267.2451   1004.8243 307.7956431  +6.2675685     836.9954     1555.317     1480.178      89.8598     180.4382     360.6253      1.954     5.43      1183.46     63.59137     104.4126         8     1.005     0.828  89.55   0
