#   1 NUMBER                 Running object number                                     
#   2 X_IMAGE                Object position along x                                    [pixel]
#   3 Y_IMAGE                Object position along y                                    [pixel]
#   4 ALPHA_J2000            Right ascension of barycenter (J2000)                      [deg]
#   5 DELTA_J2000            Declination of barycenter (J2000)                          [deg]
#   6 FLUX_APER              Flux vector within fixed circular aperture(s)              [count]
#   9 FLUXERR_APER           RMS error vector for aperture flux(es)                     [count]
#  12 FLUX_RADIUS            Fraction-of-light radii                                    [pixel]
#  13 FWHM_IMAGE             FWHM assuming a gaussian core                              [pixel]
#  14 BACKGROUND             Background at centroid position                            [count]
#  15 THRESHOLD              Detection threshold above background                       [count]
#  16 FLUX_MAX               Peak flux above background                                 [count]
#  17 ISOAREA_IMAGE          Isophotal area above Analysis threshold                    [pixel**2]
#  18 A_IMAGE                Profile RMS along major axis                               [pixel]
#  19 B_IMAGE                Profile RMS along minor axis                               [pixel]
#  20 THETA_IMAGE            Position angle (CCW/x)                                     [deg]
#  21 FLAGS                  Extraction flags                                          
         1    696.9648     18.6713 307.6450224  +6.6897960     6916.988     11231.16     12170.26      78.2191      156.314     312.5348      1.763     4.17     827.4328     55.08934      1038.55        35     1.680     0.992  36.16   0
         2    372.2307     15.9555 307.7800653  +6.6800235     628.9078      1013.58     515.2678     77.97039     156.3761     312.4105      2.015     5.51     834.7607     55.08934     94.26752         8     1.522     0.562  48.45   0
         3    417.3214     14.0758 307.7613905  +6.6823141     5892.541     9452.719     9876.836     78.59069     156.5623      312.628      1.708     4.23      829.372     55.08934     759.1297        37     1.705     1.024  38.01   0
         4    664.3945     13.0924 307.6587457  +6.6910079     752.5822     1463.456     927.8177     77.97039      156.003     312.3172      1.872     5.97     827.3823     55.08934     102.6884        10     1.260     0.795  46.61   0
         5    492.4617     10.9711 307.7302689  +6.6861184     779.5579     1405.495     1019.015     78.09484      156.314     312.5037      1.909     6.26     827.4181     55.08934     104.6094        12     1.451     0.759  35.88   0
         6    313.9303      9.0470 307.8045262  +6.6809154     11740.74     19561.23     21171.93     78.34316     156.2518     312.5348      1.777     4.12      837.053     55.08934     1578.795        46     1.754     1.096  33.36  16
         7     87.5063      9.3209 307.8986092  +6.6731803     2214.471     3876.442     4361.181     78.09485     156.5003     312.5969      1.888     4.57     833.8406     55.08934     266.9152        23     1.511     0.993  45.13  16
         8     18.2571     13.6207 307.9272399  +6.6690709     7783.983     13091.19     13716.14     77.97039     156.2518     312.3483      1.791     4.03     833.4968     55.08934     993.6578        38     1.665     1.094  34.70   0
         9     78.7433      8.0329 307.9022942  +6.6734166      1457.79     2552.029     3147.591      78.2191     156.3761     311.2894      2.030     5.02     833.6851     55.08934     166.1224        20     1.518     0.876  29.48  16
        10    781.8217      7.5004 307.6101326  +6.6972476     792.7661     1001.374     305.1206     78.34316     156.0653     308.1853      1.413     3.61     826.9692     55.08934     131.9686         6     0.973     0.616  50.37   0
        11    379.9725      6.8468 307.7771555  +6.6840433     2279.412     3507.681     3019.084     77.97039     156.3761     303.8695      1.653     3.86     833.7645     55.08934     311.4545        21     1.426     0.861  43.49  16
        12    640.8878      2.6751 307.6688654  +6.6945202     10211.71     15619.95        16383     78.34316     142.4675     256.1838      1.685     4.65     826.9284     55.08934     1492.236        33     1.621     0.923  30.42  24
        13    974.6964      3.9319 307.5300946  +6.7051676     703.8986     943.5647     1019.245      78.2191      153.935     273.2431      1.368     5.09     821.7811     55.08934     118.0566         8     1.107     0.668  59.54  16
        14    805.6340      2.2591 307.6004125  +6.7002077     1538.698     2187.884     2479.113     77.34512     137.3306     249.8118      1.593     6.26     826.9199     55.08934     225.2663        16     1.485     0.743  35.60  24
        15    518.0718      2.2855 307.7199187  +6.6905629     1294.471     1990.862     1797.639     77.72089     137.6131     250.2002      1.590     5.12     826.8903     55.08934       181.31        16     1.333     0.863  28.60  24
        16     58.5056      2.3155 307.9108975  +6.6750942     664.7626     1160.095     1078.586     77.47057     138.1062     250.6656      1.860     4.19     833.0338     55.08934     92.33496         6     1.080     0.463  78.87  24
        17    876.3719      1.1116 307.5710528  +6.7030468     669.8456      648.636     195.9536     65.07075     120.3724     231.4067      0.998     3.25     826.5912     55.08934     158.1386         5     0.987     0.312  -2.71  24
        18    241.9163      1.2337 307.8347166  +6.6817181     1532.869     2201.008     2175.051     66.98283     122.6898     233.7035      1.340     4.16     836.1387     55.08934       366.71        12     1.522     0.423   0.69  24
        19     51.3116    996.3301 307.8802633  +6.2645630     811.2697      1360.72     2140.169     78.34316     156.5623     312.5348      2.306     5.65     854.6632     55.08934     113.6077        11     1.403     0.641  17.85   0
        20    944.3774   1023.3351 307.5085173  +6.2833630     3888.732     5185.494     4861.132     72.01337     129.1678     240.3815      1.334     3.95     856.1334     55.08934     642.8716        19     1.358     0.783  10.66  24
        21    720.4099   1021.7753 307.6015727  +6.2765212     918.0718     1553.546     1932.213     77.97039     147.9515     263.6564      1.782     6.29     857.6065     55.08934     135.5182        13     1.221     0.911  71.23  24
        22    704.5468   1022.4437 307.6081374  +6.2757145     2560.594     4153.398     4879.952     78.34316      140.753     254.1667      1.837     4.46     857.5391     55.08934     373.4058        25     1.511     1.068  31.94  24
        23    427.4091   1023.3027 307.7231875  +6.2660729     686.2413     977.0514      905.583     72.14811      129.318     240.8255      1.363     4.27     859.7683     55.08934     115.4769         7     0.953     0.545  34.75  24
        24    228.5742   1023.4462 307.8057445  +6.2593352     742.1215     1084.517     1210.036     70.23837     127.4268     238.5972      1.371     2.45     857.9074     55.08934     154.8621         7     0.774     0.633  13.95  24
        25    904.9529    986.9110 307.5261092  +6.2970818     37177.64     67263.23     73016.72     78.34316     156.1897     312.6901      1.950     4.46      856.062     55.08934     4523.094        78     1.913     1.303  36.48   0
        26    212.3982    985.2629 307.8137496  +6.2745522     1576.656     2583.264     2564.192     77.72089     156.1275     312.2861      1.757     5.60     857.6973     55.08934     193.7744        22     1.711     0.883  30.72   0
        27    751.0786    978.6339 307.5902856  +6.2953552     5805.918     10232.04      11675.1      78.2191      156.314     312.5037      1.968     4.41     857.2413     55.08934     724.9034        43     1.701     1.405  52.01   0
        28    100.0498    983.5694 307.8604573  +6.2714712     610.4825     1039.647     660.3334     77.97039     156.3761     312.4415      1.732     5.14     855.5104     55.08934     114.3472         6     1.066     0.701  76.99   0
        29    802.8889    980.9062 307.5686943  +6.2961499     1890.128     3296.476     3210.217     78.34316     156.7483     312.5969      1.885     5.06      857.226     55.08934        273.1        22     1.607     0.912  35.36   0
        30    717.9487    979.2598 307.6040222  +6.2939885     398.7231     827.5343     981.3843     78.34316     156.2518     312.5348      2.368     3.88     857.2895     55.08934     98.42596         5     1.189     0.362  12.61   0
        31    537.7190    978.1414 307.6789018  +6.2884140     860.1708     1216.344     1021.733     78.34316     156.3761     312.5348      1.415     4.45     859.7075     55.08934     117.8331         9     1.022     0.697  45.49   0
        32    220.6337    977.5020 307.8105918  +6.2780325     1279.975     2146.912     2670.343     78.34316     156.1897      312.659      1.882     4.94     857.7178     55.08934     154.2849        18     1.413     0.880  45.75   0
        33    184.4954    977.2635 307.8256058  +6.2769156     765.0865     1109.852     1585.141      78.2191     156.4382     312.5659      1.694     4.98     857.4331     55.08934     125.2438         8     0.956     0.733  29.42   0
        34     45.3034    975.5336 307.8834610  +6.2729446     2373.971     4433.438     4399.554     78.34316     156.3761     312.5659      1.992     4.33     854.5092     55.08934     328.3193        31     1.596     1.219  40.89   0
        35    939.3638    973.6512 307.5122637  +6.3037044     5796.124     10353.86     11162.88      78.2191      156.314     312.4726      1.943     4.66     854.7944     55.08934     680.1998        43     1.818     1.165  34.32   0
        36    621.5957    968.0571 307.6444104  +6.2953870     779.1492     1369.175     950.8653     77.72089     156.1897      312.255      1.729     5.49     858.7621     55.08934     105.3611        10     1.219     0.699  54.84   0
        37    195.3787    969.3696 307.8213531  +6.2805400     495.2943     842.4129     689.8088     77.84574     156.1275     312.4105      1.394     4.06     857.4069     55.08934     94.29462         5     1.237     0.381  37.78   0
        38    912.9409    965.4119 307.5235126  +6.3062231     1788.282     3041.785     3465.567     77.72089     156.2518      312.255      1.887     4.87     855.1897     55.08934     214.8896        22     1.537     0.956  35.94   0
        39    245.9748    961.3854 307.8006130  +6.2855369     4026.594     6694.198     7186.699     78.09484     156.1275     312.4726      1.781     4.36     858.0823     55.08934     516.5701        33     1.709     1.028  34.33   0
        40    772.3250    961.3861 307.5820415  +6.3031854     1105.764     1960.238     1746.029     77.84574     156.0653     312.3483      1.779     6.56     857.0354     55.08934     160.1807        15     1.533     1.195  33.89   0
        41    633.6512    961.2073 307.6396344  +6.2986182      4121.69     6786.086     7050.805     77.84574     156.1275     312.1617      1.770     4.08     858.3095     55.08934     547.7217        32     1.662     0.999  37.88   0
        42    983.2086    960.4989 307.4944966  +6.3105971     641.0076     1078.372      1777.11     78.09485     155.9408     312.3483      1.643     4.11     853.1559     55.08934     110.9238         7     0.994     0.486   7.88   0
        43    455.3918    959.3041 307.7137226  +6.2934288       1135.6     1537.666     1242.035     78.09485     155.9408     312.3172      1.458     3.36       859.48     55.08934      181.177        10     1.057     0.645  54.40   0
        44     14.7583    958.6736 307.8967141  +6.2788748     2012.799     3627.881     3846.072      78.2191     156.3761     312.5659      1.962     6.05     854.0745     55.08934     230.8433        26     1.852     1.033  33.65   0
        45    865.6077    957.6111 307.5434304  +6.3078619     903.6747     1560.859     1100.416     77.97039     156.1275     312.4726      1.642     5.73     856.1588     55.08934     119.5673        11     1.510     0.612  43.49   0
        46    281.9213    954.8397 307.7859071  +6.2894470     827.2016     1522.874     2749.962      78.2191      156.314     312.5348      3.022     6.18     858.5796     55.08934     108.5826        12     1.156     1.030  73.79   0
        47    558.3262    953.7590 307.6711646  +6.2991692     1467.169     2503.101     2408.516      78.2191     156.3761     312.5659      1.809     5.11     859.2464     55.08934     221.9571        19     1.422     0.953  43.54   0
        48    989.6042    953.5561 307.4920732  +6.3136764     754.5019     1500.052      1752.89     77.72089     155.9408     312.2239      1.876     5.06     852.8292     55.08934     113.9357         8     1.377     0.525  41.66   0
        49    597.6694    950.2609 307.6549443  +6.3019315     1086.412     2018.884     1950.867     78.46703      156.314     312.5659      1.952     5.97     858.7045     55.08934     153.1755        14     1.512     0.725  34.17   0
        50     47.2097    950.7595 307.8835069  +6.2832346     728.7345      1393.51     1639.526     77.72089     156.1275      312.255      2.663     5.26     854.4827     55.08934     98.00458         9     1.288     0.607  32.32   0
        51    277.2214    947.7172 307.7880989  +6.2922290     1475.712      2580.07     3105.329     78.09484      156.003     312.4415      2.049     5.09     858.4026     55.08934     191.7072        16     1.518     0.726  36.00   0
        52    545.1759    946.1777 307.6768804  +6.3018578     654.0754     981.0905     1072.274     77.84573     156.1275     312.5037      1.559     3.94     859.2899     55.08934     103.2797         6     0.802     0.554  45.99   0
        53    744.9523    943.7311 307.5940013  +6.3095575     764.3959     1538.437     1873.079     78.34315     156.2518     312.5348      2.134     7.84     856.8845     55.08934     112.5861        16     1.725     0.996  34.84   0
        54    881.8777    940.4974 307.5372475  +6.3154698     6263.004     10938.56     10986.16     77.97039     156.5003     312.5659      1.856     4.33     855.2397     55.08934     764.4917        40     1.756     1.122  35.19   0
        55    417.7292    937.4651 307.7300977  +6.3011796     1920.079     3172.938     2904.702     78.34316     156.3761     312.5348      1.811     4.72     859.0004     55.08934     247.6743        22     1.535     0.969  41.53   0
        56    319.4361    935.9486 307.7709660  +6.2985051     8972.626     14742.05      15688.9      78.2191      156.314     312.4726      1.786     4.05     858.7632     55.08934     1106.925        44     1.684     1.129  35.03   0
        57    239.5536    934.9095 307.8041726  +6.2962494     6453.734     10404.73     11590.26     78.34315     156.2518      312.659      1.773     3.78     857.8619     55.08934     818.6848        37     1.621     1.059  39.69   0
        58    567.1622    929.0873 307.6683250  +6.3096492     940.5587     1446.151     1385.294     78.34315     156.2518     312.5348      1.558     4.07     858.6904     55.08934      166.493        11     1.195     0.706  50.77   0
        59    129.5852    924.9961 307.8501717  +6.2966423     454.2157     793.3288     838.2906     77.97039     155.9408     312.3794      1.677     4.74     855.3549     55.08934     81.40283         7     1.297     0.492 -88.67   0
        60    201.2522    925.0258 307.8204109  +6.2990412     470.3413      668.769     802.1012     77.97039     156.4382     312.4415      1.436     3.70     856.9669     55.08934     78.25903         5     0.809     0.491  32.54   0
        61    854.4494    924.2309 307.5491835  +6.3212679     623.1553     1086.748     834.9484     77.97039     156.3761     312.4415      1.791     4.96     855.5175     55.08934      86.1416         7     1.017     0.684  33.24   0
        62    395.7681    923.1232 307.7397005  +6.3063624     537.9077     804.8412     944.0587      78.2191      156.314     312.4726      1.697     4.39     858.9137     55.08934     88.32587         6     1.071     0.546  64.88   0
        63    964.9503    921.4019 307.5033885  +6.3261263     586.6225     871.7955     1207.651     77.72089     155.9408     312.1306      1.455     4.74     852.5215     55.08934     83.52368         7     1.134     0.561  30.05   0
        64    733.9849    918.5248 307.5994021  +6.3195952     1386.776     2377.986     2947.036     77.84573     156.0653     312.4105      1.796     4.90     856.5735     55.08934     202.0589        15     1.468     0.659  36.84   0
        65    897.9428    925.9760 307.5310628  +6.3220007     716.3519     1041.242     1273.954     77.97039      156.314     312.3483      1.385     5.19     854.4094     55.08934     127.0416         9     1.307     0.582  40.10   0
        66    810.2546    917.1212 307.5677755  +6.3227255     428.5859     697.3203     842.5938     78.46702      156.314     312.5659      1.696     4.65     856.2122     55.08934     69.09399         7     1.813     0.339  25.36   0
        67    965.1889    914.0748 307.5035349  +6.3291588      956.761     1821.721      1869.19     77.97039     155.9408     312.3483      1.998     6.28     852.2632     55.08934     117.0891        16     1.560     0.811  47.93   0
        68    597.9894    915.3464 307.6559853  +6.3163541     823.1983      1071.14     1178.121     77.72089     156.2518      312.255      1.596     6.34      857.853     55.08934      114.693        12     1.542     0.733  38.20   0
        69    609.1962    914.7939 307.6513499  +6.3169576     661.2089     1026.176     1303.832     77.72089      156.003     312.4415      1.810     5.19     857.6496     55.08934     91.58356         9     1.026     0.743  44.31   0
        70    518.8480    914.4599 307.6888807  +6.3140675     1120.393     1597.471     1762.256     78.34316      156.314     312.5969      1.678     4.87      858.905     55.08934     164.7608         9     1.329     0.505  38.03   0
        71    652.5325    911.9694 307.6334481  +6.3195749     2224.984      3505.82      3842.31     78.09484      156.314     312.5037      1.689     4.54     857.0998     55.08934      294.226        22     1.568     0.887  37.74   0
        72    813.8929    908.6275 307.5665496  +6.3263531     760.0428     1145.808     1361.637     78.46702     156.0653     312.4105      1.611     4.62      855.968     55.08934     128.3496         8     1.231     0.635  48.21   0
        73    192.6849    906.8780 307.8245811  +6.3062438     2084.073     3476.432      3724.63     78.34315     156.6243      312.628      1.802     4.27     856.4609     55.08934      268.109        25     1.498     1.061  44.17   0
        74     49.2474    908.0301 307.8841051  +6.3009403     2673.464     4726.611       4704.3     77.97039     156.3761     312.4415      1.829     4.20     854.0801     55.08934     357.1235        27     1.552     1.046  31.18   0
        75    930.3959    907.4473 307.5182063  +6.3307329     588.4576      940.012     404.0237     77.72089     156.0653     312.2239      1.822     4.53     852.9955     55.08934     87.34186         7     1.130     0.517  43.32   0
        76     66.6635    907.2376 307.8768999  +6.3018540     1948.655     3095.545     3611.014     78.34316      156.314     312.5659      1.709     4.42     854.3399     55.08934     229.7165        21     1.418     0.931  42.78   0
        77    226.2750    903.6449 307.8107416  +6.3087080     797.4449     1504.824     1946.457      78.2191     156.3761     312.5659      2.062     5.00     857.3454     55.08934     104.2474         9     1.147     0.618  34.72   0
        78    784.6436    902.4525 307.5789037  +6.3279241     606.8013     1248.738     1408.098     78.34316      156.314     312.5348      2.445     5.98     856.0971     55.08934     105.1166         7     1.424     0.707  28.51   0
        79    647.2429    901.1095 307.6360098  +6.3238805     6311.421     10602.49     11951.18     78.34315      156.314     312.5969      1.844     4.21     856.8809     55.08934     797.8214        42     1.765     1.103  31.45   0
        80    331.3306    902.9528 307.7671390  +6.3125244     885.1664     1203.086      1748.12     78.34315     156.2518     312.5348      1.562     4.71     858.4749     55.08934     141.7497        10     1.134     0.774  45.45   0
        81      6.9980    899.2615 307.9019456  +6.3031362     1217.195     1780.003     2064.929     77.72089     156.1275     304.8268      1.554     4.20     853.1742     55.08934     167.4476        12     1.095     0.769  27.83  16
        82    884.9329    897.3895 307.5374240  +6.3333661     2351.351      4184.26     4324.041     77.84573     156.1275     312.3794      1.882     4.44     854.1603     55.08934     334.3735        27     1.723     0.926  36.25   0
        83    330.2422    894.1882 307.7678864  +6.3161056     14705.34        24992     26655.32     77.72089     156.1275      312.255      1.806     4.19     858.3431     55.08934     1886.915        54     1.734     1.196  37.63   0
        84     19.8620    897.4938 307.8966636  +6.3042993     1131.093     1796.081     1535.395     78.34315      156.314     312.5969      1.759     4.75     853.3531     55.08934     182.3823        12     1.183     0.847  83.74   0
        85     64.9654    895.3718 307.8780061  +6.3066945      1165.07     2281.183     2315.868     77.84573     156.0653     312.3172      2.032     6.68     854.1556     55.08934     149.7477        16     1.325     0.988  32.65   0
        86    200.6829    893.6348 307.8217069  +6.3119792      1169.07     1870.387     2354.164     78.34316      156.314     312.4726      1.857     5.62     856.4911     55.08934     175.4198        15     1.452     0.752  29.13   0
        87    380.7511    893.0583 307.7469495  +6.3182682     588.0831     853.9413     1202.697     78.34316      156.314     312.5969      1.298     3.24     858.4777     55.08934     93.28198         5     0.786     0.497  37.12   0
        88    916.7543    887.5262 307.5245393  +6.3385005     2516.651     2449.948     2267.737      78.2191     156.3761     312.5348      0.736     1.42     852.9127     55.08934      912.087         5     0.561     0.415 -47.36   0
        89     93.4332    884.6956 307.8665454  +6.3120599     1577.612     2640.154     2670.037     78.46703     156.1897      312.628      1.790     4.39     854.6435     55.08934     197.0234        17     1.325     0.928  42.10   0
        90    407.5336    884.6878 307.7361094  +6.3226224     935.1829     1429.818     1233.956     78.34316     156.5003     312.5348      1.617     5.00     858.3201     55.08934     118.7214        10     1.162     0.683  21.12   0
        91    488.4687    882.0247 307.7025882  +6.3264373     581.8619      1161.69     1261.914     77.97039     156.1897     312.4726      1.892     5.48     858.3707     55.08934     98.73334         7     1.570     0.539  45.75   0
        92    660.9760    880.9664 307.6309834  +6.3326550     786.2073     1337.411      2078.95     77.84573     156.1275     312.3172      1.823     4.64     856.1501     55.08934     129.0999        10     1.229     0.639  33.64   0
        93    875.4294    879.0948 307.5419842  +6.3406004     1674.448     2860.786      2888.42     78.46702     156.0653     312.4415      1.847     4.64     854.1183     55.08934     203.6627        20     1.445     0.923  44.28   0
        94    846.0717    878.6275 307.5541922  +6.3398122     1856.344     2920.703     2458.164     78.09484     156.2518     312.4415      1.700     4.75     854.7856     55.08934     252.3621        21     1.620     0.828  36.24   0
        95    809.4318    877.9985 307.5694299  +6.3388471     2740.716     4637.138      4754.67     77.72089     156.1275     312.3172      1.756     4.45     855.3997     55.08934     343.3498        22     1.499     0.856  33.96   0
        96     77.0285    878.3049 307.8735736  +6.3141454     2148.843     3722.709     4404.247     78.46702     156.0653     312.4726      1.898     4.39     854.2273     55.08934     288.6743        20     1.543     0.906  33.11   0
        97    545.3475    869.4568 307.6793900  +6.3335322     310200.1     505645.9     540429.5     78.34316      156.314     312.5348      1.801     4.18     858.0137     55.08934     38819.02       207     1.937     1.395  34.51   0
        98    439.3478    875.5559 307.7232051  +6.3274595     502.6736     777.3214     1422.613     78.34316     156.2518     312.5348      1.673     3.69      858.211     55.08934     85.46094         5     1.365     0.287  45.32   0
        99    389.5729    871.9574 307.7439970  +6.3272743      7133.02     11858.54     12583.56     77.97039      156.314     312.4105      1.781     4.00     858.1365     55.08934     889.9688        38     1.675     1.056  36.61   0
       100    632.7098    872.3030 307.6430134  +6.3352845     1155.076     1718.589     1482.136     78.34316     156.7483     312.5348      1.563     4.97     856.3578     55.08934     159.5718        12     1.203     0.689  48.01   0
       101    332.7535    870.3809 307.7676461  +6.3260169     11709.74     19236.71      20204.7     77.97039     156.2518     312.3483      1.756     4.13     858.0309     55.08934     1615.372        41     1.640     1.114  36.12   0
       102    651.3359    866.7948 307.6354631  +6.3381820     3213.867     5324.377     6102.857     77.72089     156.0653     312.3172      1.782     4.71     855.9313     55.08934     449.7849        28     1.656     1.022  40.48   0
       103    883.5468    865.6715 307.5390631  +6.3464125     4873.243     8192.151     9197.837      78.2191     156.2518     312.4726      1.883     4.02     853.5362     55.08934     615.5846        38     1.664     1.165  31.25   0
       104    722.7430    863.9675 307.6059028  +6.3417393     664.5667     1251.816     1599.554      78.2191     156.3761     312.5037      2.038     8.02     855.4885     55.08934     85.57581        13     1.619     1.110  22.70   0
       105   1017.0869    859.8862 307.4837963  +6.3532591     3979.344      7222.87     7635.249     78.09484     156.5003     310.6335      1.928     4.71     848.4041     55.08934      457.614        33     1.729     1.066  37.84  16
       106    626.0726    860.7472 307.6461582  +6.3398322     3259.429     5264.497      6153.95      78.2191      156.314     312.5659      1.789     4.12     856.2118     55.08934     452.3385        26     1.564     0.936  34.38   0
       107    814.4894    859.8777 307.5679374  +6.3464962     1470.892      2517.92     2668.677     78.09484     156.5623      312.659      1.828     5.25     854.9335     55.08934     195.5638        21     1.559     1.007  25.79   0
       108    616.2117    860.1590 307.6502732  +6.3397447     765.3634     1219.682     1500.569     77.72089     156.1275      312.255      1.830     4.96     856.3555     55.08934     116.4802         8     1.023     0.770  44.95   0
       109    941.0519    858.7978 307.5154111  +6.3511705     819.1316     1443.962     1679.184     77.72089     155.9408     312.1306      1.712     5.34     851.2946     55.08934     158.9586         9     1.421     0.617  63.81   0
       110    902.5900    853.5340 307.5315612  +6.3520589     2890.411     4704.382     4683.638     77.84574     156.1897     312.4105      1.776     4.54     852.4904     55.08934     327.8956        25     1.582     0.953  33.82   0
       111    618.8665    855.2706 307.6493350  +6.3418515     1972.884     3415.678     4003.355     78.34316     156.3761     312.5348      1.930     4.15      856.179     55.08934     277.3077        21     1.384     0.953  31.41   0
       112    312.3867    854.0624 307.7766543  +6.3320685     952.8412     1548.169     1488.961     77.84573     156.1275     312.3172      1.789     5.06      857.637     55.08934     130.6054        11     1.081     0.828  17.63   0
       113    360.7972    849.3890 307.7567076  +6.3356237     2335.584     4243.815     4983.056     77.97039      156.003     312.4105      1.959     4.33     857.6008     55.08934     350.6501        26     1.585     0.988  40.34   0
       114    496.8680    839.1605 307.7005428  +6.3444123     2916.463     4857.923     4494.186      78.2191     156.2518      312.659      1.694     4.05     856.7327     55.08934     381.2326        28     1.533     1.029  35.52   0
       115    841.5151    838.4601 307.5574319  +6.3562404     913.2587     1495.446     1659.636     78.46703     156.3761      312.628      1.668     4.54     853.7287     55.08934     142.5981        11     1.363     0.663  30.98   0
       116    561.5546    836.8015 307.6737578  +6.3475548     769.4173     830.0449     770.9992     77.72089     155.9408     312.1306      1.298     3.37     856.3275     55.08934     123.3992         5     0.778     0.422  66.34   1
       117    543.8211    835.3036 307.6811729  +6.3475786     5493.254     9305.371     10246.85      78.2191     156.1275     312.3483      1.843     4.45     856.3914     55.08934     728.9562        36     1.698     1.028  34.64   0
       118    550.3839    834.4515 307.6784761  +6.3481504     1130.601     2001.535     2492.125     77.84574     156.3761      312.255      1.847     5.53     856.2941     55.08934     141.8849        14     1.443     0.685  52.37   0
       119    255.0626    835.0908 307.8011001  +6.3379729     747.8337     1056.494     950.6224     78.34316     156.4382     312.5969      1.541     6.02     856.7576     55.08934     103.4434        10     1.231     0.828  36.49   0
       120    879.2659    833.3200 307.5419257  +6.3596237     1242.754     2068.373     2257.571     78.46703     156.4382     312.5037      1.750     5.00     852.5229     55.08934     172.7644        18     1.472     0.851  44.78   0
       121    461.5265    834.2551 307.7153853  +6.3452516     1414.219     2218.262     2072.816      78.2191     156.1897     312.4415      1.674     5.13     856.6373     55.08934     175.6907        17     1.468     0.830  30.48   0
       122    103.3804    833.3690 307.8641491  +6.3335806     1195.173     2088.527      2523.91     77.84574     156.1275     312.4105      1.802     4.56      853.871     55.08934     160.5239        14     1.178     0.893  43.12   0
       123    679.4316    832.6880 307.6249410  +6.3532013      691.908     1242.385     1133.398     78.46703     156.1275     312.4726      1.941     4.74     854.8868     55.08934     99.06232         7     1.132     0.704  49.41   0
       124    514.4518    829.1335 307.6935777  +6.3491408     18028.06     29584.49     31548.72      78.2191     156.2518     312.5037      1.776     4.21     856.1818     55.08934     2225.179        55     1.748     1.150  33.75   0
       125    355.2842    830.5418 307.7596324  +6.3432181     780.4134     1065.197     1267.566     78.34316      156.314     312.5969      1.656     4.25     857.1588     55.08934     117.8093         7     0.961     0.535  54.35   0
       126    928.0098    827.4939 307.5218767  +6.3636568     3453.031     5587.852     5949.661     77.97039     155.9408     312.3483      1.727     4.18     850.9617     55.08934     478.8494        27     1.552     0.929  33.02   0
       127    160.9422    828.2117 307.8404190  +6.3376468     578.9836      943.963     677.6711     77.72089     156.2518      312.255      1.567     3.77      854.818     55.08934      95.2674         5     0.807     0.505  49.67   0
       128     24.6895    819.4462 307.8972982  +6.3366770     1490.101      2486.48     2313.105     78.34316     156.1897      312.659      1.734     4.65     852.6876     55.08934     218.8798        15     1.364     0.748  38.08   0
       129    307.0360    817.8730 307.7800968  +6.3468266      2923.17     4841.509      5196.56      78.2191      156.314     312.5348      1.725     4.41     856.8033     55.08934     398.1328        27     1.639     0.955  33.04   0
       130    772.6174    813.7098 307.5868768  +6.3641533     50103.03     82460.33     87404.16     78.09485     156.0653     312.4415      1.783     4.22     854.7312     55.08934     6668.221        74     1.786     1.183  34.38   0
       131      6.9041    815.9422 307.9048026  +6.3375240     1885.265     3080.101     3230.102      78.2191      156.314     304.4123      1.662     4.81     852.5381     55.08934     266.5924        20     1.527     0.892  28.83  16
       132    710.2139    814.9541 307.6127524  +6.3615518     517.0945     820.9533     1283.988     77.72089     156.1275     312.3172      1.614     3.91     854.8679     55.08934     115.3972         5     0.852     0.514  43.90   0
       133    415.5168    812.0750 307.7352402  +6.3528630     885.7584     1124.509     997.2015     78.46702     156.6243     312.5969      1.473     4.87     856.0728     55.08934     121.5157        11     1.103     0.710  38.35   0
       134    229.5683    790.0488 307.8132076  +6.3557076     753464.1      1907426      2156876     78.09484      156.314     312.4726      2.438     6.75       855.51     55.08934     63900.71       663     2.729     2.279  63.29   4
       135    897.8878    808.9472 307.5350088  +6.3703065     7653.916     12953.91     13892.32     78.34316     156.1897      312.659      1.829     4.24     851.2003     55.08934      1011.15        45     1.757     1.105  35.03   0
       136    700.5242    808.1708 307.6170045  +6.3640276     19943.55     34409.71     39050.41      78.2191     156.3761     312.5659      1.876     4.43      854.672     55.08934     2691.619        35     1.733     0.988  33.93   3
       137    694.5135    804.8196 307.6196135  +6.3652097     80638.93     132192.9     143127.4     78.09484     156.0653     312.4726      1.801     4.10      854.553     55.08934     10050.26       109     1.978     1.301  32.91   3
       138    339.4201    805.6337 307.7670604  +6.3529666     18817.33     31311.19     33734.31     77.84574     156.1275     312.3794      1.821     4.05     856.5384     55.08934      2333.26        58     1.758     1.188  35.32   0
       139    401.3116    803.4648 307.7414297  +6.3559403     20430.95     33606.15     36195.28     78.34316     156.5003     312.5348      1.796     4.10     855.9136     55.08934     2580.266        56     1.757     1.165  36.46   0
       140    628.0012    805.0987 307.6472279  +6.3628674     737.2147     1068.718     1308.253     77.84573     155.9408      312.255      1.637     5.19     854.8116     55.08934     113.0043        11     1.189     0.731  54.71   0
       141    388.4394    805.7814 307.7466976  +6.3545519     1412.116     2013.375      1989.38     77.97039     156.1275     312.2861      1.623     4.70     856.1584     55.08934     167.7337        14     1.285     0.778  27.61   0
       142    938.2092    802.5487 307.5184767  +6.3742944     1881.279     3214.863     3273.383     77.84574     156.1897      312.255      1.809     5.14     850.1712     55.08934     235.8049        22     1.623     0.900  38.79   0
       143    894.7761    800.3281 307.5365902  +6.3737604     6025.243     10316.27     11087.47     77.97039     156.1897     312.5037      1.859     4.31     850.9899     55.08934     819.2937        39     1.723     1.085  37.71   0
       144    867.6275    801.3602 307.5478312  +6.3724273      714.603     1292.446     1436.323     77.97039     156.1275     312.4105      1.947     5.43     851.5891     55.08934     127.0752        11     1.595     0.521  30.69   0
       145    635.3574    799.4094 307.6443640  +6.3654622     5971.188     9905.765      10280.2     77.84574     156.1275     312.2861      1.772     4.38     854.5708     55.08934     746.1443        39     1.653     1.099  40.00   0
       146    424.1912    797.3884 307.7321324  +6.3592165     1479.918     2577.751      2682.94     77.97039     156.1275     312.4726      1.786     5.01     855.4604     55.08934     198.7864        21     1.543     0.910  37.36   0
       147    148.9628    796.7567 307.8464563  +6.3502272     883.5922      1150.44     1078.744     78.09484      156.314     312.3794      1.368     4.68     854.2472     55.08934     115.0818         8     0.987     0.628  60.14   0
       148   1018.5324    792.4737 307.4854533  +6.3811343      544.359     1022.096     908.5952     78.46703     156.4382     300.7535      1.982     4.87     848.7208     55.08934      100.912         7     1.269     0.529  22.04  18
       149    862.3011    791.3001 307.5503808  +6.3764020       852.52     1321.078     1241.136     78.34316     156.6863     312.3794      1.698     5.60      851.543     55.08934     106.9557        11     1.195     0.740  31.16   0
       150    588.3375    791.2126 307.6641679  +6.3672705     934.7922     1262.023     1234.687     77.84574     156.1275     312.3172      1.543     4.74     854.5638     55.08934     149.5278        10     1.126     0.631  45.53   0
       151    670.2156    789.5083 307.6302194  +6.3707165     2133.459     3545.042     3830.223     78.09485     156.1275     312.3794      1.812     4.00     853.8447     55.08934     348.4823        23     1.489     0.929  42.27   0
       152    139.3809    789.7382 307.8506727  +6.3528017     802.7905     1506.407     1025.057     77.97039     156.2518     312.4105      1.804     6.65      853.744     55.08934     119.6439        11     1.473     0.841  66.72   0
       153    404.2543    786.1373 307.7407914  +6.3631914     49135.21     81097.05      86858.2     78.46702     156.2518     312.5037      1.795     4.27     855.3315     55.08934     6088.513        78     1.799     1.232  32.64   0
       154    114.8474    789.9221 307.8608551  +6.3518999     758.8159     1200.616     1200.896     78.34316     156.3761     312.4726      1.662     4.48     853.2174     55.08934     113.9039         7     1.153     0.495  52.50   0
       155    948.6619    788.1674 307.5146173  +6.3805799     498.6334     625.2674     480.2793     78.09484     156.3761     312.4726      1.345     5.46     849.8169     55.08934     99.33032         5     1.397     0.602 -70.60   0
       156    521.9235    785.1912 307.6919535  +6.3675297     6502.477     10671.12     11452.49     77.97039     155.8162     312.3483      1.757     4.20     854.3509     55.08934      912.748        39     1.727     1.059  35.29   0
       157    438.7255    783.7775 307.7265546  +6.3653225     4057.483     6685.094     8107.528     77.97039     156.1897     312.4726      1.876     4.25     854.9326     55.08934     547.3182        28     1.557     0.954  37.59   0
       158    767.2104    781.8566 307.5901918  +6.3771209     10466.21     17481.67     18654.34     77.72089     156.2518     312.2239      1.759     4.10     853.6839     55.08934     1427.993        46     1.716     1.089  36.02   0
       159    435.2430    776.9943 307.7282294  +6.3680055     2026.233     3352.958     4009.734     77.72089      156.003     312.2239      1.901     4.20     854.7756     55.08934     266.6743        19     1.409     0.863  41.36   0
       160    124.9235    773.6940 307.8572188  +6.3589375     10592.59     17885.23      19562.4     78.09484     156.5003     312.5348      1.858     4.23      853.051     55.08934     1423.136        49     1.776     1.159  33.08   3
       161    132.8629    773.9766 307.8539121  +6.3590882     2748.383     4894.933     5518.713     77.97039      156.314     312.4415      1.907     4.12      853.139     55.08934     369.0136        31     1.706     1.031  34.62   3
       162    117.0336    771.0548 307.8605847  +6.3597613     2840.078      4674.37     5289.021      78.2191      156.314     312.5037      1.769     4.54     852.9071     55.08934     363.3563        24     1.511     0.981  37.20   3
       163    788.4599    775.6371 307.5815750  +6.3803989     934.1952      1599.06     1940.583     78.34316     156.3761     312.5037      1.666     4.18     853.0867     55.08934     168.9536         8     1.282     0.517  59.15   0
       164    912.7032    770.4429 307.5301464  +6.3866954     6012.289     9729.591     10289.85     78.34316     156.2518     312.7212      1.762     4.09     850.2201     55.08934     783.9764        37     1.706     1.038  43.49   0
       165    961.9425    770.6939 307.5096869  +6.3882360     1340.152     2393.064     3366.544      78.2191      156.314     312.6901      1.899     4.76     849.4265     55.08934     171.6531        15     1.223     0.901  42.30   0
       166    668.0975    767.9480 307.6318236  +6.3795452     1534.236     2441.506     2891.188      78.2191      156.314     312.7522      1.685     4.79     853.1055     55.08934     196.1874        18     1.463     0.794  36.32   0
       167    555.1301    767.1065 307.6787706  +6.3761080     2049.458     3380.634     3780.067     78.34315     156.4382     312.5348      1.702     4.16     853.8441     55.08934     305.2704        24     1.637     0.944  36.79   0
       168    402.9919    766.4957 307.7419775  +6.3712565     1024.182     1938.537      1845.62     78.09484     155.9408     312.3172      1.881     6.99     854.6992     55.08934     132.0643        16     1.550     0.882  42.69   0
       169    117.4591    764.6002 307.8606261  +6.3624399       1768.8     3164.028     3939.394     77.59583     155.9408     312.1928      2.107     5.62     852.7953     55.08934     266.8439        21     1.489     1.000  33.29   0
       170    936.3855    761.9713 307.5205941  +6.3909833     2750.692     4813.212     4507.159     77.97039     156.1275     312.4415      1.839     4.77     849.7687     55.08934     347.1696        29     1.670     1.064  36.95   0
       171    906.8603    762.4539 307.5328410  +6.3897980     2706.108      4509.58     4559.717     78.46702     156.2518     312.5037      1.766     4.18     850.2043     55.08934      360.825        25     1.546     0.951  38.53   0
       172    967.3928    761.8751 307.5077187  +6.3920583     1618.168     2762.719     3206.992     77.97039     155.8162     312.4105      1.801     5.60     849.2482     55.08934      209.962        20     1.530     0.930  35.86   0
       173    659.4385    761.6291 307.6356324  +6.3818636      1366.51     2220.279      2419.51     77.84574      156.003     312.4105      1.771     5.11     853.0381     55.08934     183.5873        16     1.400     0.851  21.03   0
       174    806.1148    760.4200 307.5747530  +6.3872706     956.4786     1761.259     1268.113     77.97039     156.0653     312.4726      1.880     4.70     851.9789     55.08934     142.2254        13     1.256     1.008  30.69   0
       175    231.7083    756.6531 307.8134460  +6.3695643     1691.716     2751.853     3369.802      78.2191     156.1275     312.6901      1.718     3.73     853.8963     55.08934     236.1417        18     1.201     0.985  51.29   0
       176    668.0059    754.0867 307.6323275  +6.3852638     638.6639     1078.348     1537.174     77.84573      156.003      312.255      1.726     4.96     852.6188     55.08934     80.14697         7     1.069     0.652  64.11   0
       177    924.6302    751.9045 307.5258140  +6.3947461     936.6949       1631.6     1710.819     78.46702     156.0653     312.5659      1.888     6.08      849.838     55.08934     115.9988        13     1.719     0.604  44.43   0
       178    251.6590    751.9265 307.8053198  +6.3721861     671.4751     1184.242     1050.009     78.46702      156.314     312.5348      1.823     5.14     853.9092     55.08934     92.85114         8     1.194     0.738  72.18   0
       179    898.4240    750.9183 307.5367318  +6.3942779     1007.713     1432.994      1901.79     78.09484     156.0653     312.4726      1.722     5.55     850.1634     55.08934     136.9437        12     1.341     0.646  41.04   0
       180    951.2167    749.5834 307.5148492  +6.3965920     2280.703      3931.59     4225.898     78.09484      156.003     312.4726      1.867     4.53     849.3934     55.08934     299.5933        24     1.585     0.924  44.45   0
       181    147.4079    751.3445 307.8486360  +6.3689194     801.3097     1176.169     1202.172     77.72089     156.1275      312.255      1.617     4.39     852.3922     55.08934     118.1985         7     0.893     0.615  15.10   0
       182    671.0640    748.8911 307.6312320  +6.3875109     808.4803     1299.678     1929.952     78.34316     156.5003     312.5969      1.709     4.68     852.3938     55.08934     127.3634         8     1.055     0.589  27.31   0
       183   1023.6243    743.1751 307.4849893  +6.4016540     3123.512     3903.603     3659.717     68.13284      124.575     235.8544      1.143     2.86     848.0704     55.08934      762.593        13     1.206     0.554  87.75  24
       184    461.9802    744.4586 307.7182206  +6.3823326      594.652     883.9594     849.4167     77.97039     156.1897     312.3483      1.740     5.07     853.6498     55.08934     94.73151         8     1.248     0.582  35.65   0
       185    992.7154    742.9058 307.4978364  +6.4007338     1402.576     2379.887     1719.774      78.2191     156.6863      312.659      1.726     5.68     848.6016     55.08934     204.9118        13     1.296     0.813  40.38   0
       186    793.9109    741.4720 307.5804577  +6.3946840     1092.331      1835.01      2056.13     78.34315     156.5623     312.5348      1.761     6.62      851.204     55.08934     139.5192        19     1.578     0.964  50.17   0
       187    619.4396    742.5806 307.6528857  +6.3883867     554.3222     772.3184     801.1987     77.97039     156.1275      312.255      1.454     3.66     853.1048     55.08934     130.8582         5     1.257     0.404  59.15   0
       188    880.7251    738.7817 307.5444899  +6.3986964     1401.516     2200.345      2299.83     77.84573     156.0653     312.4415      1.667     4.91     850.1509     55.08934     175.3221        16     1.390     0.824  37.67   0
       189    855.4702    734.4136 307.5551261  +6.3996555     895.0755      1505.79     1902.424     77.84574     156.1275     312.4105      1.684     5.22     850.3344     55.08934     124.8658        10     1.396     0.552  29.82   0
       190    837.6400    730.1580 307.5626746  +6.4008163     1356.119     2433.901     2528.003     78.09484      156.314     312.4105      1.841     4.74     850.4356     55.08934     194.6689        18     1.400     0.930  26.69   0
       191    100.5854    727.7859 307.8688779  +6.3770674     856.7854      1808.89     2024.215     78.09484      156.003     312.4726      2.157     7.08     852.2725     55.08934     116.0382        15     2.201     0.639  59.82   0
       192     36.6172    729.1921 307.8953970  +6.3743323     2237.017     3673.924     3679.767     77.97039     156.0653     312.3794      1.711     4.46     852.6374     55.08934     288.0798        21     1.514     0.869  30.76   0
       193    649.2280    717.6726 307.6413507  +6.3996660     5817.259     9473.223     10008.72     78.09485     156.2518     312.4726      1.765     4.24     851.9464     55.08934     783.9663        34     1.678     1.018  34.92   0
       194    596.1501    717.3849 307.6634061  +6.3980067      1240.43     2164.308     1826.205     77.72089      156.314      312.255      1.757     6.01     852.5937     55.08934     183.1204        17     1.643     0.750  39.10   0
       195    506.9252    717.5703 307.7004587  +6.3949392     886.6387     1148.927     1008.907      78.2191      156.314     312.5348      1.407     4.84     852.6386     55.08934     113.0424         9     1.069     0.620  51.56   0
       196    112.2841    713.4930 307.8645023  +6.3833609     3225.878     5604.375     6214.374     78.09485     156.7483      312.659      1.878     4.35     851.7902     55.08934     406.5544        26     1.578     0.976  41.35   0
       197    986.3585    713.0707 307.5014763  +6.4128371     2374.167     4076.381     4080.594      78.2191      156.314     312.5969      1.827     4.45     847.9936     55.08934     293.8581        25     1.611     0.941  30.04   0
       198    622.9205    713.4084 307.6524208  +6.4005450     1905.688     3144.154     3480.638     77.97039     155.9408     312.3794      1.783     4.75     852.3222     55.08934       261.29        22     1.559     0.992  33.36   0
       199    299.1606    713.8907 307.7868746  +6.3894828     611.4529     895.2265     783.3098     78.34315     156.2518     312.5659      1.598     4.00     852.8323     55.08934     115.8971         7     0.944     0.780 -15.68   0
       200    234.5881    713.1339 307.8137189  +6.3876245     744.4046     1132.312     1250.214     77.84573     156.1275     312.4415      1.510     5.87      852.097     55.08934     117.0058        11     1.200     0.807  28.53   0
       201    766.1906    709.8207 307.5930339  +6.4068220      18519.1     30207.88     32668.79     77.97039      156.003     312.3483      1.752     4.16     850.6561     55.08934     2463.197        55     1.766     1.113  35.21   0
       202    896.2526    709.5893 307.5390195  +6.4112654     3343.172     5500.738     5475.979     77.72089     156.2518     312.2861      1.709     4.17     849.2629     55.08934     473.0558        26     1.577     0.943  35.78   0
       203    493.5504    709.8535 307.7062736  +6.3976759     909.2172     1481.925     1278.735     78.46702      156.314     312.5659      1.807     6.07     852.5169     55.08934     113.9951        13     1.295     0.800  40.30   0
       204    465.4905    709.9623 307.7179244  +6.3966896     1255.144     2031.011     2371.633     78.46702     156.2518     312.5659      1.747     4.64     852.8674     55.08934      187.335        15     1.374     0.744  42.89   0
       205    266.9668    709.7045 307.8003869  +6.3901287     587.9406     768.5223     566.1102     78.46702     156.1897      312.628      1.382     4.52     852.3165     55.08934     82.36456         6     0.869     0.669  30.29   0
       206    310.4813    709.2275 307.7823301  +6.3917881     595.9636     1020.031     774.1002      78.2191     156.1275     312.5037      1.646     4.52     852.7749     55.08934     103.4479         6     1.046     0.556  27.47   0
       207    239.7280    703.3518 307.8119144  +6.3918350     5517.394     9144.556     9546.081     78.34316     156.3761     312.5659      1.781     4.39     851.7845     55.08934     714.2584        33     1.628     1.026  36.42   0
       208    646.6758    702.6401 307.6429161  +6.4057857     6557.635     10738.73     11589.14      78.2191      156.314     312.5659      1.776     4.51     851.6445     55.08934     884.4033        36     1.712     1.013  33.16   0
       209    628.9921    703.6142 307.6502283  +6.4047913     741.0854     1160.996     1150.283     77.97039     156.0653     312.3794      1.624     3.80     852.0088     55.08934     118.7141         7     0.838     0.773  34.16   0
       210    341.5941    702.4658 307.7696359  +6.3956245     665.3535     1074.482     580.3999     77.84574     156.0653     312.3483      1.851     5.24     853.0582     55.08934      102.465         8     1.150     0.674  14.26   0
       211    906.8397    695.5404 307.5350931  +6.4174182     1044.229      1605.22     1316.163     78.34316      156.314      312.628      1.717     5.22     848.5584     55.08934      140.816        14     1.380     0.769  36.93   0
       212    718.3386    691.2383 307.6135337  +6.4128913     3423.675     5900.649     6107.362     78.34316     156.3761     312.5348      1.841     4.30     850.4324     55.08934     473.4365        27     1.619     0.959  41.33   0
       213    673.5572    691.4014 307.6321285  +6.4113249     1063.233     1840.418     1956.095     77.72089      156.003     312.1928      2.102     5.74     850.8633     55.08934     160.5741        13     1.522     0.690  34.86   0
       214    984.7238    687.7248 307.5030045  +6.4232450     8082.591     13433.83     14016.93     78.59069     156.5623      312.628      1.803     4.21     847.3076     55.08934     1115.461        43     1.734     1.083  38.60   0
       215      3.8528    687.2365 307.9104236  +6.3905459     1779.422      3097.26     3044.478      78.2191     153.3662     272.3175      1.797     5.28      853.194     55.08934     232.0148        23     1.531     1.078  37.55  24
       216    923.2665    688.1027 307.5285193  +6.4210371     2231.586      3569.52     3621.074     78.34316     156.3761     312.5969      1.667     4.29     847.7443     55.08934     289.9251        20     1.483     0.845  37.52   0
       217    725.3140    688.5379 307.6107271  +6.4142394     516.2296     816.5185     1477.155     78.46703     156.5003     312.5348      1.593     3.47     850.2992     55.08934     93.08472         5     1.139     0.306  21.03   0
       218    537.5316    685.9242 307.6888116  +6.4090282      585.678     778.7828     1206.373     78.46702     156.4382     312.5348      2.000     5.35     851.1105     55.08934     77.19806         7     1.474     0.548  56.54   0
       219     62.1689    682.3614 307.8863685  +6.3945231     23134.77     39159.86     42195.07     77.97039     156.0653     312.3794      1.810     4.19     851.9094     55.08934     3082.351        63     1.799     1.197  35.83   0
       220    523.3194    683.3763 307.6948004  +6.4096034     1924.422     3002.697     3276.825     77.97039      156.003     312.5037      1.666     4.03     851.2473     55.08934     257.0988        19     1.380     0.853  36.90   0
       221    492.2551    680.6987 307.7077932  +6.4096668     1177.333     1938.894     2116.592      78.2191      156.314     312.7833      1.754     5.86     851.7198     55.08934     182.1597        14     1.513     0.638  46.35   0
       222    912.9241    679.6744 307.5330978  +6.4241707     908.7858     1613.125     1221.645     78.59069     156.5623      312.628      1.676     4.89     847.8168     55.08934     132.1797         9     1.372     0.494  36.56   0
       223    532.2820    677.0438 307.6912909  +6.4125178     872.6406     1397.981     2008.961     78.34315      156.314     312.5037      1.751     4.18     850.8644     55.08934       133.59        11     1.127     0.778  54.69   0
       224    708.1318    674.6582 307.6183302  +6.4193937     3202.413     5225.132      5744.63     78.46702     156.2518     312.5348      1.784     4.38     850.0612     55.08934      438.112        27     1.643     0.930  40.32   0
       225    730.1473    672.8906 307.6092451  +6.4208601      3817.47     6142.636     6330.863      78.2191     156.1275      312.659      1.704     4.10     849.7167     55.08934     495.6996        28     1.610     0.941  36.94   0
       226    561.6177    670.8309 307.6793152  +6.4160659     3026.092     4731.543     4795.728     77.97039     156.1275     312.4105      1.675     4.51     850.7614     55.08934     408.1362        29     1.627     0.942  37.82   0
       227    397.5703    671.3502 307.7474355  +6.4103481     1105.712     1638.005     1568.883     77.97039     156.3761     312.4415      1.718     3.95     852.9587     55.08934     203.1987        12     1.341     0.614  45.80   0
       228   1003.0767    669.2678 307.4959995  +6.4314763     4552.056      7607.93     8046.118     78.46702     156.4382     312.5037      1.774     4.45     846.7794     55.08934     606.1508        30     1.626     0.960  35.11   0
       229    305.4256    669.7686 307.7857609  +6.4079057     1449.172     2260.954     1963.107     77.84574     156.0653     312.3794      1.681     4.11     851.2204     55.08934     182.1287        17     1.324     0.842  35.26   0
       230    222.0580    670.3601 307.8203670  +6.4048587     1669.527     2669.562     3073.058     78.34315     156.3761     312.5969      1.828     4.88      850.563     55.08934     239.5203        19     1.502     0.863  38.19   0
       231    968.4056    668.0055 307.5104434  +6.4308401     7263.956      12138.4     12683.66     77.72089     156.1275     312.3483      1.783     4.35     846.7705     55.08934     960.0574        38     1.733     0.986  34.47   0
       232    522.3167    668.9392 307.6957029  +6.4155291     578.3709     990.2385     1152.043     78.46702     156.3761     312.5659      2.018     4.87     850.8528     55.08934     91.98529         8     1.336     0.504  59.11   0
       233   1017.1056    666.7220 307.4902575  +6.4329954     621.4861     767.6205     160.0715     78.09484     156.5003     310.6023      1.286     3.40     846.7153     55.08934     102.3575         5     0.991     0.338  41.06  16
       234    688.1221    666.5864 307.6269128  +6.4220557     977.4476     1359.464      1537.96     77.97039      156.003     312.3483      1.437     4.37     850.1454     55.08934     144.5915        11     1.067     0.717  46.20   0
       235     79.4086    664.7487 307.8798039  +6.4023737     734.8793     1365.108     1745.501     77.84574     156.1897     312.2239      2.026     4.96     851.1345     55.08934     107.3365         8     1.217     0.573  45.61   0
       236    126.8899    661.2885 307.8602003  +6.4054008     21536.21     36722.48     39098.99     78.09484     156.8102      312.628      1.824     4.22      850.636     55.08934      2933.18        58     1.770     1.179  34.06   0
       237    795.0914    662.0264 307.5826342  +6.4275173     1099.846     1778.394     1539.403     78.46702     156.0653     312.3794      1.717     4.87     849.5209     55.08934     169.0402        11     1.293     0.612  43.92   0
       238    413.6629    662.1302 307.7410621  +6.4146941     2630.816     4374.708     4173.881     78.34316      156.314     312.5969      1.775     4.37      852.635     55.08934     315.2925        24     1.435     1.025  43.64   0
       239    346.2402    655.7036 307.7692829  +6.4150827     588.7189      1133.63     1008.243     78.34316     156.1897     312.6901      2.105     5.36     851.5564     55.08934     88.32904         8     1.344     0.604  40.82   0
       240    963.3712    650.9640 307.5131057  +6.4377066     6318.977      10911.9     12185.47     77.97039     156.0653     312.3483      1.907     4.32     846.3775     55.08934     784.1235        45     1.959     1.057  34.01   0
       241   1018.6863    646.1346 307.4902905  +6.4415463     81877.38     138473.7     147786.6     78.34316     156.5003     299.4266      1.817     4.25     846.0999     55.08934     10628.95        99     1.862     1.249  37.65  24
       242    556.8849    646.1831 307.6821104  +6.4260813      42742.7     71578.48     76746.01     77.97039     156.0653     312.4726      1.795     4.18     850.3576     55.08934     5577.276        76     1.817     1.210  38.59   0
       243      8.0308    650.0023 307.9099481  +6.4060554     1026.362     1969.181     1752.135     77.72089     156.1275     311.0397      1.896     6.64     851.9725     55.08934     137.2783        15     1.638     0.756  41.90  16
       244    200.4620    647.9701 307.8300927  +6.4133742      618.971     902.5735     1068.387     78.09484      156.314     312.5037      1.806     5.85     850.1218     55.08934     100.3138         9     1.330     0.724  47.99   0
       245    920.9329    647.6036 307.5308464  +6.4376765      717.971     970.3021     1309.247     77.72089      156.003     312.3172      1.344     2.76      846.636     55.08934     123.4441         7     0.729     0.655  -9.97   0
       246    781.5774    646.1197 307.5887816  +6.4336313     617.1345     1094.853     881.5686     77.97039      156.003     312.5037      1.864     4.71     849.3683     55.08934     82.70496         7     1.066     0.591  19.71   0
       247    516.0037    646.1003 307.6990938  +6.4247447     747.6007     1161.891     1125.387     78.09484     156.0653     312.1928      1.547     4.18     850.6183     55.08934     115.1226         7     0.936     0.533  45.26   0
       248    164.3645    642.7834 307.8452608  +6.4143005     2607.793     4131.214     3907.559     77.97039     156.0653     312.3172      1.699     4.49     850.2702     55.08934      341.962        24     1.664     0.835  39.60   0
       249    967.3737    641.6366 307.5117557  +6.4416904      645.692     893.9929     828.7234     77.97039     156.1275     312.3483      1.569     3.47     846.1548     55.08934     93.14172         5     1.071     0.325  69.42   0
       250     57.1534    637.2544 307.8899769  +6.4129726     1250.228     2079.563     2303.558     78.34316      156.314     312.5659      1.771     4.47     850.6705     55.08934     190.9102        18     1.559     0.762  40.16   0
       251    454.1605    629.9802 307.7253242  +6.4293241     55618.59     92854.45     98767.29     77.97039     156.1275     312.2861      1.764     4.17     850.9014     55.08934     7020.652        78     1.799     1.216  34.36   0
       252    639.9506    626.8801 307.6482565  +6.4368326     694.9392     1140.599      1209.76     78.34316     156.3761     312.5348      1.709     5.73     849.8613     55.08934     108.4844         9     1.415     0.654  45.11   0
       253    128.3434    624.8345 307.8608285  +6.4204967     1589.938     2463.274       1930.6      78.2191      156.314     312.5348      1.626     4.04     849.9544     55.08934      228.202        16     1.296     0.860  49.34   0
       254    923.7999    622.4491 307.5304989  +6.4481557      490.827     832.2662     1067.406     77.59583     155.8785     312.0683      1.433     3.38     845.9682     55.08934     100.2476         5     1.232     0.268  54.81   0
       255    408.0997    622.7442 307.7447001  +6.4307648     820.8821     1388.705     962.1186     78.09484      156.314     312.7833      1.675     6.23     850.6772     55.08934     105.9936        12     1.582     0.689  30.22   0
       256    599.5712    621.5522 307.6652084  +6.4376790     738.2473     1223.533     1343.645     77.97039     156.3761     312.4415      1.745     6.75     850.1089     55.08934     97.93066        14     1.519     0.842  35.76   0
       257    299.2625    619.1199 307.7900293  +6.4286048     2004.839     3433.843     3815.682     78.46702     156.3761     312.5348      1.910     3.88     849.0822     55.08934     265.2987        19     1.336     0.904  55.58   0
       258    451.6522    618.0827 307.7267668  +6.4341509     679.6933     1218.532     1599.198     78.34315      156.314     312.5969      2.056     5.58     850.5101     55.08934     102.6733        10     1.514     0.579  41.05   0
       259      7.1725    618.3085 307.9113768  +6.4191085     513.9906     563.8635     752.9945     78.46702     156.0653     306.1302      1.124     4.19     850.2404     55.08934     70.50354         6     0.768     0.651 -72.14  16
       260    726.2343    613.6351 307.6128610  +6.4451887     4722.362     7787.536      8257.98     78.09485     156.0653     312.2861      1.757     4.26     849.0744     55.08934      660.283        30     1.632     0.961  37.34   0
       261    779.7180    608.8170 307.5908064  +6.4489670     12475.72     20663.25      22490.9     77.97039      156.003     312.4726      1.773     4.19     849.0156     55.08934     1811.387        48     1.748     1.070  36.65   0
       262   1019.2430    607.7148 307.4913461  +6.4574240     1781.048      2855.83     2713.901     78.34316     156.1897     294.0264      1.657     4.79     844.9493     55.08934     246.1465        19     1.594     0.806  37.97  16
       263    996.3580    609.1349 307.5008049  +6.4560741      867.012      1452.23     1409.664     78.34315     156.2518      312.628      1.969     5.17     845.1748     55.08934      116.348         9     1.090     0.692  18.04   0
       264    522.0040    608.6982 307.6978606  +6.4403847     974.8115     1779.926     1908.822     78.09484      156.003     312.2239      2.031     4.71     850.0369     55.08934     163.0901         9     1.132     0.586  42.26   0
       265    603.6545    606.9076 307.6640049  +6.4438608     2502.668     4031.734     4114.108      78.2191     156.2518     312.6901      1.665     4.13     849.6616     55.08934     347.0932        23     1.557     0.878  30.37   0
       266    921.1130    603.3598 307.5322551  +6.4559457     949.1025     1692.114     2511.151     78.34315     156.2518     312.5659      2.468     7.06     845.6097     55.08934     141.3325        15     1.735     0.806  23.11   0
       267    216.0034    600.6317 307.8252360  +6.4334367     1062.385     1871.246     2225.268     77.59583     156.1275     312.3172      1.920     5.08     848.8303     55.08934     169.1508        16     1.486     0.771  45.32   0
       268    179.8077    601.2842 307.8402482  +6.4319496     608.5417     993.7338     1746.143     77.97039      156.003     312.3794      2.079     5.13     849.2058     55.08934     94.16547         8     1.242     0.598  48.19   0
       269    361.6361    600.6255 307.7647452  +6.4383345     782.2062     1310.131     1091.545     77.97039     156.1275     312.3172      1.859     4.79     848.6093     55.08934     130.6491         9     1.267     0.514  37.33   0
       270    855.8314    592.1564 307.5597486  +6.4583891     2515.536     4028.106     4179.512     77.97039      156.314     312.4105      1.692     4.01     846.2505     55.08934     366.8374        22     1.457     0.926  32.89   0
       271    150.8395    592.2160 307.8525868  +6.4347177     573.9022     731.5026     501.9392     77.97039     156.1275     312.3172      1.633     3.43     849.1547     55.08934     85.30695         5     0.998     0.342  43.35   0
       272    814.4144    589.4982 307.5770424  +6.4581018     2152.532      3637.96     4039.068      78.2191     156.0653     312.3172      1.830     4.41     847.6821     55.08934     302.1562        21     1.508     0.879  41.14   0
       273    785.5685    585.4796 307.5891598  +6.4587960     2354.432     4226.415      4911.54      78.2191      156.314     312.5037      2.060     5.32     848.0122     55.08934     274.9199        29     1.843     1.004  34.24   0
       274    242.6506    584.2939 307.8147192  +6.4410767     6931.319     12021.87        13489      78.2191     156.1897     312.7212      1.874     4.47     848.2418     55.08934     970.6016        41     1.650     1.183  36.94   0
       275    795.1634    580.7015 307.5853345  +6.4610892     142646.5     233401.5     250089.3     78.34316     156.1897     312.7212      1.771     4.27     847.8166     55.08934     19996.53       123     1.861     1.266  34.95   0
       276    176.7739    578.8591 307.8422658  +6.4411039     50866.02     87704.59     96249.97     77.97039      156.314     312.3794      1.868     4.16     848.6214     55.08934     6476.918        95     1.858     1.363  39.34   0
       277    724.5703    581.0528 307.6146469  +6.4585824     603.1115     972.5457     1300.748     78.09484     156.4382     312.4726      1.668     4.58     848.1002     55.08934     73.95557         5     1.035     0.576 -16.41   0
       278    100.6992    575.0563 307.8739931  +6.4401125      5444.89     9521.893     9956.268     78.09484      156.314     312.7212      1.873     4.25     848.9499     55.08934     715.2994        37     1.659     1.128  39.32   0
       279    966.0861    572.4852 307.5146081  +6.4701921     1066.184     1745.507     1431.626     78.09484     156.5003     312.5969      1.872     5.78     843.9907     55.08934     149.2582        12     1.424     0.661  31.01   0
       280    986.0654    571.2342 307.5063505  +6.4713755      627.662     967.9281     586.1891      78.2191      156.314     312.5348      1.545     2.78     843.3721     55.08934     131.8188         5     0.799     0.467  55.13   0
       281    214.8969    571.0522 307.8266944  +6.4456090     723.5433     1262.263     943.8051      78.2191      156.314     312.7833      1.945     3.93     848.2117     55.08934     124.3158         5     0.796     0.649  32.58   0
       282    831.7026    567.9651 307.5705836  +6.4675683     3841.661     6330.125     6901.301     78.34315     156.1897     312.6901      1.765     4.33     846.3823     55.08934     541.7504        25     1.561     0.925  33.45   0
       283    350.1454    566.0494 307.7706841  +6.4522206     15375.03     25882.05     27321.56     78.34316      156.314     312.5659      1.790     4.20     847.1689     55.08934     1863.235        53     1.734     1.169  34.15   0
       284    440.1565    566.1181 307.7332926  +6.4552147      703.556     1200.983      1062.66     78.34315      156.314     312.5037      1.743     5.10     848.1629     55.08934     103.2925         9     1.168     0.745  39.39   0
       285    151.9591    565.1338 307.8530368  +6.4459340     1590.123     2747.058     3406.875     78.34316     156.2518      312.628      1.953     4.48     848.3581     55.08934     207.3489        20     1.389     1.012  25.25   0
       286    516.4986    560.9785 307.7017539  +6.4598976     5925.466     9664.397     10315.52      78.2191     156.0653     312.3172      1.781     3.99     848.0987     55.08934     743.3594        34     1.651     1.004  35.59   0
       287    226.9665    562.4216 307.8219724  +6.4495774     972.0604     1718.108     2362.524     77.84573     156.1275     312.3483      2.247     4.44     847.9606     55.08934     119.3483        11     1.144     0.701  31.50   0
       288     89.4668    562.2289 307.8790923  +6.4450288     725.7481     1382.336     1141.007     78.09485      156.314     312.5037      1.986     5.84     848.7161     55.08934      90.6604         9     1.293     0.742  47.89   0
       289    785.7305    561.3049 307.5899042  +6.4687803     5200.581     8853.136     9629.869      78.2191     156.3761     312.5659      1.838     4.59     847.0089     55.08934     746.0434        36     1.762     1.007  38.38   0
       290    374.6812    557.5681 307.7607783  +6.4565456     1305.308     2040.441     1818.295      78.2191     156.2518     312.5037      1.725     4.85     847.1599     55.08934     202.5376        14     1.406     0.814  34.38   0
       291    163.5370    554.0864 307.8486010  +6.4508837     6031.174     10230.14      10683.7     78.46702     156.4382     312.5659      1.826     4.24     847.9445     55.08934     737.2706        38     1.681     1.097  32.97   0
       292    561.2268    554.1251 307.6834047  +6.4642263     2137.764     4046.606      4177.34     78.09484     156.2518     312.5037      2.041     4.92     847.8313     55.08934     251.8749        28     1.656     1.163  16.97   0
       293    258.7623    550.5428 307.8091661  +6.4555498     77525.12     130674.2     139394.4     78.34316     156.3761     312.5348      1.847     4.39     847.1723     55.08934     10372.66        95     1.839     1.289  36.97   0
       294     35.0560    552.6439 307.9020168  +6.4471520     4375.071      7485.73     7502.571     78.34315      156.314     312.5659      1.856     4.53     848.5427     55.08934     544.9507        34     1.729     1.018  43.28   0
       295    801.8284    553.3017 307.5834857  +6.4726222     1320.682     2225.251     2168.523     78.46702     156.0653     312.5037      1.787     5.26     846.5582     55.08934     179.5272        13     1.262     0.725  62.74   0
       296    548.1309    548.0717 307.6890485  +6.4662859     913.1111     1326.116     1296.499     78.34316     156.4382     312.4726      1.538     3.82     847.6094     55.08934     133.2362         9     0.963     0.666  20.65   0
       297    781.8849    543.0633 307.5921142  +6.4761814     14533.96     23761.95     25510.86     78.46702     156.4382     312.5037      1.746     4.22     846.3111     55.08934     1914.292        46     1.733     1.061  38.47   0
       298    242.4800    545.4792 307.8161005  +6.4570924     1290.822      2137.42     1563.169     78.59069     156.5623     312.6901      1.824     4.80     847.3354     55.08934     171.4321        15     1.300     0.873  42.29   0
       299    958.0702    544.2933 307.5188830  +6.4815617     1389.544     1969.376     1909.554     78.34315     156.4382     312.5348      1.551     4.44     843.3122     55.08934     180.8079        12     1.229     0.711  47.75   0
       300    485.5181    541.4175 307.7152818  +6.4669327     37525.82     64190.71     70656.54     77.97039      156.003     312.4726      1.895     4.19     847.2166     55.08934       5141.5        84     1.963     1.311  28.72   0
       301    635.4496    539.8325 307.6530533  +6.4726133     939.1938     1518.699     1323.466      78.2191      156.314     312.4726      1.713     4.47     847.4421     55.08934     137.9344        11     1.081     0.704  39.39   0
       302    197.8627    537.6630 307.8348976  +6.4588178     1644.457      2746.57     3142.562     78.34316      156.314     312.5659      1.769     4.88     847.3157     55.08934     209.7067        20     1.385     0.985  30.39   0
       303     33.5805    537.8998 307.9031285  +6.4531881     1136.423     1886.905     1587.567     78.34315     156.1897     312.3172      1.701     5.35     848.2821     55.08934     170.3944        12     1.273     0.667  35.07   0
       304    707.7446    535.4554 307.6231685  +6.4768410     1186.195     1973.891     2133.616     78.59069      156.314     312.5348      1.778     5.90     846.8425     55.08934     158.1917        16     1.531     0.867  41.99   0
       305    655.5826    536.5349 307.6448008  +6.4746488     1319.238     1943.874     2296.935     77.84574      156.314     312.4105      1.725     5.96     847.4487     55.08934     157.2239        14     1.287     0.776  30.27   0
       306    645.3629    536.3173 307.6490534  +6.4743963     2543.143     4306.707      4530.25     78.34316     156.2518     312.5037      1.804     4.53     847.3297     55.08934     333.0348        23     1.468     0.963  39.52   0
       307     64.3644    533.7784 307.8904812  +6.4559265     662.6476     1032.175     1102.655     77.84574     156.0653     312.2861      1.697     4.34     848.1789     55.08934     117.1903         7     1.184     0.453  25.27   0
       308    382.9994    532.0511 307.7581833  +6.4673577     1483.701     2622.434     3088.848     77.59583     155.8785     312.0995      1.938     4.47     846.1313     55.08934     196.0258        18     1.357     0.935  48.25   0
       309    314.6794    530.3461 307.7866205  +6.4657662     3499.847      5893.51     6395.479     78.34316      156.314     312.5969      1.839     4.58      845.819     55.08934     487.4835        31     1.672     1.010  38.58   0
       310    129.8720    528.8846 307.8634363  +6.4601528     23124.47     39162.26      41933.2     78.46702     156.6243     312.5659      1.827     4.20     847.5541     55.08934     3108.388        61     1.791     1.190  34.33   0
       311    494.4575    529.6531 307.7119646  +6.4720886     1881.693     3083.927     3231.561     78.46703      156.314     312.5348      1.789     4.22     846.7455     55.08934     233.6756        19     1.325     0.928  48.86   0
       312    858.0005    529.1183 307.5609627  +6.4844827     1360.165       2323.8     2722.048     77.59583     155.8162     312.2239      1.864     4.62     844.8193     55.08934     202.9294        15     1.434     0.731  33.11   0
       313     95.0747    527.1544 307.8779488  +6.4596952     2326.885     4378.797     4823.625      78.2191     156.3761     312.5659      1.986     4.69     847.9692     55.08934     345.7956        29     1.625     1.125  25.93   0
       314    331.5364    525.3824 307.7797857  +6.4683815     1018.024     1632.344     1880.861     77.97039     156.2518     312.3794      1.684     5.69     845.6178     55.08934     135.3062        13     1.334     0.854  32.01   0
       315    955.4265    523.6518 307.5206732  +6.4899939     4653.756     7400.807     7219.535     77.97039     156.4382     312.4415      1.731     4.72     843.0314     55.08934     601.9813        29     1.659     0.891  37.31   0
       316    528.4252    516.0601 307.6983119  +6.4788388     1229.102     1908.653       2118.6     77.97039      156.314     312.4105      1.695     4.36     846.1617     55.08934      185.865        11     1.168     0.676  43.38   0
       317    426.8516    510.0646 307.7407082  +6.4779055     37562.16      62934.5      67053.3     78.34316     156.2518     312.5037      1.803     4.20     845.3828     55.08934     4683.173        70     1.793     1.192  34.76   0
       318    634.8693    509.7445 307.6543062  +6.4850135     10822.62     17740.38     18812.97     78.34316     156.1897     312.5037      1.741     4.28     846.0928     55.08934     1558.015        43     1.687     1.061  36.82   0
       319    274.5900    510.3315 307.8039487  +6.4726800     944.1533     1419.691     1228.718     77.84574     156.1275     312.3794      1.729     5.14     845.1181     55.08934     114.7182        11     1.016     0.864  -1.13   0
       320    192.0135    507.6377 307.8383415  +6.4710145      17102.1     29570.96     31304.13     77.84573     156.1275      312.255      1.856     4.21     845.9044     55.08934     2159.468        59     1.867     1.179  36.92   0
       321    157.5451    508.6154 307.8526263  +6.4694508     1342.092     2342.894      2285.21     77.72089      156.314      312.255      1.853     5.58     846.4973     55.08934     164.4828        19     1.470     0.953  51.19   0
       322    968.9058    508.4061 307.5155846  +6.4967372     1007.738     1569.224     1342.118     78.09484      156.003     312.3483      1.587     5.89     842.3452     55.08934     165.9402        13     1.359     0.718  38.36   0
       323    808.7354    507.5770 307.5821516  +6.4917276     910.4603     1430.817     1723.572     77.97039      156.314     312.4415      1.797     3.87     845.1628     55.08934     130.1297         8     1.017     0.620  36.63   0
       324    556.4871    506.5536 307.6869747  +6.4837038     2692.758      4038.63     3955.488     78.34316     156.1897     312.5348      1.657     4.14     845.7692     55.08934     395.2469        19     1.368     0.828  41.50   0
       325    896.8962    507.2895 307.5455369  +6.4947931     622.2666     1062.737     878.2321     78.34316     156.7483     312.5348      1.651     4.30     843.7657     55.08934     99.38837         7     0.900     0.586  25.49   0
       326    930.5004    503.7120 307.5316967  +6.4973923     4409.824     7061.836     7096.552     78.34316     156.7483     312.5037      1.717     4.34     843.1816     55.08934     602.6021        28     1.583     0.918  36.02   0
       327    603.6494    502.0518 307.6675343  +6.4871429     5761.636     9522.506     10171.07     78.46702     156.1897     312.5037      1.789     4.15     845.5421     55.08934      774.266        34     1.698     0.993  37.77   0
       328     91.0975    502.5056 307.8804343  +6.4697353     1260.686     1909.654     2048.448     78.34315     156.8721     312.3794      1.646     4.01     847.4542     55.08934     165.2688        14     1.174     0.824  39.21   0
       329    953.1380    496.0725 307.5225485  +6.5013018     3115.716     5047.623     4710.298     78.46702      156.314     312.5969      1.742     4.38     842.4932     55.08934     406.3912        27     1.595     0.972  41.21   0
       330    515.8399    493.3806 307.7043036  +6.4877783      6484.91     10978.62     12000.24     77.97039     156.1275      312.255      1.810     4.32     845.1237     55.08934     906.6553        39     1.715     1.094  34.88   0
       331    392.0850    494.8679 307.7556627  +6.4830110     672.6954     1231.652     1451.101     78.59069     156.5623     312.5659      2.176     5.06     844.4933     55.08934     113.5565         8     1.288     0.703  48.86   0
       332    361.8453    493.4135 307.7682736  +6.4825957     2318.918     3875.372     4181.109     77.72089     156.1275     312.2861      1.733     4.36     844.3465     55.08934      310.959        23     1.499     0.967  36.63   0
       333    872.3240    489.3449 307.5563470  +6.5013792     2767.034      4865.04     6088.813     78.34316      156.314     312.5037      2.058     4.12     843.6796     55.08934     373.8959        30     1.754     0.987  37.18   0
       334    525.4545    490.2046 307.7004164  +6.4894117     686.4532     1232.326     1800.757     77.72089     156.0653     312.2239      2.004     5.61      844.992     55.08934     92.51123        10     1.497     0.591  50.51   0
       335    220.5968    488.4599 307.8271158  +6.4798921     632.4805      994.855     1240.922     77.72089     156.0653      312.255      1.918     4.81     844.2217     55.08934     95.54907         7     1.145     0.574  43.68   0
       336    879.7087    483.5277 307.5534743  +6.5040272     2013.837     3484.781     4053.576      78.2191     156.5003     312.5348      1.918     4.58     843.4196     55.08934      293.222        22     1.523     0.949  46.44   0
       337    919.2595    483.0366 307.5370599  +6.5055514     978.9016     1719.249     1214.241     78.34315      156.314     312.5037      1.657     5.19     842.6972     55.08934     170.4373        10     1.445     0.527  42.36   0
       338     98.5153    482.4057 307.8780326  +6.4782817     603.9526     936.3386     690.0545     77.84574      156.003     312.2861      1.852     5.52     846.8923     55.08934     76.00714         7     1.322     0.650  56.60   0
       339    703.8750    479.6275 307.6266522  +6.4997560     2610.086     4201.565     4233.881      78.2191     156.2518     312.5037      1.663     4.60     844.6628     55.08934     380.5277        21     1.548     0.806  35.93   0
       340    374.5874    477.7979 307.7635069  +6.4894693     3224.783     5224.869      5522.22     77.97039      156.003     312.3172      1.732     4.14     843.7247     55.08934     443.7165        30     1.567     1.041  34.99   0
       341     65.4452    478.5590 307.8918998  +6.4787554     1773.791     2749.177     3119.584      78.2191      156.314     312.3794      1.627     4.60     847.1549     55.08934     236.5319        18     1.407     0.812  24.92   0
       342    414.8908    477.8534 307.7467625  +6.4907999     1021.627     1750.459     2064.957      78.2191     156.1275      312.659      1.765     6.13     843.7183     55.08934     140.2512        13     1.177     0.897  20.28   0
       343    602.3664    474.3087 307.6690006  +6.4985516     9003.646     14624.26     16006.73     78.46703     156.1897     312.5348      1.773     4.18     844.3297     55.08934     1218.085        42     1.742     1.058  40.08   0
       344    765.0421    470.9016 307.6015347  +6.5054050     14727.31     23964.79     25707.48     78.34316     156.1897     312.7522      1.729     4.22     844.1261     55.08934       1999.6        46     1.704     1.077  35.41   0
       345    284.6796    471.1060 307.8010814  +6.4892103     2354.682     3895.125     4189.975     78.09484     156.5003     312.5969      1.731     4.71     843.4426     55.08934     296.5955        23     1.582     0.901  34.12   0
       346    367.8599    467.6332 307.7666444  +6.4934391     1469.365     2534.949      3208.09      78.2191     156.3761     312.4726      2.096     4.51     843.3209     55.08934     175.1383        16     1.390     0.850  36.03   0
       347    894.7283    467.9951 307.5477556  +6.5109407     484.1694      1053.34     1026.954     77.97039     155.9408     312.4105      2.233     3.86     842.7883     55.08934     80.76611         5     0.832     0.512  33.98   0
       348    793.7340    467.7923 307.5897194  +6.5076482     1298.442     2069.444     1851.216     77.84573     156.0653     312.3794      1.677     4.88     844.1496     55.08934     162.2764        15     1.198     0.863  33.01   0
       349    768.8676    466.4326 307.6000955  +6.5073777     1257.508     2409.675     3019.781      78.2191      156.314     312.5037      2.211     5.47     843.9874     55.08934     165.6813        18     1.597     0.843  37.13   1
       350    950.2111    465.8999 307.5247760  +6.5136589     1986.833     3004.341     3342.481     78.09484     155.9408     312.3172      1.635     4.37     841.7883     55.08934     250.5781        18     1.472     0.755  39.80   0
       351    102.4179    462.7603 307.8770758  +6.4865220     3958.412      6700.39     7302.405     77.97039     156.1275     312.3172      1.788     4.36     845.9211     55.08934      580.532        34     1.656     1.049  34.37   0
       352    356.4036    463.7754 307.7715336  +6.4946466     784.2964     1258.202      1399.39     77.97039      156.003     312.3794      1.864     4.84     843.1698     55.08934     98.53107         9     1.130     0.587  25.24   0
       353    740.8075    461.9161 307.6119044  +6.5083031     1863.268     3376.291     3779.126     77.97039      156.003     312.3794      1.948     5.26     843.7641     55.08934     261.5519        20     1.639     0.846  33.05   0
       354   1004.1608    460.5838 307.5025411  +6.5176543     3629.232     6495.352     6961.903     77.97039     156.1275     312.3172      1.937     4.66     840.9107     55.08934     503.5929        31     1.933     0.864  34.94   0
       355    259.9391    459.8914 307.8117374  +6.4930075     1306.921     2233.355     2133.817      78.2191     156.3761      312.628      1.686     4.67     842.9765     55.08934     162.4022        17     1.347     0.916  54.96   0
       356    338.3868    457.5902 307.7792267  +6.4965943     3007.355     4947.375     4800.264     77.97039     156.0653     312.4726      1.764     4.12     842.9343     55.08934      382.156        27     1.496     1.049  38.65   0
       357    694.3353    455.3459 307.6314315  +6.5094596      1511.88     2345.885     2660.502     78.34316     156.2518     312.5037      1.775     4.77     843.7991     55.08934     214.7534        17     1.461     0.835  54.35   0
       358    968.2566    454.0724 307.5176756  +6.5191436     652.6003     1411.059     1467.539      78.2191     156.2518     312.5037      2.414     5.57     841.1971     55.08934     104.7257         9     1.420     0.616  44.58   0
       359    225.8589    453.0712 307.8261250  +6.4946764     788.3203     1451.393     1976.347     78.46702      156.314     312.5659      2.004     4.84     842.6812     55.08934     122.8571         8     1.089     0.610  51.04   0
       360    535.8657    448.0120 307.6975119  +6.5071769     800.6438       1192.4     1292.531     77.84573     156.1275     312.4105      1.622     5.07     843.2874     55.08934      106.794         9     0.997     0.730  83.97   0
       361    457.9328    446.1636 307.7299499  +6.5053254     1248.253     1786.457      1399.99      78.2191      156.314     312.5969      1.536     4.48     842.5541     55.08934      158.408        13     1.247     0.721  30.46   0
       362    820.2491    445.2390 307.5794612  +6.5178446     1208.208     1771.475     1802.904     78.34316      156.314     312.4105      1.470     4.40     843.2726     55.08934     188.8148        15     1.323     0.760  57.17   0
       363    806.3044    444.5146 307.5852788  +6.5176772     1814.853     2717.323     3040.174     78.34316     156.6863      312.628      1.758     4.66     843.3694     55.08934     294.8516        18     1.413     0.945  22.75   0
       364    703.5388    442.6220 307.6280357  +6.5150199     13317.26     21819.51     23834.37     77.97039     156.2518     312.4415      1.804     4.20     843.2986     55.08934     1784.672        48     1.719     1.088  36.80   0
       365    623.7596    438.6044 307.6613143  +6.5140064     2177.288     3883.551     5194.713     77.59583     156.0653      312.255      2.240     7.03     843.0771     55.08934     300.2054        32     2.386     1.045  10.48   0
       366    605.5056    444.7402 307.6686913  +6.5108620     798.5106     1075.172     1728.147      78.2191      156.314      312.628      1.651     5.20      843.259     55.08934     89.59583         9     1.080     0.707  23.83   0
       367    597.0190    433.7459 307.6725869  +6.5151158     11785.26     25696.52     30802.47     77.84573      156.314     312.3483      2.377     7.33     842.8528     55.08934     1615.978        67     2.586     1.126  33.91   0
       368    928.8333    432.6370 307.5347728  +6.5266753      3553.14      5830.73      6195.58     78.09484     156.0653     312.3172      1.769     4.45     841.2177     55.08934     499.3698        29     1.707     0.945  36.05   0
       369    367.9351    428.4034 307.7679362  +6.5096345     25626.27     42996.98     46195.45     77.59583     156.0653     312.3172      1.803     4.23     841.7012     55.08934     3380.264        61     1.777     1.178  35.63   0
       370    405.1514    429.3745 307.7524426  +6.5104836     420.9424     851.7703     1121.581     77.97039     156.3761     312.4415      1.567     3.79     841.6396     55.08934     73.30927         5     1.518     0.271  40.61   0
       371    884.0637    427.8899 307.5535318  +6.5271391     1419.688      2542.59     2697.659      78.2191     156.5003     312.5659      1.909     5.87     842.1876     55.08934     170.1497        20     1.669     0.814  44.61   0
       372    113.9736    427.8307 307.8734564  +6.5013288       2063.4     3758.068      4198.54     77.84573     156.0653     312.3794      1.922     4.84     844.1276     55.08934     252.5465        26     1.649     0.982  20.61   0
       373    897.5425    422.8682 307.5481004  +6.5296624     4571.826     7138.174     7533.559     78.46702     156.2518     312.5037      1.704     4.23     841.7355     55.08934      591.105        30     1.602     0.962  39.66   0
       374    578.7923    423.4441 307.6805056  +6.5187572     544.6829     846.3662     855.9677     77.84574     156.1275     312.2239      1.388     3.57     842.4467     55.08934     100.2556         5     0.941     0.391  82.71   0
       375     47.1885    423.4187 307.9013489  +6.5008999     1381.169     2300.182     2543.209     77.97039      156.003     312.4415      1.864     5.15     845.8354     55.08934     201.9524        15     1.253     0.887  49.18   0
       376    225.4884    418.9633 307.8274308  +6.5087425     12454.42     20931.45     22122.73     78.34315     156.1897     312.5348      1.809     4.15     841.4592     55.08934     1563.052        47     1.698     1.160  33.25   0
       377    948.9224    411.3641 307.5271400  +6.5361273     991.1495     1497.012      1471.24      78.2191     156.3761     312.5659      1.683     5.67     840.2633     55.08934     151.4117        14     1.517     0.700  33.99   0
       378    720.1891    412.6715 307.6221250  +6.5279402     579.9343     1005.982     1604.208     77.84573     155.9408     312.3794      2.037     3.92     842.2718     55.08934      83.3913         6     1.068     0.413  13.15   0
       379     59.9943    411.8953 307.8964190  +6.5060879     693.3814     1188.831     1442.756     78.09484      156.003     312.3172      1.648     3.87     845.0149     55.08934      101.472         5     0.832     0.516 -56.90   0
       380    338.6079    408.8193 307.7807801  +6.5167329     1087.893     1806.179     2370.724     77.97039     156.0653     312.3794      1.911     5.00        840.9     55.08934     164.2468        15     1.489     0.766  36.14   0
       381    171.1135    408.6494 307.8503678  +6.5111700     761.9362     1388.681     1532.363     78.34315     156.2518      312.628      2.136     6.15     842.8853     55.08934     116.5354        11     1.254     0.847  60.61   0
       382    125.8665    407.5900 307.8692002  +6.5100839     4477.595     7558.074     7854.418     77.84573     156.1275     312.4105      1.814     4.55     843.4013     55.08934     611.9337        33     1.638     1.087  29.35   0
       383    230.5381    406.7214 307.8257465  +6.5139654     1274.644     1962.389     1924.691     78.46703     156.3761     312.5659      1.694     5.45     841.0644     55.08934     166.4552        15     1.499     0.768  33.96   0
       384    423.2762    406.4301 307.7456864  +6.5205630      589.568     1122.593     1466.049      78.2191     156.3761     312.5659      2.129     5.81     840.5544     55.08934     120.2941         8     1.479     0.643  40.32   0
       385    811.5404    404.0317 307.5844628  +6.5345629     653.8797     1228.377     1338.651     78.09484     156.3761     312.5037      2.121     5.74     842.0665     55.08934     103.4753         9     1.453     0.640  46.73   0
       386    147.7424    403.4306 307.8602531  +6.5125374     2236.551     3908.799     4728.712      78.2191      156.314     312.4415      2.038     5.07     843.1184     55.08934     265.1405        30     1.539     1.368  10.14   0
       387    543.5530    402.5936 307.6958475  +6.5261823      892.977     1387.631      1125.97     77.84574     156.1275     312.1928      1.773     4.64      841.355     55.08934     114.6823        11     1.114     0.717  34.27   0
       388    371.0562    398.2223 307.7676574  +6.5221972     1956.064     3278.521     3117.356     77.97039      156.314     312.3483      1.801     4.80     840.2754     55.08934     232.3964        23     1.553     0.962  32.28   0
       389    959.6969    397.6329 307.5231240  +6.5421551     890.1266     1352.138     2036.139     78.46703     156.1897      312.628      1.548     4.32     839.5465     55.08934     161.8234        11     1.360     0.521  41.51   0
       390    258.8860    398.0930 307.8142613  +6.5184804     676.6606     965.3785      673.153      78.2191     156.7483      312.628      1.363     4.87     840.6066     55.08934     102.3313         7     0.992     0.678  80.96   0
       391    578.3785    393.7317 307.6816775  +6.5310079     500.5558     800.8088     409.0487     77.97039     156.2518     312.4726      1.388     4.08     840.8318     55.08934     76.42407         6     0.927     0.514  46.44   0
       392    425.1092    391.7893 307.7454184  +6.5266678     6487.656     10977.18     12064.96     78.09484      156.003     312.3172      1.834     4.15     839.8737     55.08934     833.7278        41     1.702     1.123  33.14   0
       393     21.3946    392.4792 307.9131109  +6.5128011     2738.814     4766.359     5373.392     77.97039     155.8162     312.3172      1.925     4.57     845.5344     55.08934     371.8454        33     1.670     1.348   2.12   0
       394    765.7504    389.2271 307.6039840  +6.5391423     11669.96     18912.24     19959.62     77.97039     156.3761     312.4726      1.740     4.14     841.6556     55.08934     1644.823        45     1.720     1.078  36.02   0
       395    757.8013    390.9688 307.6072280  +6.5381574     1729.359     2876.601     3461.503     77.72089     156.1275     312.3172      1.835     4.58     841.7133     55.08934       272.41        19     1.474     0.832  33.60   0
       396    329.1577    387.5282 307.7854244  +6.5252036     1138.432     1700.864     2166.922      78.2191      156.314     312.5659      1.808     4.91     839.8564     55.08934     145.4491        12     1.368     0.674  35.79   0
       397   1009.6671    384.3724 307.5028074  +6.5492970     3251.036     5383.073     5655.062     77.97039     156.2518     312.4415      1.774     4.15      837.187     55.08934     469.7416        26     1.594     0.918  36.43   0
       398    939.9536    380.5750 307.5318987  +6.5485370     604.9076     740.8693     797.0528     77.97039     156.3761     312.4105      1.537     4.64     839.6873     55.08934     93.72412         7     1.006     0.607  53.56   0
       399    173.9896    379.9578 307.8501425  +6.5231097     722.1639     1101.103     1185.897     77.72089     156.1275     312.2861      1.618     4.10     841.8612     55.08934     100.5947         7     0.920     0.523  46.92   0
       400    891.1308    379.3629 307.5522238  +6.5474063     500.0905     655.6229     686.9405      78.2191      156.314      312.628      1.586     4.18     840.6398     55.08934     77.73718         6     1.197     0.417  32.22   0
       401    445.4510    376.0636 307.7374975  +6.5338418     1838.526     3103.096     3136.152     78.34315     156.2518     312.5659      1.823     4.48     839.0958     55.08934      252.685        23     1.561     1.000  36.44   0
       402    473.2852    375.4645 307.7259539  +6.5350233     2843.093     4806.683     4930.362     78.46703     156.5003     312.5659      1.839     4.50     839.0471     55.08934     350.4673        28     1.598     1.009  38.24   0
       403    901.5167    374.8571 307.5480599  +6.5496133     662.2403     1004.044     1029.744     78.34316      156.314      312.628      1.778     4.94     840.3677     55.08934     117.2406         9     1.551     0.445  50.62   0
       404    831.1075    372.1701 307.5774031  +6.5483691     29528.87     50203.18     53635.51     78.46702     156.0653     312.4415      1.818     4.17     840.9784     55.08934     3896.131        65     1.765     1.239  40.57   0
       405    323.2590    367.5301 307.7885498  +6.5332600      878.123     1330.851     1048.995     78.46703      156.314     312.5348      1.619     5.99     838.8807     55.08934     103.8217        13     1.334     0.755  55.36   0
       406    602.8254    364.4630 307.6725059  +6.5439087     2438.715     3944.654     4603.194     77.97039      156.314     312.4415      1.862     3.98     839.0344     55.08934     334.9257        19     1.349     0.883  38.41   0
       407     11.1985    364.7727 307.9182843  +6.5238935     987.6261     1641.495     1478.794     77.84573     156.0653     312.3172      1.882     5.34     844.4182     55.08934      159.133        11     1.273     0.632  42.60   0
       408    687.5804    358.0930 307.6375073  +6.5493773     71485.64       116765     124987.1      78.2191     156.1275     312.3794      1.777     4.13     840.0603     55.08934      9767.58        92     1.825     1.223  32.95   0
       409    845.8705    359.5510 307.5716931  +6.5540716     1186.782     1855.318      2389.98     78.34316     156.2518     312.5659      1.783     5.63     840.4661     55.08934     147.6592        13     1.424     0.627  34.70   0
       410     66.9065    357.4259 307.8953902  +6.5288036     1171.707      1919.62     2288.754     78.46702     156.0653     312.3794      1.787     4.20     843.3774     55.08934     174.2795        13     1.261     0.701  49.36   0
       411    549.9119    354.9096 307.6948110  +6.5460783     2411.594     4012.252     4394.954      78.2191     156.8102      312.628      1.755     4.29     838.4431     55.08934     335.6024        24     1.466     0.987  34.15   0
       412     87.3032    353.5400 307.8870481  +6.5310948     5667.322     9594.921     10141.92     78.09485      156.314      312.628      1.856     4.20     843.1069     55.08934     764.6735        38     1.670     1.098  36.28   0
       413    928.5528    355.1016 307.5374898  +6.5586712     785.3592     1465.271     1323.205     78.34315     156.1897     312.7212      1.546     5.01     839.6088     55.08934     117.1902         8     1.441     0.493  25.61   0
       414    533.3144    351.0334 307.7018372  +6.5471217     6372.619     10891.13     11541.28     78.34315     156.1897     312.5348      1.804     4.19     838.1488     55.08934     826.7395        39     1.692     1.104  34.40   0
       415    262.2142    348.4964 307.8145531  +6.5390641     2360.208     3001.136     3453.635     78.09485     156.0653     312.3172      1.571     4.70     838.7233     55.08934     336.4939        24     1.537     0.976  37.54   0
       416    396.2289    346.1080 307.7589569  +6.5445539     23032.47     38924.28     41841.12     78.46702     156.0653     312.4415      1.822     4.18     837.6768     55.08934      2972.77        64     1.790     1.223  37.60   0
       417    574.5046    345.0219 307.6849265  +6.5509842      611.687     930.7705     1498.919      78.2191     156.1275     312.3794      1.705     4.98     837.9324     55.08934     75.09479         6     1.404     0.500  52.26   0
       418    662.3973    344.8392 307.6484158  +6.5540048     529.0219     756.0294     414.4725     77.47057     156.0653      312.255      1.607     5.18     839.0821     55.08934     78.64478         5     1.012     0.750 -16.67   0
       419    503.6384    344.8141 307.7143760  +6.5486934     1149.014     1751.596     1748.749     77.97039     156.1275      312.255      1.751     5.36     837.7123     55.08934     153.0388        13     1.230     0.848  36.17   0
       420    376.3064    344.1628 307.7672994  +6.5446877     1069.842     1978.096     2257.321     78.46702     156.1897      312.628      1.996     5.89      837.618     55.08934      126.408        15     1.345     0.890  43.48   0
       421    475.4303    341.3162 307.7262133  +6.5491908     979.4744     1871.274     2272.331     78.34316     156.1275     312.4105      2.128     5.93     837.4307     55.08934     137.8915        11     1.472     0.672  41.04   0
       422    373.0029    338.9650 307.7688472  +6.5467222     772.0958     1543.463     2112.469     77.47057     156.1275     312.3172      2.246     6.08     837.4247     55.08934     94.62073        10     1.186     0.878  30.19   0
       423    790.8523    338.5314 307.5952578  +6.5609082     813.9551     1349.425     835.1468      78.2191     156.1897     312.4726      1.631     5.05     840.0477     55.08934     116.7165         9     1.263     0.572  33.08   0
       424    626.6025    338.3837 307.6635047  +6.5554704     643.8832     838.9346     1192.449     77.97039     155.9408     312.3483      1.902     4.92     838.0248     55.08934      93.8938         7     1.241     0.552  39.84   0
       425    485.2974    336.5727 307.7222737  +6.5514798      7781.24     12852.22     13788.74     78.46703     156.0653     312.5037      1.799     4.09     837.2626     55.08934     1005.582        41     1.757     1.062  34.07   0
       426    754.4329    335.4034 307.6104944  +6.5609809     2667.687     4321.066     4691.531     77.59583     156.1275      312.255      1.773     4.12     839.8846     55.08934     388.2822        25     1.594     0.901  38.61   0
       427    909.3563    335.2111 307.5461329  +6.5662404     699.9887     1339.995     904.5748     77.84574     156.1897      312.255      1.807     4.70      838.794     55.08934     116.0953         7     1.205     0.519  38.69   0
       428    701.4506    334.5550 307.6325360  +6.5595577     742.5428     1282.596     1187.311     78.46703     156.1897     312.5659      2.086     5.90     839.3273     55.08934     111.2336        10     1.528     0.640  25.43   0
       429    311.4345    333.2085 307.7946205  +6.5470294     885.5898     1518.716     1409.308     77.84574     156.1275     312.3483      1.793     4.91     837.7809     55.08934     115.9271        11     1.121     0.816  53.56   0
       430    147.1988    326.8789 307.8630665  +6.5441167     1037.806     1756.809     1631.728     77.59583     155.7538     312.3172      1.798     5.77     841.0377     55.08934     137.1403        15     1.420     1.117   8.96   0
       431    247.1619    327.3260 307.8215215  +6.5472963     655.8944     785.9876     1043.477      78.2191     156.3761     312.5969      1.442     3.41     838.6033     55.08934     97.96252         5     0.792     0.425  17.16   0
       432    375.1573    320.6588 307.7685695  +6.5543508     6431.449      10790.7     11540.74      78.2191      156.314      312.628      1.771     4.22     836.7045     55.08934     799.8309        34     1.671     1.022  34.85   0
       433    230.7463    321.0313 307.8285541  +6.5493423     1900.544      3147.16     3282.701      78.2191     156.3761     312.4415      1.776     4.14     838.7197     55.08934     237.3132        21     1.336     1.017  35.78   0
       434    728.7698    320.5633 307.6216557  +6.5662477     921.6848     1497.034     1620.642     77.97039     156.0653     312.3794      1.789     4.64     839.1883     55.08934     151.4073        11     1.470     0.702  43.67   0
       435    743.0607    316.6542 307.6158494  +6.5683396     49365.97     80008.71     85713.95     78.46702     156.2518     312.5037      1.748     4.30     839.1506     55.08934     7237.395        80     1.815     1.166  34.20   0
       436    414.7475    316.1865 307.7522719  +6.5575265     1912.389     3461.414     4123.354     77.72089     156.2518     312.2861      2.182     5.44     836.2823     55.08934     264.3912        27     1.686     1.096  43.22   0
       437    977.8752    313.8499 307.5183803  +6.5773462     1417.955     2565.171     2738.557     78.34315     156.3761     312.5348      1.872     4.24     835.0729     55.08934     221.1073        16     1.481     0.692  42.10   0
       438    918.7380    313.0104 307.5429796  +6.5757178     2053.087     3432.953     3857.453     77.84573     156.1275     312.3172      1.779     4.43     837.5243     55.08934     285.9516        21     1.535     0.854  41.97   0
       439    560.6851    313.5402 307.6917279  +6.5635157     1228.675     1801.401     1676.592     78.46703     156.3761      312.628      1.661     4.53     836.2853     55.08934     170.8873        16     1.376     0.823  27.11   0
       440    451.5945    312.3418 307.7370927  +6.5603506     1016.692     1553.885     1568.834     77.84574     156.1897      312.255      1.552     4.73     836.1004     55.08934     120.5328        13     1.180     0.750  39.17   0
       441    401.2082    311.4747 307.7580560  +6.5590167     1640.676     2840.677     3042.771     77.97039     155.8785     312.3794      1.896     5.25      836.142     55.08934     209.7376        19     1.510     0.932  41.79   0
       442    281.1212    311.2459 307.8079558  +6.5550757     642.9139     1011.296     1293.455     78.34316      156.314     312.5037      1.817     4.17     837.8766     55.08934     103.5464         6     0.772     0.645 -67.92   0
       443    822.1541    306.3277 307.5833339  +6.5752481     1083.267     1683.607     1763.943      78.2191     156.3761     312.5348      1.648     4.74     838.4536     55.08934     154.3933        12     1.133     0.885  19.23   0
       444    451.6877    306.6869 307.7372445  +6.5626879     882.2587     1569.686     1632.309     78.09484     156.6243      312.628      1.810     3.50     835.8715     55.08934      131.129        11     1.149     0.656  25.63   0
       445    431.7815    303.3329 307.7456281  +6.5634041     1061.766     1605.135     2031.956     77.97039     156.2518     312.4415      1.676     5.11     835.6788     55.08934     162.4357        10     1.123     0.657  44.16   0
       446    177.6400    302.8698 307.8512310  +6.5550516     2244.703     3915.644     4271.475      78.2191      156.314     312.5969      1.879     4.34     839.5012     55.08934       271.17        24     1.462     1.074  38.34   0
       447    741.4864    301.2913 307.6170198  +6.5746284     5509.337     9157.423     10036.23     78.09485     156.7483      312.659      1.786     4.35     838.4982     55.08934     769.4387        36     1.724     0.985  30.75   0
       448    757.9169    299.2076 307.6102631  +6.5760384      2347.52     3852.248     3855.947     77.97039      156.003     312.3794      1.719     4.52     838.4166     55.08934     319.8452        22     1.618     0.816  38.53   0
       449    331.6562    300.4632 307.7873241  +6.5612252     600.4763     1118.462     964.7892     78.46703     156.2518     312.5348      1.557     3.76     836.5652     55.08934     98.63696         5     1.029     0.394 -73.81   0
       450    213.4438    301.2336 307.8364113  +6.5569319     624.0125     1096.768     1123.935     77.97039      156.314     312.4105      1.967     5.22     838.6587     55.08934     97.35345         8     1.170     0.659  16.85   0
       451     73.8719    300.0609 307.8944370  +6.5527163     908.9124     1481.423     1489.542     78.46702      156.314     312.5969      1.901     5.90     842.1678     55.08934     136.2971        14     1.413     0.810  37.07   0
       452    348.3326    293.6367 307.7806259  +6.5646034     1141.903     2300.154     2329.506      78.2191      156.314     312.5969      2.249     6.77      835.961     55.08934     162.8533        13     1.632     0.787  28.90   3
       453    345.4944    293.5485 307.7818081  +6.5645444     1389.946     2020.817      2317.51      78.2191     156.2518     312.7833      1.819     3.68     836.0419     55.08934      185.556        12     1.042     0.789  46.24   3
       454     60.6809    294.3318 307.9001111  +6.5546365      1245.75     1714.219     1662.858     78.46703     156.5623     312.5348      1.471     3.22     842.0598     55.08934     171.8555        12     1.011     0.781  38.26   0
       455    996.0657    290.1023 307.5116183  +6.5877561     5497.964     8973.047     10062.83     78.34316     156.3761     312.5659      1.747     4.22     833.1481     55.08934     765.5348        35     1.681     0.991  37.94   0
       456    474.0282    289.9639 307.7285261  +6.5703405     1867.112     3036.198      2647.15     77.97039     156.0653     312.3483      1.736     5.01     835.1064     55.08934     255.0938        20     1.569     0.868  28.27   0
       457    236.7278    285.4962 307.8272692  +6.5642112     5391.586     8989.857     9726.377     78.09485     156.4382     312.5037      1.807     4.42     837.9731     55.08934     735.0232        35     1.559     1.111  33.51   0
       458    927.0618    280.3603 307.5406164  +6.5894732     494.3886     698.6507     371.5586     78.34315      156.314     312.5969      1.439     3.41     835.6996     55.08934     107.7786         5     0.822     0.409  20.66   0
       459    756.4205    278.7502 307.6115722  +6.5844327     586.5082     1271.292      1398.65     77.84574     156.3761     312.4105      1.731     4.00     837.6182     55.08934     98.11395         6     1.411     0.324  48.15   0
       460    370.7164    276.3316 307.7719098  +6.5724985     1474.704     2653.057      2757.87     78.59069     156.5623     312.5659      1.902     4.43      835.309     55.08934     191.6244        19     1.373     1.038  24.53   0
       461    212.7993    277.8582 307.8374688  +6.5665588     651.4106     1016.853     1478.661     77.59583      156.003     312.2239      1.477     4.75     838.2836     55.08934     100.7324         6     1.065     0.601  67.27   0
       462    957.3141    275.2247 307.5282186  +6.5926035     963.3751     1392.306         1647     78.34316     156.0653     312.3483      1.800     5.10      834.449     55.08934     133.3066        11     1.376     0.535  47.04   0
       463    140.8092    272.2825 307.8675668  +6.5664369     1628.139     2843.543     3276.875     77.97039     155.9408     312.3794      1.857     4.55     839.8148     55.08934     247.9318        20     1.553     0.855  37.41   0
       464    292.8887    272.2419 307.8043835  +6.5715709     1083.859     1743.124     1385.558     78.34315     156.2518     312.5659      1.585     4.78     836.9116     55.08934     139.8463        14     1.394     0.764  34.56   0
       465    177.3886    273.1707 307.8523392  +6.5673018      527.163     631.1909     541.0106     77.84573     156.1275     312.3794      1.389     3.50     838.8594     55.08934     74.44281         5     0.800     0.442  72.06   0
       466    550.3397    267.5993 307.6975730  +6.5821320     2081.799     3594.803     3771.953     77.59583     156.1275     312.2239      1.774     4.42      834.578     55.08934     292.4627        24     1.562     0.964  38.34   0
       467    893.7398    266.9232 307.5549127  +6.5939065     1630.116      2544.16     2555.581     78.46702     156.3761     312.5037      1.856     5.83      835.531     55.08934     236.7169        22     1.847     0.835  28.29   0
       468    713.8058    265.3445 307.6297292  +6.5885398     4645.432     7367.271     7430.606     77.84573     156.1275     312.2239      1.668     3.82     836.7568     55.08934     718.7919        31     1.527     1.018  33.35   0
       469    654.6511    265.1464 307.6543147  +6.5866406     2052.349     3427.155     3226.947     78.46702     156.2518     312.5659      1.769     4.57     835.7928     55.08934     291.2483        24     1.591     0.938  33.52   0
       470    951.8386    264.9448 307.5308385  +6.5966640      698.407     1085.954     833.3052     78.34316     156.3761     312.5348      1.683     5.24     834.3177     55.08934     95.23376         8     1.484     0.522  39.58   0
       471    369.6878    259.3396 307.7729103  +6.5794777     683.8101     1293.023     1136.513     78.34316     156.5003      312.628      2.063     5.84     835.1219     55.08934     84.55658         9     1.444     0.665  28.50   0
       472    909.5684    257.4052 307.5486552  +6.5983642     1187.178     1850.271     1530.315     77.72089     156.1897     312.3172      1.564     5.10     834.8304     55.08934     178.8098        12     1.217     0.752  47.60   0
       473    213.2327    250.4595 307.8382144  +6.5778825     2174.749     3579.082     3408.408      78.2191     156.3761     312.5037      1.740     4.08     838.0162     55.08934     301.9215        21     1.390     0.919  40.71   0
       474    855.9965    249.5523 307.5711785  +6.5998154     1594.482     2582.005     2455.386     77.72089     156.0653     312.1928      1.699     4.12     835.1436     55.08934     248.1328        17     1.391     0.842  37.09   0
       475    746.4262    249.0779 307.6167221  +6.5963462     1543.538     2416.965     2053.367      78.2191     156.2518     312.5037      1.639     4.93      836.446     55.08934      185.428        17     1.461     0.788  34.33   0
       476    862.2366    243.0784 307.5688030  +6.6026963     392.7864     776.5005     1275.118      78.2191     156.3761     312.5348      2.199     3.43     834.5982     55.08934     69.40564         5     1.560     0.218  62.69   0
       477    234.9853    243.9307 307.8293972  +6.5813093     521.8538     679.0152     515.5458     77.84573     156.2518     312.4415      1.420     3.72     837.5718     55.08934      78.7395         5     1.015     0.391  58.61   0
       478    773.4330    239.6548 307.6058171  +6.6011396      11925.4     19811.53     21399.28      78.2191     156.2518     312.5037      1.833     4.46     836.0944     55.08934     1658.125        55     1.783     1.230  27.65   0
       479    447.3718    240.4427 307.7412706  +6.5898866     20832.95     34777.38     37616.02     77.97039     156.3761     312.4105      1.820     4.14      833.366     55.08934     2789.665        57     1.785     1.167  35.58   0
       480    308.4466    242.2590 307.7989316  +6.5844698     570.3825     988.8312     541.9166     78.34316      156.314      312.659      1.899     5.08     835.9384     55.08934     76.39594         6     1.163     0.628  45.70   0
       481    712.5196    235.7261 307.6312594  +6.6007226     600.7873     1083.474     732.6406     78.59069     156.5623     312.5969      1.757     4.09     835.6809     55.08934     97.38269         6     1.157     0.412  34.99   0
       482    453.0924    235.3429 307.7390656  +6.5921837     1319.916     2501.965     3308.728      78.2191     156.2518      312.659      2.166     4.81     833.1953     55.08934     172.8727        16     1.410     0.785  30.22   0
       483    135.4801    233.7165 307.8710848  +6.5821759     2130.959     3533.438      4127.47      78.2191     156.5623      312.628      1.824     5.36     839.0139     55.08934     254.3737        19     1.449     0.864  30.15   0
       484    109.9415    232.6391 307.8817320  +6.5817604      1012.81     1802.503     1783.716     78.34315     156.3761     312.5969      1.677     5.93     839.6427     55.08934     129.0945        15     1.362     0.782  37.32   0
       485    909.9896    230.2547 307.5493912  +6.6095855     1331.243     2196.348     2340.905     77.72089     156.2518     312.2239      1.829     5.27     833.5007     55.08934     187.7324        16     1.506     0.742  33.50   0
       486    571.3661    226.2236 307.6902297  +6.5999158     4341.858      6829.72     7157.137     77.84574     156.1275     312.3172      1.712     4.14     833.9435     55.08934     563.7943        29     1.547     1.025  38.30   0
       487    291.8060    227.0078 307.8063604  +6.5902055     872.8881      1402.04     1297.371     77.72089     156.1275     312.3794      1.596     5.23     835.6968     55.08934     143.7761        10     1.269     0.610  36.40   0
       488    533.8896    226.1252 307.7058048  +6.5986996     1902.454     3138.203     2848.385     78.34315     156.6243     312.5969      1.708     4.39     833.7131     55.08934     229.5436        21     1.432     0.950  47.01   0
       489    375.7450    225.0918 307.7715489  +6.5938175     1469.213     2520.886     2035.444      78.2191     156.1897      312.659      1.854     5.28     834.4785     55.08934     172.3901        18     1.421     0.891  46.24   0
       490    878.4734    222.8841 307.5627342  +6.6115747     10565.83     16730.51     17992.93     78.46702     156.6243     312.5659      1.721     4.31      833.356     55.08934      1308.34        42     1.696     1.040  34.84   0
       491    932.1567    223.4130 307.5404098  +6.6131501     2617.408     4105.362     4480.768     77.84573     156.1897     312.2861      1.664     4.15     833.0608     55.08934     351.2253        22     1.495     0.829  33.46   0
       492    965.0662    220.7721 307.5268236  +6.6153393     8976.256     14720.42     15450.03     77.97039     156.2518     312.4726      1.752     4.35      832.842     55.08934      1358.94        43     1.706     1.062  36.43   0
       493    553.2663    222.8777 307.6978630  +6.6006899     734.8502      986.089     948.5985     78.46702     156.3761     312.5037      1.544     4.21      833.825     55.08934     130.5789         7     1.138     0.443  34.94   0
       494    305.5981    222.7360 307.8007741  +6.5924325      794.441     1154.164     1716.224     77.72089     156.0653     312.3172      1.592     5.23     835.5909     55.08934      97.3006        10     1.149     0.671  36.04   0
       495    197.2991    222.8467 307.8457675  +6.5887438     739.6786     1164.982     1393.421     78.34316     156.1897     312.7522      1.890     5.74     837.8581     55.08934     83.47681         9     1.242     0.748  39.11   0
       496    676.3501    220.5948 307.6467971  +6.6057572     2495.815     4156.499     4172.557     77.72089     156.1275     312.1617      1.727     4.14     834.7939     55.08934     359.0343        23     1.484     0.949  33.80   0
       497      4.6072    219.2876 307.9259476  +6.5837211     22447.59     38194.33     41094.57     77.84574      156.003     281.6094      1.834     4.23      842.881     55.08934     3042.707        61     1.805     1.226  34.26  24
       498    250.2925    220.2549 307.8238369  +6.5915967     1081.924     1908.972     1877.033      78.2191     156.2518     312.6901      1.926     7.13     836.8658     55.08934     134.3981        17     1.523     0.935  30.37   0
       499    485.0640    215.5268 307.7264491  +6.6014362     1850.623     2785.766     2140.101     78.34315      156.314     312.5348      1.599     4.88      832.758     55.08934     255.9233        15     1.464     0.662  38.77   0
       500    868.9625    211.3548 307.5670732  +6.6160159     1716.557      2991.85     3897.513     78.09484      156.314     312.4415      2.069     5.21     833.1005     55.08934     247.9403        22     1.704     0.919  30.76   0
       501    817.0110    212.2224 307.5886312  +6.6139208     1768.778     2702.316     2411.641     77.97039     156.1275     312.4105      1.678     4.50     834.5178     55.08934     239.4897        21     1.546     0.860  33.90   0
       502    728.6203    208.8035 307.6254744  +6.6123746     36444.86     59367.21     63064.15     77.97039     155.9408     312.3172      1.757     4.06     834.7878     55.08934     4923.294        64     1.746     1.132  35.40   0
       503    497.1799    211.4768 307.7215514  +6.6035145     2249.263     3682.454     3840.395     77.97039     156.0653     312.5037      1.833     4.77     832.8192     55.08934     321.7037        21     1.542     0.874  23.72   0
       504    331.7472    208.0681 307.7904043  +6.5993659     4979.197     11588.88     12825.29      78.2191     156.2518     312.4415      2.311     6.13     835.5399     55.08934     535.5421        52     1.965     1.470  78.97   0
       505    962.3620    207.6780 307.5283864  +6.6206540     2734.399     4363.343     4218.069      78.2191     156.3761     312.5348      1.700     3.99     832.2131     55.08934     347.3185        25     1.537     0.939  32.30   0
       506    896.5383    205.9345 307.5557966  +6.6191749     6955.674     11002.96     11607.24     78.34315      156.314     312.5348      1.720     4.23     832.6663     55.08934     934.8964        33     1.642     0.951  36.92   0
       507   1000.9530    206.2979 307.5123970  +6.6225121      1556.02     2425.173     2424.357     78.34315     156.1897     312.7212      1.657     4.93      831.877     55.08934     233.7695        18     1.578     0.802  28.69   0
       508    440.1192    204.9339 307.7454811  +6.6043001      4468.12      7466.98     7629.057     78.59069     156.5003     312.5348      1.780     4.26     832.6601     55.08934     561.2219        30     1.594     1.029  35.64   0
       509    214.6215    201.5247 307.8392907  +6.5981277     682.1324     1166.847     1019.577     77.97039     156.1897     312.4726      1.834     5.81     837.4559     55.08934     97.09644         7     1.449     0.656  26.61   0
       510     97.3531    196.1500 307.8881964  +6.5963975     4439.518     7299.955     7804.369     78.34316     156.1897     312.5969      1.779     4.18     838.9757     55.08934     592.3715        32     1.619     1.027  33.73   0
       511    267.7192    192.8519 307.8175217  +6.6034938     30603.54      51659.5     55497.79     78.34316      156.314     312.5348      1.831     4.11     836.2619     55.08934     4021.388        69     1.801     1.230  32.92   0
       512    243.0222    193.9014 307.8277478  +6.6022298     6072.449     10357.29     10890.41      78.2191     156.0653     312.3172      1.793     4.12     836.8738     55.08934     749.6813        38     1.697     1.077  30.31   0
       513    916.7151    195.2831 307.5477699  +6.6242457     811.1343     1460.883     2132.542     78.09485     156.5003     312.5969      1.904     4.73     831.9998     55.08934     120.7191         8     1.016     0.626  16.38   0
       514    593.5928    193.4582 307.6820972  +6.6141855     594.0242     1506.242     1705.773     77.72089     156.1897      312.255      2.602     7.83     833.2748     55.08934     80.17963        12     2.013     0.851  88.87   0
       515    696.7548    192.6011 307.6392600  +6.6179956     942.9421     1396.679     2250.087     77.72089      156.003     312.1306      1.835     6.04     833.9906     55.08934     162.7419        13     1.336     0.785  37.43   0
       516    391.7954    188.3828 307.7661181  +6.6095090     44642.74     75410.77     80882.84     77.97039      156.003     312.3794      1.818     4.27      833.772     55.08934     6217.079        75     1.815     1.229  35.18   0
       517    147.8672    189.6012 307.8674298  +6.6008020     3568.225     6195.022      6382.42     77.72089     155.8785     312.3172      1.873     4.70     837.7419     55.08934     462.5443        31     1.665     1.053  37.49   0
       518    408.9647    188.8083 307.7589698  +6.6099100     1090.155     1853.224     2125.774     77.84573     156.1275     312.3483      1.942     5.10     833.0072     55.08934     173.8096        13     1.410     0.687  31.75   0
       519    295.7362    186.0558 307.8061100  +6.6072412     16745.48     28073.05     29953.87     78.46702      156.314     312.5348      1.817     4.14     835.7512     55.08934     2175.609        57     1.803     1.171  32.83   2
       520    302.9699    186.0122 307.8031058  +6.6075024     1893.682       3387.4      4435.55     77.84573     156.0653     312.4726      2.097     4.23     835.7259     55.08934     242.4399        18     1.368     0.857  39.49   3
       521    731.0737    184.6913 307.6252655  +6.6224096     30275.16     49267.29      52547.3     78.34315     156.4382     312.5659      1.747     4.16     833.8295     55.08934     4249.775        67     1.752     1.172  35.14   0
       522    561.2590    187.3890 307.6957369  +6.6156067     576.0941     890.9944     1260.773     77.72089     156.1897      312.255      1.670     3.46     832.8021     55.08934     82.09888         5     0.775     0.445  18.30   0
       523    779.2728    185.0421 307.6052255  +6.6238778     1216.132     2009.984      2353.62      78.2191     156.3761     312.5659      1.751     5.10     833.8511     55.08934     164.0093        12     1.375     0.710  55.73   0
       524     18.2576    184.8373 307.9214424  +6.5984009     634.9043     1099.955     1796.405     78.34316     156.3761     312.5348      1.760     3.43     842.0394     55.08934     83.75012         5     0.983     0.346  47.95   0
       525     47.9161    181.7570 307.9092240  +6.6006722      8200.05     13844.38     14660.58     78.34315     156.2518     312.4726      1.822     4.22     840.7224     55.08934     1089.284        43     1.756     1.102  37.49   0
       526     81.5749    179.8811 307.8953025  +6.6025810     1396.808     2183.243     2021.129     78.09484     156.0653     312.5037      1.696     5.16     839.2221     55.08934     207.8828        19     1.477     0.903  56.12   0
       527    990.0324    179.4709 307.5178343  +6.6332212     918.1578      1433.77     1727.531      78.2191      156.314     312.5037      1.703     5.08     830.5033     55.08934     130.3464        11     1.339     0.699  43.23   0
       528    957.1699    178.0464 307.5315378  +6.6327119     550.8685      865.249     1010.231     77.84573     156.3761     312.4415      1.587     4.57     830.7856     55.08934     103.2372         7     1.368     0.434  43.67   0
       529    679.3188    186.6223 307.6467062  +6.6198796     949.7355     1644.057      1870.36     78.09485      156.003     312.4726      1.695     5.18     833.7079     55.08934     135.5865        10     1.336     0.568  43.60   0
       530    565.0798    169.3591 307.6947564  +6.6231771     778.9579     1195.101     1647.789     78.34315      156.314     312.4726      1.680     5.12     832.3368     55.08934     112.1575        10     1.211     0.613  46.64   0
       531    990.4558    165.4393 307.5181288  +6.6390273      2109.45     3388.433     3687.062     78.34316     156.3761     312.5037      1.746     4.82     829.7563     55.08934     286.5308        20     1.526     0.803  36.13   0
       532    573.2868    162.7413 307.6915690  +6.6261838     989.3249     1400.855     1828.217     78.34316      156.314      312.628      1.523     4.19     832.2915     55.08934     135.3794        12     1.123     0.839  58.37   0
       533    581.7365    161.0350 307.6881154  +6.6271715     1733.546     2913.164     3269.766      78.2191     156.3761     312.5348      1.809     4.96     832.3815     55.08934     251.4889        20     1.448     0.939  44.73   0
       534    266.6259    159.1129 307.8191154  +6.6173833      27778.3     46633.89     50848.19     78.46702     156.1275     312.4726      1.812     4.16     836.2217     55.08934     3810.713        68     1.802     1.231  34.51   0
       535    326.0660    160.8143 307.7943597  +6.6186796     915.2836     1674.219     1733.976     77.84573     156.1897     312.4726      1.829     5.59     835.7328     55.08934     122.7526         9     1.238     0.712  49.38   0
       536     11.9593    157.5890 307.9249819  +6.6094354     4080.801      7089.65     7631.991     77.72089     156.1275      312.255      1.839     4.48     842.0833     55.08934     568.1025        35     1.706     1.096  38.59   0
       537    698.2883    155.8491 307.6398587  +6.6332173     7441.367     12001.03     13055.33     78.34316     156.1897      312.628      1.738     4.32     832.6229     55.08934     934.5988        39     1.692     1.041  33.67   0
       538    175.6103    156.8319 307.8570103  +6.6152620     1012.877     1500.637     1258.253     77.84573     156.0653     312.3794      1.636     5.14       836.84     55.08934     155.4745        12     1.286     0.784  34.71   0
       539    252.3961    153.9732 307.8252016  +6.6190261     747.2994     1093.873     998.2169     77.84573     156.1275     312.3794      1.648     6.71     836.4335     55.08934     96.92175        11     1.307     0.965  40.42   0
       540    109.1368    152.8538 307.8847649  +6.6146653      4552.69     7718.488     8598.995     78.34315     156.2518     312.5037      1.830     4.23     837.6642     55.08934      558.007        35     1.674     1.052  35.24   0
       541    636.3983    149.7955 307.6657799  +6.6336429     823.3563     1500.617     1859.406     77.72089     155.8785     312.2861      2.096     5.80     832.4212     55.08934     108.8104        12     1.326     0.840  42.01   0
       542    570.1738    150.7544 307.6932662  +6.6310273     668.3787      999.502     725.0884     77.84573     156.3761     312.4415      1.571     4.60     831.9694     55.08934     137.7305         7     1.289     0.608  26.73   0
       543    448.0282    150.3613 307.7440345  +6.6270914     1158.054     1939.163     2100.702     77.97039     156.0653     312.4105      1.809     4.88     831.9241     55.08934     179.6462        12     1.286     0.653  33.93   0
       544    379.6931    148.9309 307.7724777  +6.6253868     3476.197     6189.817     6603.772      78.2191     156.4382     312.5348      1.906     4.23     834.2928     55.08934     438.6855        35     1.815     1.085  46.38   0
       545    344.1686    147.8725 307.7872746  +6.6246300     2745.701     4920.421     4907.601      78.2191      156.314     312.5348      1.896     4.59     835.8709     55.08934     377.4668        27     1.761     0.949  34.19   0
       546    556.8467    148.3523 307.6988849  +6.6315719     487.7444     1009.908     838.0261     78.34316     156.1897     312.5659      1.961     4.96     831.7385     55.08934     74.03015         5     1.091     0.639 -62.59   0
       547     98.6454    147.5375 307.8893040  +6.6165062     1701.918     2794.565     2960.402      78.2191     156.2518     312.5969      1.788     4.74     837.6951     55.08934     246.5613        18     1.514     0.875  28.98   0
       548    990.7999    142.0553 307.5187699  +6.6486912     1340.322     2056.688     2163.772     77.59583     155.9408     312.1928      1.627     4.43     828.7557     55.08934     169.8394        13     1.280     0.674  41.12   0
       549    716.6118    142.3786 307.6326975  +6.6393910     544.2501     1008.114     611.9666     77.97039     156.0653     312.4105      1.822     5.79      831.934     55.08934     81.17126         8     1.339     0.705  40.41   0
       550    196.0917    136.6493 307.8491823  +6.6242820     4753.851     8275.799     8575.209      78.2191     156.1897     312.6901      1.835     4.42     836.5061     55.08934     577.3632        36     1.708     1.067  36.35   0
       551     78.6184    136.4603 307.8980001  +6.6204035      1939.92     3288.586     3738.706     77.97039     156.2518     312.3483      1.797     4.56     838.4214     55.08934     258.0773        19     1.461     0.852  42.88   0
       552    657.8235    135.5689 307.6573556  +6.6402331     5599.961     9293.629     9504.114     77.72089     156.1275     312.3172      1.753     4.32      831.809     55.08934     815.9977        34     1.668     1.009  38.22   0
       553    805.9313    135.5385 307.5958110  +6.6452035     988.3139      1484.08      1738.93     78.34315     156.2518     312.5659      1.744     5.81     831.2789     55.08934     120.2401        13     1.437     0.661  44.01   0
       554    609.9852    132.7411 307.6773295  +6.6397973     8692.121     14347.57     16234.58     77.72089      156.314     312.2861      1.777     4.12     831.9141     55.08934     1178.077        41     1.677     1.111  34.06   0
       555    548.6238    132.7501 307.7028273  +6.6377363     542.3003     972.1505     1454.223     77.97039     156.3761     312.4415      1.610     3.81     831.3831     55.08934     92.47925         5     1.025     0.407  73.79   0
       556    244.2355    132.9787 307.8293017  +6.6274172     737.5057     1170.596     929.8639     77.84573     156.1275     312.2861      2.042     5.34      836.374     55.08934     102.5496         8     1.269     0.634  16.64   0
       557    337.1400    128.5416 307.7908475  +6.6323728     3391.233      5948.62     6341.008     78.34316     156.2518     312.5659      1.998     4.10      836.171     55.08934     442.2093        37     1.614     1.330  40.00   0
       558      8.1790    131.4719 307.9274369  +6.6200878     861.4952     1619.589     1534.283     77.97039     156.1897      311.757      2.103     5.61     842.5604     55.08934     129.5117        13     1.306     0.977  82.17  16
       559    983.0382    127.4618 307.5224847  +6.6544559     770.1384     1388.674     1656.611     78.34315     156.3761     312.5348      1.919     4.97     828.2925     55.08934     142.5498         8     1.307     0.594  43.94   0
       560    518.6249    127.7432 307.7154616  +6.6387967     1635.866     2691.201     2755.912     77.97039      156.314     312.3483      1.804     3.67     831.2699     55.08934     248.9243        16     1.264     0.805  29.98   0
       561    613.5532    124.3627 307.6761289  +6.6433752        49087     80429.16      85578.1     78.09485     156.2518     312.4415      1.790     4.17     831.5997     55.08934     6936.958        73     1.784     1.188  34.34   0
       562    292.6165    118.0241 307.8097034  +6.6352172      3353.45     5776.053     6226.483     78.09484     156.1897     312.4726      1.875     4.22     836.3817     55.08934     424.3277        27     1.610     0.964  26.68   0
       563    692.1709    112.5727 307.6438562  +6.6508757     871.5237      1418.09      1805.33     77.84573     156.1275     312.3483      1.831     6.01     830.6386     55.08934     118.4238        11     1.354     0.751  25.55   0
       564    663.7758    111.5094 307.6556916  +6.6503636     1318.503     2111.207     1895.562     78.46703     156.1275     312.3794      1.725     5.61     830.7603     55.08934     187.6021        15     1.407     0.721  36.63   0
       565    677.9753    108.4428 307.6498941  +6.6521050     2915.602     4689.954     4817.308     77.97039     156.2518     312.3483      1.669     4.31     830.4774     55.08934     468.2234        23     1.605     0.819  38.31   0
       566      1.4779     97.3299 307.9313774  +6.6339540     912.9039     2548.422     5778.639     70.09997     126.5857     237.6184      6.496    14.54     843.4429     55.08934     139.0759        40     3.949     1.489  88.14  26
       567    419.7452     99.2675 307.7575099  +6.6472315     3845.213     6129.074     6369.739     78.34316     156.2518     312.4726      1.725     4.08     830.9204     55.08934     551.3494        26     1.505     0.960  33.27   0
       568    874.1594     95.5453 307.5688015  +6.6639930     1893.183     3087.491     3167.831      78.2191      156.314     312.5348      1.709     4.57     828.6415     55.08934     276.2485        20     1.586     0.834  34.62   0
       569    892.3232     94.8150 307.5612778  +6.6649016     3579.264     5787.045     5892.736     77.97039     156.0653     312.3794      1.711     4.36       828.52     55.08934      482.946        24     1.526     0.873  35.05   0
       570    572.0440     95.0002 307.6943665  +6.6541037     708.9846     890.7164     749.8193     77.59583     155.9408     312.1617      1.537     4.09     830.6874     55.08934     93.68463         7     0.894     0.535  47.62   0
       571    382.9236     90.9997 307.7730897  +6.6494073      1844.08     3234.431     3493.174     77.59583     155.6915     312.3172      1.809     4.74     833.9045     55.08934     221.0754        22     1.537     0.909  39.20   0
       572    130.9666     88.0285 307.8778870  +6.6421578     2931.961     4767.125     4847.927     77.84573     156.0653     312.3172      1.702     4.11     835.8267     55.08934     392.0671        23     1.429     0.960  36.22   0
       573     12.8572     85.7646 307.9270407  +6.6391113     11149.87     19030.37     21124.54      78.2191      156.314     312.5659      1.852     4.21     841.3425     55.08934     1514.652        46     1.775     1.115  38.85   0
       574    279.1409     86.4650 307.8163687  +6.6477904     1349.529     1961.894     2358.292     78.46702     156.2518     312.5659      1.621     3.81     836.5638     55.08934     177.9439        14     1.175     0.773  41.72   0
       575    539.7406     85.1980 307.7081204  +6.6570664     691.7156     1090.328     671.1584     77.72089      156.003      312.255      1.633     4.74     830.2645     55.08934       142.63         9     1.054     0.972  84.29   0
       576    746.3342     80.3290 307.6224324  +6.6659984     697.6082     1442.581     2115.981     78.34316     156.3761     312.5348      2.951     5.04     829.0176     55.08934     100.9425         9     1.173     0.802  43.56   2
       577    142.0037     84.1425 307.8734322  +6.6441335     620.0193     715.8265     582.7631     77.72089     156.1897      312.255      1.266     3.75     835.6735     55.08934     107.2045         5     0.822     0.491  67.42   0
       578    584.3145     93.1183 307.6893308  +6.6552919     1669.264     2637.991     2544.606     78.09484     156.5623     312.5969      1.707     4.53     830.6018     55.08934     258.7427        19     1.503     0.864  40.75   0
       579    814.6593     80.4794 307.5940337  +6.6682224     5741.269     9231.397     10693.47     78.46703      156.314     312.4726      1.806     4.30     828.5457     55.08934     875.3544        36     1.766     1.029  29.26   0
       580    759.7797     80.8869 307.6168262  +6.6662181     3010.302      4898.96     5314.669     78.09484     156.0653     312.4105      1.704     4.36     828.9355     55.08934       421.74        24     1.601     0.864  34.76   0
       581    404.5208     81.5264 307.7644347  +6.6540430     927.9514     1586.328     1385.335     78.59069     156.5623     312.5659      1.720     4.63     831.7495     55.08934      149.491        11     1.316     0.638  27.64   0
       582    521.9202     78.9125 307.7157375  +6.6590630     1032.878     1695.416     2130.438     78.09484     156.5623      312.659      1.774     4.88     830.0353     55.08934     167.0247        12     1.209     0.823  30.40   0
       583     53.1266     77.5150 307.9105872  +6.6438742      2929.72     4826.499     4853.157     78.46702     156.6243     312.5659      1.770     4.18     838.2313     55.08934     389.3401        28     1.634     0.963  37.49   0
       584     37.8818     78.4637 307.9168897  +6.6429687     882.0258     1369.739     1226.294     78.46702     156.3761     312.5348      1.785     5.75     839.0695     55.08934     105.4845        13     1.324     0.703  37.92   0
       585    641.7906     78.1971 307.6659485  +6.6633773     523.6259     870.0624     823.3386     77.72089      156.003     312.3794      1.357     3.72     829.6846     55.08934     65.26648         5     1.185     0.336  10.84   0
       586    413.9886     77.0618 307.7606510  +6.6562039     936.0643     1569.485     2202.016     77.84573     156.1275     312.3172      1.878     5.26     830.8048     55.08934     151.2885        13     1.458     0.627  46.65   0
       587    576.8881     74.5072 307.6930436  +6.6627250     1220.456     1754.696     1363.196     78.34315     156.7483      312.628      1.579     4.60     829.8315     55.08934     171.4421        15     1.255     0.881  51.44   0
       588    754.0683     68.3818 307.6196200  +6.6711887     1960.057     3117.236     3095.835     77.97039     156.1897     312.4726      1.668     3.87     828.6065     55.08934     265.9764        19     1.332     0.852  49.28   0
       589    394.6855     68.5296 307.7689602  +6.6590773     1071.663     1540.786     1122.393     78.46703     156.5623     312.5659      1.641     5.15     832.5706     55.08934      149.905        14     1.320     0.823  42.52   0
       590     68.1753     69.2424 307.9046141  +6.6477960     696.6839     1209.773     1316.009     77.97039     156.2518     312.3172      1.597     6.76     836.8974     55.08934     125.9216        12     1.334     0.960  43.56   0
       591     91.7679     66.9408 307.8948885  +6.6495412     725.8508     1260.443     1448.167     78.09484     156.3761     312.5037      2.449     4.84     835.7072     55.08934     108.7738         7     1.250     0.531  25.70   0
       592     80.8759     61.9092 307.8995848  +6.6512509      8570.12     14112.55     14657.89     78.34316     156.5623     312.5659      1.763     4.18     835.9911     55.08934     1102.867        39     1.660     1.067  36.78   0
       593    409.8603     61.6936 307.7628849  +6.6624087     2237.153     3874.791     4114.717      78.2191      156.314     312.5969      1.814     4.29     830.9595     55.08934     278.9991        24     1.571     0.925  40.14   0
       594    247.7446     56.0753 307.8304416  +6.6592779     1345.596     2401.148     3729.285      78.2191     156.2518     312.5037      2.215     6.57     836.1907     55.08934     194.4215        16     1.602     0.819  39.63   0
       595    623.7151     54.0514 307.6742727  +6.6727382     16734.18     27660.05     29519.57     78.34315     156.2518      312.628      1.750     4.16     828.8745     55.08934     2306.104        50     1.724     1.112  38.26   0
       596    653.1526     55.2232 307.6620000  +6.6732410     538.8138     939.5309     886.4316     77.97039      156.314     312.4105      1.644     3.85     828.7963     55.08934      98.3913         5     1.317     0.323  30.95   0
       597    933.5801     53.7571 307.5455105  +6.6832278      481.926     757.7449     1363.363     77.84574     156.1897     312.3794      1.848     4.46     826.4701     55.08934     66.70276         5     1.155     0.489  32.22   0
       598    523.4055     50.0531 307.7160926  +6.6710250     4616.227     7632.831     8423.841     77.84573     156.0653      312.255      1.769     4.07     828.8372     55.08934     647.4258        33     1.620     1.022  34.39   0
       599    241.8000     50.1039 307.8331136  +6.6615426     1671.243     3124.669     4480.118     77.84573     155.9408     312.1306      2.278     4.95      836.101     55.08934     238.7577        20     1.477     0.956  44.25   1
       600    429.0400     45.6852 307.7554545  +6.6696605     20761.73     34682.32     37290.73     78.34315     156.2518     312.5037      1.793     4.17     829.7409     55.08934     2844.262        53     1.764     1.141  35.49   0
       601    610.0168     44.7076 307.6802798  +6.6761359     2879.398     5625.874     6723.153     78.09484     156.1275     312.3794      2.206     5.76     828.5455     55.08934     428.1803        39     2.049     1.168  61.48   0
       602    249.6623     46.0683 307.8299828  +6.6634729     8309.745      13898.6     15803.87     78.34315     156.2518     312.5659      1.843     4.14     836.2365     55.08934     1086.771        40     1.736     1.061  34.40   0
       603    906.8947     45.8571 307.5568656  +6.6855971     1724.961     2870.617     3142.312      78.2191      156.314     312.6901      1.779     4.46     826.8578     55.08934     276.1595        17     1.448     0.771  34.70   0
       604     15.0170     45.6198 307.9275027  +6.6557540     2091.352     3402.414     3726.287     78.09484     156.1275     312.4415      1.827     4.47     836.9147     55.08934     290.9994        21     1.597     0.836  33.72   0
       605    542.1715     44.9869 307.7084648  +6.6737457     467.8817     625.6717       221.46     77.97039     156.0653     312.4415      1.219     3.50     828.5591     55.08934     103.7248         5     1.679     0.210  51.06   0
       606    309.3981     45.9866 307.8051623  +6.6655158     802.5367     1276.466     1682.414     77.97039      156.003     312.3172      1.786     4.53     836.8817     55.08934     123.7515         8     1.215     0.481  24.43   0
       607    237.4336     42.5786 307.8351823  +6.6645019     2868.773     4752.245     5411.437     77.84574     156.1275     312.3483      1.796     4.52     836.0225     55.08934     376.2219        28     1.673     0.940  38.44   0
       608    290.7137     40.6833 307.8131058  +6.6670765     1034.255      1802.67     2428.988     78.09485     156.5003     312.5969      2.211     7.18     836.9048     55.08934     114.0526        16     1.533     0.942  21.49   0
       609    678.8196     35.3396 307.6520025  +6.6823081     1628.007     2812.283     3265.332     77.97039     156.2518     312.4415      1.980     4.31     828.0552     55.08934     244.2565        18     1.456     0.854  46.00   0
       610    927.3328     35.9196 307.5487054  +6.6903820     785.8173     1308.167     1338.777     78.46702     156.5623     312.5348      1.574     5.35     826.0152     55.08934     100.2666         9     1.247     0.648  40.90   0
       611     83.9078     35.8587 307.8992065  +6.6621055      641.776     1008.278     780.8771      78.2191     156.2518      312.659      1.572     4.04     834.8507     55.08934     113.5524         6     0.809     0.577  32.79   0
       612    190.2804     31.0259 307.8551673  +6.6676833     573.5186     1095.171     1166.768      78.2191     156.1275     312.5348      2.036     4.85     835.1207     55.08934     89.75269         6     1.401     0.475  43.87   0
       613    167.1311     28.1498 307.8648842  +6.6680910     9715.271     16176.64     17120.34      78.2191     156.2518     312.5348      1.779     4.04     834.6131     55.08934     1269.139        46     1.667     1.160  35.17   0
       614    244.2365     29.6312 307.8327929  +6.6700749     646.6198      877.065     1079.266     77.97039     156.0653     312.2861      1.630     5.40     836.1521     55.08934     119.1367         7     1.094     0.753  40.73   0
       615    511.2301     26.3329 307.7219516  +6.6804074     2822.264     4612.984      4971.89     78.09485      156.314     312.5037      1.751     4.05      827.908     55.08934     399.0365        29     1.648     1.003  35.58   0
       616    912.6995     25.8780 307.5551238  +6.6940379     3822.268      5945.54     6832.387     78.09484     156.5623     312.5659      1.731     3.94     826.0367     55.08934     545.3107        29     1.611     0.939  33.22   0
       617    713.7485     24.4949 307.6378515  +6.6879542      1748.63     2910.253     2787.913      78.2191     156.2518     312.7833      1.759     4.89     827.4707     55.08934     247.8416        20     1.540     0.844  35.22   0
       618    449.2538     24.7801 307.7477594  +6.6789681     1769.895     2880.982     3330.919     77.84573      156.314     312.3483      1.770     4.01     828.7969     55.08934     234.3537        18     1.339     0.899  23.54   0
       619    977.3814     22.2000 307.5283660  +6.6977167     1832.577     3104.567     3459.058     77.84574     155.8162     312.1928      1.858     4.59     822.7383     55.08934     233.2324        23     1.520     0.970  39.54   0
       620    351.3102   1019.9452 307.7548993  +6.2649044     1614.071     2807.858     3044.563     78.34315     156.1275     286.8711      1.910     5.00     860.2592     55.08934     201.0388        20     1.515     0.923  19.94  16
       621    617.1688     17.9869 307.6782071  +6.6874051      3288.76     5423.419     5855.382     77.84573     156.0653     312.4726      1.766     4.27     827.4146     55.08934     475.2889        26     1.577     0.951  29.32   0
       622    318.8365     17.8506 307.8021901  +6.6774465     759.4361     1339.812     1748.554      78.2191     156.2518     312.4415      1.869     5.38     837.0113     55.08934     105.3931        11     1.407     0.661  38.10   0
       623    961.8442   1018.1125 307.5014390  +6.2861019       533.85     1125.595     421.9355     78.34315     156.1897     304.2209      1.801     5.59     855.3135     55.08934     100.1594         6     1.587     0.554  29.72  16
       624    738.3131   1009.7848 307.5945409  +6.2820697     6911.499     12035.47     12982.21     77.97039     156.0653     312.4415      1.878     4.49     857.5618     55.08934     836.1269        41     1.739     1.137  35.10   0
       625    533.5099   1010.1563 307.6795727  +6.2750579     3772.481     6589.178     7450.838     78.34316     156.2518     312.5969      1.964     4.35     860.1123     55.08934     461.5965        35     1.588     1.248  34.70   3
       626    530.8645   1002.4485 307.6809305  +6.2781508     7639.213     12747.29     13226.34      78.2191     156.1897     312.5348      1.809     4.18     860.0262     55.08934     988.4648        39     1.704     1.058  36.94   3
       627    503.6902   1011.1958 307.6919202  +6.2736291     1017.824     1822.712     2337.741     77.84573      156.003     312.2861      2.117     4.95     860.2364     55.08934     144.4105        14     1.374     0.760  31.07   0
       628    283.9495   1008.8053 307.7832451  +6.2672398     12833.78     23013.68        26176     77.72089     156.1275     312.1617      1.971     4.31      859.503     55.08934     1647.011        68     1.820     1.539   6.93   0
       629    799.0290   1009.1074 307.5693511  +6.2843799     931.5648     1774.002     2015.383     78.46702     156.0653     312.4415      2.165     6.97      857.561     55.08934     109.8819        14     1.307     1.042  37.37   0
       630    407.9753   1009.1826 307.7317326  +6.2712492      771.277     1223.315     1530.625     78.09484     156.1897     312.4726      1.761     4.68     859.6188     55.08934     117.1328         8     1.274     0.488  24.48   0
       631    255.0468   1006.0707 307.7953385  +6.2673972     783.9332     1079.295     856.1494     78.34316     156.2518     312.5348      1.574     4.63      858.623     55.08934     128.6464         9     1.240     0.490  57.00   0
       632    899.5717   1003.1690 307.5277990  +6.2901911     7483.495     13450.93     14783.23     77.84573     156.0653     312.3172      1.918     4.56     856.6588     55.08934     904.6044        45     1.798     1.165  36.53   0
       633    873.1497    999.3506 307.5388990  +6.2908846     10345.71     18843.65     20613.21     78.34316     156.1897     312.4726      1.967     4.53     857.1193     55.08934     1215.493        56     1.850     1.282  29.73   0
       634    994.7152    998.7188 307.4884384  +6.2952045     3960.385     7526.819     8177.686     78.09485     156.6243     312.5969      2.028     5.05     853.6758     55.08934     455.3659        37     1.796     1.158  35.77   0
       635    585.7275    999.5850 307.6582450  +6.2811714     1147.526     2058.168     2043.327     77.84574     156.1897     312.4415      1.801     6.88      860.029     55.08934     177.5885        16     1.577     0.876  60.17   0
       636    517.4117    998.2693 307.6866573  +6.2794249     3615.905      6542.86     6557.869     77.84574     156.1275     312.4105      1.920     4.57     860.0305     55.08934     500.3043        35     1.735     1.145  28.30   0
       637    626.8274    997.7422 307.6412402  +6.2833089      1133.21     2017.287     2352.561     77.97039     156.3761     312.4415      1.878     5.70      859.276     55.08934     155.6584        17     1.551     0.844  37.26   0
       638    470.4882    994.7845 307.7062594  +6.2792898     2129.781      3632.15     3681.431     78.09485     156.0653     312.4105      1.832     4.48     860.0101     55.08934     261.8958        23     1.462     1.012  31.77   0
