#   1 NUMBER                 Running object number                                     
#   2 X_IMAGE                Object position along x                                    [pixel]
#   3 Y_IMAGE                Object position along y                                    [pixel]
#   4 ALPHA_J2000            Right ascension of barycenter (J2000)                      [deg]
#   5 DELTA_J2000            Declination of barycenter (J2000)                          [deg]
#   6 FLUX_APER              Flux vector within fixed circular aperture(s)              [count]
#   9 FLUXERR_APER           RMS error vector for aperture flux(es)                     [count]
#  12 FLUX_RADIUS            Fraction-of-light radii                                    [pixel]
#  13 FWHM_IMAGE             FWHM assuming a gaussian core                              [pixel]
#  14 BACKGROUND             Background at centroid position                            [count]
#  15 THRESHOLD              Detection threshold above background                       [count]
#  16 FLUX_MAX               Peak flux above background                                 [count]
#  17 ISOAREA_IMAGE          Isophotal area above Analysis threshold                    [pixel**2]
#  18 A_IMAGE                Profile RMS along major axis                               [pixel]
#  19 B_IMAGE                Profile RMS along minor axis                               [pixel]
#  20 THETA_IMAGE            Position angle (CCW/x)                                     [deg]
#  21 FLAGS                  Extraction flags                                          
         1    300.6905     30.4505 307.8143674  +6.8702594     7266.876     34226.79     55621.66     95.89929     191.1145     382.7617      3.583    10.28     1302.758     67.43446     1063.986       121     2.721     2.563 -79.69   0
         2    628.8042     21.1668 307.6773792  +6.8850439     1405.708     3012.907     4915.935     94.98449     191.1907     382.3052      2.689     8.15     1272.326     67.43446     150.8149        22     1.621     1.145  82.12   3
         3    343.0000     21.5889 307.7969690  +6.8753384     1030.792     1912.162     3532.319      95.2904      190.886     382.3052      3.337     8.09     1296.325     67.43446     143.4604        15     2.555     0.716 -86.04   3
         4    346.0000     23.0335 307.7956636  +6.8748410     1167.387     2425.431     4170.134      94.6776     191.0384     382.2291      3.882     7.26     1295.833     67.43446     178.6001        16     2.686     0.549  80.47   3
         5    348.9740     21.0183 307.7944888  +6.8757739     1362.244     2844.619     5125.592     95.44299     191.1145     382.4574      4.068    10.69     1295.403     67.43446     152.0085        31     2.645     1.203  83.56   2
         6    470.8228     11.5970 307.7438235  +6.8837378     1407.623     4818.167     8135.197     95.44299     190.9622     382.3433      3.513    13.18     1282.496     67.43446      166.912        51     2.635     1.835 -50.97  18
         7    585.1555      7.9061 307.6961039  +6.8890756      1547.66     3926.972     5891.953     95.74743     191.2668     380.3973      3.300     9.60     1274.264     67.43446     176.4468        29     2.076     1.239 -46.83  19
         8    586.4341     11.9579 307.6954289  +6.8874422     1532.781     2572.496     4121.931     95.59533     191.3428     382.3813      2.255     7.06     1274.189     67.43446     188.7821        13     1.577     0.886  -6.88   3
         9    589.4370      9.3457 307.6942624  +6.8886228     1530.227     2949.482       4671.4     95.74743     191.3428     382.6096      2.441     6.08     1274.099     67.43446     194.9637        15     1.632     0.648 -75.98  19
        10    283.8405     10.7363 307.8221017  +6.8778509     1224.654     2672.636     4030.464     95.89929     191.2668     382.6856      2.257     6.93     1305.059     67.43446     154.7917        17     1.801     0.748  38.86  18
        11    288.0157      7.8031 307.8204562  +6.8792038     1432.551     3283.675     5010.788     95.44299      190.886     379.5931      2.984     6.86     1305.098     67.43446     209.0857        21     1.767     1.121 -80.52  18
        12    324.3011      2.8993 307.8054414  +6.8824446     540.3495     1602.585     2358.335     95.89929     177.4539     317.2374      2.414     4.42     1299.703     67.43446     87.42041         5     1.602     0.346  44.57  24
        13    924.5826   1000.9296 307.5198920  +6.4895812     2970.348     6908.729       7446.7      95.2904     191.1907     382.4574      2.354     5.58     1331.368     67.43446     340.9906        44     1.842     1.518  66.14   0
        14    926.3820   1021.8778 307.5184196  +6.4809754     861.0092     1495.099      1674.98      95.2904     179.5733     321.1126      1.852     5.50     1332.452     67.43446     124.2375        11     1.374     0.620 -87.02  24
        15    751.1246   1020.3029 307.5917578  +6.4758090     7768.669     19705.47     22266.62     95.44299     191.5708     345.9381      2.460     5.87     1336.137     67.43446     862.5731        64     1.984     1.789  84.19  24
        16    454.8209   1019.1516 307.7156940  +6.4664251     17731.25     52181.28     67301.38     95.44299     191.3428     360.9652      2.873     6.60      1336.84     67.43446     1764.721       111     2.320     2.160  63.67  24
        17    227.9143   1023.6357 307.8104140  +6.4569992     2643.802     4064.113     4863.689     83.92271     152.6821     288.3042      1.610     4.82     1335.673     67.43446     594.8862        16     1.595     0.671  -1.11  24
        18    499.4939    993.0331 307.6979163  +6.4787176     604.2391     1235.098      1458.99     96.05091     191.1907     382.6856      1.623     4.93     1335.448     67.43446      94.2583         6     1.376     0.500  52.08   0
        19    396.2192    987.9481 307.7412754  +6.4773787     16268.33     50694.08     64642.69      95.2904     191.4189     382.3433      2.879     7.04     1336.417     67.43446     1849.231       104     2.357     2.086  81.35   0
        20    604.1427    987.4988 307.6543487  +6.4844912     4906.731     14594.32     18843.22     95.59533     191.3428     382.7997      2.852     7.08     1334.559     67.43446     547.6431        68     2.127     1.910  89.86   0
        21    161.5155    985.7990 307.8394869  +6.4704312     7780.697     23270.99     30519.09     94.98449     190.8097     382.2291      2.897     6.59     1335.282     67.43446     907.4622        91     2.414     2.007  74.14   0
        22    525.9440    984.3693 307.6871554  +6.4831824     1221.112     3543.036     4629.818     95.74743     191.4189     382.4955      2.884     9.46     1335.128     67.43446     163.4557        26     1.703     1.466 -74.50   0
        23    127.6766    986.8979 307.8535977  +6.4688453     763.5335     1564.727     1444.457     95.44299     191.6468     382.6096      2.137     4.78     1335.075     67.43446     112.9685         5     1.015     0.639  -3.04   0
        24    939.4613    984.9300 307.5142202  +6.4966931     701.8887     1679.361     1889.196     96.05091     191.3428     382.6096      2.074     4.24     1330.183     67.43446     107.7079         6     1.320     0.388  20.30   0
        25    899.5839    980.9676 307.5310319  +6.4970095       2683.5     6072.002     7031.922     95.44299     191.0384     382.4194      2.384     5.82     1330.815     67.43446     288.9314        37     1.745     1.506 -79.24   0
        26    572.8231    979.7847 307.6677110  +6.4866397     2521.171     7637.966     9124.076     95.59533     191.1145     382.4574      2.779     8.10     1334.658     67.43446     304.2308        52     2.102     1.753 -81.23   0
        27    922.3440    973.1589 307.5217827  +6.5009947     1888.183     4443.064     4976.063     95.74743     191.3428     382.6096      2.446     6.93     1329.944     67.43446     192.5884        31     1.735     1.392 -74.71   0
        28    485.3177    970.9216 307.7046075  +6.4873917      2915.44         8814     11392.35     96.05091     191.6468     382.7237      2.920     7.16     1334.817     67.43446     311.8826        60     2.043     1.948  76.58   0
        29    331.4280    970.9034 307.7689565  +6.4822678     1012.039      3175.07     3985.202     96.05091     191.0384     382.4955      2.842     9.99     1336.134     67.43446     134.3302        24     1.744     1.596  47.41   0
        30    841.2012    966.5499 307.5559415  +6.5010361     1610.774     3882.831     5222.701     95.13757      190.886     382.0387      2.750     7.02     1330.852     67.43446     207.8834        29     1.609     1.482  89.10   0
        31    848.0428    959.8935 307.5533096  +6.5040167     1007.227     2288.054     2873.747     96.05091     191.2668     382.7237      3.304     8.52      1330.37     67.43446     129.5497        15     2.129     0.952 -15.28   2
        32    674.4850    956.7190 307.6259955  +6.4995635     1193.042     3099.245     4950.204     95.59533     191.7227     382.6476      3.333     6.11     1332.531     67.43446     140.1416        13     1.222     0.860  61.33   2
        33    344.6934    955.1570 307.7639541  +6.4892239     1462.883     4011.503     5437.283     95.89929     191.3428     382.7237      3.391    10.45      1335.74     67.43446     183.0282        31     2.215     1.374  66.93   2
        34     36.2923    955.8911 307.8928825  +6.4786135     984.8034     2030.949     3427.985     95.89929     191.9503     382.6096      3.114     5.33       1333.2     67.43446     157.1407        11     1.095     0.825  63.61   0
        35    571.6408    951.9584 307.6691654  +6.4981109      4017.78      12021.5     15565.27     95.59533     191.3428     382.4194      2.902     6.82     1333.679     67.43446     409.4043        67     2.104     1.997 -83.21   0
        36    734.3909    948.3552 307.6012329  +6.5050148     6815.366     20065.16     26208.09      95.2904     191.1907      382.191      2.869     6.84     1331.117     67.43446     754.6628        87     2.385     2.030 -75.68   0
        37    254.2330    948.6736 307.8020040  +6.4888859     1039.674     2928.967     3093.124     95.74743     191.2668     382.5715      2.624    10.08     1335.418     67.43446     136.3033        23     1.903     1.489  43.31   0
        38    887.7654    959.0138 307.5367289  +6.5056989     614.6942     1224.208     1086.789      95.2904     191.0384     382.4194      2.041     4.91     1329.765     67.43446     95.39697         5     0.895     0.762 -84.77   0
        39    763.5811    945.2304 307.5891339  +6.5072774     711.7097     1871.059     1682.385     95.44299     191.1145     382.4194      2.089     4.24     1330.476     67.43446     97.09326         5     1.137     0.450 -32.87   0
        40     72.0838    940.7461 307.8784423  +6.4860759     1959.565     5725.736     7051.844     95.89929     191.3428     382.7617      2.845     8.56     1333.033     67.43446     226.2281        45     2.122     1.774  54.70   0
        41    919.2444    942.4673 307.5241339  +6.5135879     1065.053     2223.428     2340.969     95.89929     191.2668     382.6096      2.219     7.82     1328.332     67.43446     122.2152        16     1.437     1.189  77.32   0
        42    973.4783    938.0497 307.5016060  +6.5172138      2432.96     5693.987     6461.828     95.89929     191.4189     382.5715      2.432     6.69     1326.937     67.43446     294.2993        42     2.012     1.459  54.26   0
        43    709.6851    939.2508 307.6118777  +6.5079597     993.6553     2992.142     3716.422     95.89929     191.2668     382.6856      2.773     9.77     1330.834     67.43446      137.672        22     1.846     1.442 -20.68   0
        44    308.4477    934.5332 307.7798235  +6.4965453     1464.539      3496.01     5516.205     95.89929     191.2668     382.6096      3.144    10.00     1335.293     67.43446     163.2153        26     1.927     1.447  64.88   2
        45    665.9902    933.2285 307.6303573  +6.5089981     746.8967     1331.032       1784.2     95.44299     191.1145     382.3813      1.996     3.83     1331.304     67.43446     112.9679         5     0.829     0.508 -60.42   0
        46    672.6615    920.1115 307.6280196  +6.5146459     5898.988     17886.86     23275.02     95.89929     191.4949     382.6476      2.872     7.00     1330.674     67.43446     572.0465        80     2.260     2.027  86.12   0
        47    775.3464    921.2128 307.5850408  +6.5176034      812.711     2021.948     2189.015     95.13757     191.2668     382.2291      2.601     8.41     1329.008     67.43446     117.8657        13     1.903     1.038  -3.99   0
        48    593.3942    914.9993 307.6613437  +6.5141234     1161.713     3086.753     4114.799     95.13757     190.9622     382.3433      2.934     9.45      1332.16     67.43446     132.6891        22     1.767     1.411  22.78   2
        49    566.2195    911.4175 307.6728311  +6.5147004     5842.007     18646.43     28563.71     95.59533     191.1145     382.4955      3.341     8.50     1332.203     67.43446     691.7172       104     2.805     2.177  39.40   0
        50    897.8446    909.8293 307.5342052  +6.5263792     1823.869     4699.364     5521.751     95.44299     191.4189     382.4194      2.586     7.73     1326.709     67.43446     232.6504        33     1.733     1.450 -67.59   0
        51    337.2314    906.3932 307.7687607  +6.5091461     9565.646     33516.83     44668.17     95.13757     191.1907     382.3052      3.051     7.74     1333.907     67.43446     1145.275        98     2.412     2.159  80.49   0
        52     83.8738    905.5154 307.8747339  +6.5010432     1013.193     2578.726     3749.485     96.05091     191.7227     382.6096      3.115     8.19     1331.985     67.43446     125.9471        14     1.442     1.300  12.86   0
        53    866.8925    900.1775 307.5474811  +6.5293447     2188.911     6058.839      6854.95     95.89929     191.1145     382.3813      2.551     7.49     1326.717     67.43446     281.9832        43     1.925     1.650 -62.67   0
        54    194.8842    897.1043 307.8286062  +6.5082345     4728.725     15896.27      21682.7     95.89929     191.7986     382.6856      3.108     7.48     1333.406     67.43446     641.8497        83     2.356     2.108  83.85   0
        55   1021.3241    898.5093 307.4829554  +6.5351562     2454.441     5784.917     6221.708     95.89929      186.334     330.5362      2.263     6.52     1322.412     67.43446     260.8104        36     1.777     1.431 -84.52  24
        56    999.2545    886.9161 307.4925832  +6.5392205      4697.09      11552.7      13372.8     95.89929     191.3428     382.7617      2.477     6.08     1322.026     67.43446     490.5005        51     1.911     1.584  87.62   0
        57     95.3551    886.1358 307.8706049  +6.5094435     1861.257     6001.937      7134.07     95.89929     191.2668     382.5715      2.887     8.43     1331.382     67.43446     234.9844        49     2.084     1.873  48.83   0
        58    117.3312    881.1946 307.8615868  +6.5122225      1009.39     2698.346     3867.056      95.2904      190.886     382.3813      2.981     9.09     1331.693     67.43446     120.5022        19     1.832     1.260  43.53   0
        59    340.8570    875.1638 307.7683246  +6.5221851     931.2449     2434.428     3317.778     95.74743     191.3428     382.6096      2.783     7.36     1332.232     67.43446     119.6582        14     1.793     0.846  38.56   0
        60    928.1088    874.2782 307.5227710  +6.5420895     560.1453     1165.852      1843.06     95.59533     191.6468     382.6476      2.398     4.67     1323.655     67.43446     120.6228         5     1.204     0.514  67.81   0
        61    392.7267    871.1753 307.7467717  +6.5255655     1977.375     4320.581     6713.587     95.44299     191.1907     382.4955      2.625     9.92      1331.83     67.43446     241.6838        36     2.762     0.994  55.83   3
        62    396.6201    869.4039 307.7452048  +6.5264281     2363.708     4751.049     6601.642     95.44299      190.886     382.3433      2.388     7.52     1331.738     67.43446     284.9532        27     2.112     0.961  68.44   3
        63    393.3136    867.9276 307.7466386  +6.5269284      1654.92     2735.508     4169.072     96.05091     191.6468     382.5715      1.741     5.70     1331.707     67.43446     304.1791        13     1.631     0.560  63.34   3
        64    734.8154    866.6484 307.6038696  +6.5388278     4783.299     15290.51     19985.03     95.13757     191.2668     382.2671      2.918     7.41     1328.203     67.43446     545.0475        75     2.225     2.055  85.67   0
        65    978.4495    861.2516 307.5021658  +6.5491474     1947.168     4508.279     5088.469     96.05091     191.1907     382.5335      2.363     6.68     1320.659     67.43446     207.5677        32     1.788     1.372 -54.48   0
        66    441.8150    851.4674 307.7269248  +6.5353546     1087.136      2751.86     3970.534      95.2904     191.1907     382.4574      2.929     7.71     1330.783     67.43446     170.0267        16     1.797     0.926 -55.49   2
        67    800.1838    849.5381 307.5771214  +6.5480776     13336.62      39881.1     51324.52      95.2904     191.2668     382.3433      2.866     6.94     1325.254     67.43446     1435.757        99     2.345     2.033 -87.34   0
        68    414.0182    852.4781 307.7385142  +6.5340097     939.4324     2653.934     3959.019      95.2904     190.9622     382.4955      3.054     6.92     1330.863     67.43446     134.9629        14     1.713     0.785 -24.45   0
        69    573.6091    840.0955 307.6722017  +6.5444494     944.6387     2382.807     4009.558     95.59533      190.886     382.3052      3.390     8.92     1328.103     67.43446     123.5848        14     2.003     1.109 -78.36   2
        70    656.6643    835.7129 307.6376188  +6.5490262     26668.06      89884.8     118492.1     95.89929     191.5708     382.6096      3.004     7.71     1327.309     67.43446     2783.254       126     2.430     2.209  89.13   0
        71     56.6922    831.1042 307.8886807  +6.5309130      2071.05     6714.653     9105.824     95.89929     191.9503     382.5335      3.061     8.78     1330.098     67.43446     286.7701        48     2.211     1.831  -3.19   2
        72    521.4156    832.5591 307.6942892  +6.5458287     855.4471     2036.665     3385.508     95.29041     191.1145     382.3052      3.574    10.83     1328.383     67.43446      110.354        15     2.608     1.254  -7.55   2
        73    517.8197    829.7955 307.6958884  +6.5468521     795.8636     1456.334     2869.166     95.44299     190.9622     382.3433      2.509     3.60     1328.193     67.43446     132.2296         6     0.924     0.642  29.06   3
        74    502.3883    828.7341 307.7023785  +6.5467771     2105.485      8095.94     11319.49      95.2904     191.1145     382.4194      3.171     8.56     1328.525     67.43446       311.71        65     2.210     2.180 -67.97   0
        75    365.4622    824.0159 307.7598038  +6.5441635     7635.511     29021.15     40839.61      95.2904     191.2668     382.3433      3.218     8.46     1330.395     67.43446     1052.367       101     2.451     2.278  80.53   0
        76    232.1669    825.8756 307.8154822  +6.5389438     925.9318      2899.75     4537.171     95.74743     191.3428     382.5335      3.287     9.98     1330.882     67.43446      124.837        24     2.191     1.267  15.71   0
        77    452.7479    817.0400 307.7235422  +6.5499601      2048.24     3892.464     6115.784     95.74743     191.4189     382.5715      2.357     7.17     1328.486     67.43446     255.2059        24     1.708     1.147  24.96   3
        78    456.6093    813.8109 307.7220388  +6.5514245      2791.81     5433.546     6727.695     95.44299     191.1145     382.4955      2.237     5.47     1328.231     67.43446     365.5281        26     1.729     1.003  77.45   3
        79    453.0287    812.7444 307.7235731  +6.5517463     2457.108     4650.959     6364.215     95.59533     191.4189     382.4574      2.454     4.74     1328.216     67.43446     270.1438        18     1.235     1.098  42.03   3
        80    723.6275    812.4371 307.6104161  +6.5608811     1252.466     3667.553     4652.736     95.29041     191.0384     382.3433      2.774    10.36     1324.779     67.43446     140.5081        31     1.818     1.647 -31.44   0
        81    281.7846    809.8533 307.7952873  +6.5472287     632.1018     1502.655     2698.355     95.13757     191.3428     382.2291      3.574     5.57     1331.074     67.43446     103.8948         7     1.080     0.810  19.87   0
        82    342.0265    800.5165 307.7704173  +6.5531020     1545.397     2610.863     3278.499     95.74743     191.0384     382.4955      1.931     5.81     1330.254     67.43446     195.1678        12     1.552     0.626  46.95   3
        83    345.0779    797.8796 307.7692324  +6.5542946     2488.204      7080.04     9799.271     96.20229     191.6468     382.7617      2.994     8.97     1330.057     67.43446     312.7982        53     2.358     1.703  46.55   2
        84    201.1198    798.8879 307.8294004  +6.5490697     735.2778      2017.17     3579.143     95.59533     191.6468     382.7237      3.745     8.72      1329.45     67.43446     119.1732        13     2.040     1.040  58.88   0
        85    712.1345    794.2239 307.6158502  +6.5680332     17236.57     60727.32     80248.57     95.44299     191.3428     382.4955      3.035     7.87     1323.635     67.43446     1938.784       112     2.412     2.189 -85.69   0
        86    887.0585    790.9990 307.5428028  +6.5751774     822.2022     2367.865     2640.956     95.13757      190.886      382.191      2.511     8.25     1319.955     67.43446      116.259        15     1.975     0.964  77.99   0
        87    384.2762    792.7402 307.7530172  +6.5577284     731.5348     1925.523     2484.782     96.05091     191.4189     382.5335      3.181     7.86      1328.79     67.43446     106.0809        11     2.125     0.812  22.75   0
        88    946.5407    789.9973 307.5179597  +6.5775650     838.0257     1551.099     2157.022     95.13757     191.0384     382.2291      2.107     5.87     1317.379     67.43446     122.5461         8     1.431     0.677  18.43   0
        89    712.8078    778.5789 307.6161078  +6.5745273     1765.032      3461.55     4696.006      95.2904     191.1145     382.3052      2.520     9.84     1322.444     67.43446     246.9948        27     2.726     1.050 -67.21   3
        90    708.8251    777.5760 307.6178080  +6.5748098     2003.759     4556.401     5454.695      95.2904     191.1145     382.4955      2.385     9.48     1322.413     67.43446     239.5272        32     2.083     1.204 -83.29   3
        91    149.1990    779.5688 307.8517827  +6.5553251       696.14     1900.916     3279.155     95.13757     191.1145     382.3433      2.954     7.24     1327.912     67.43446     129.8505        10     2.823     0.521 -32.14   2
        92    727.0039    775.5463 307.6102750  +6.5762537     1079.615     2897.525     3863.594     95.13757     191.0384     382.1148      2.751     8.98     1322.043     67.43446     127.0171        24     1.604     1.405  42.03   2
        93    317.9383    771.7411 307.7814865  +6.5642010     767.3383     2041.414     3491.076     95.89929     191.2668     382.6096      2.960     3.80     1329.087     67.43446      111.561         5     0.806     0.514 -56.35   0
        94    964.8524    767.1597 307.5110860  +6.5876194     2630.653     7069.756     9015.014     95.74743     191.4189     382.5715      2.734     6.77     1315.973     67.43446     308.3621        48     1.992     1.650 -75.69   0
        95    206.7157    762.5007 307.8283206  +6.5643082     2007.414     5869.977     9874.221     95.89929     191.9503     382.6856      3.845     9.53     1328.311     67.43446     270.0096        48     2.347     1.741  52.22   2
        96    445.5901    767.1071 307.7282608  +6.5703764      782.684      1550.28     2771.361     95.44299      190.886     382.3433      2.251     4.56     1326.329     67.43446     126.3536         5     1.332     0.443  30.42   0
        97    342.7754    754.0480 307.7717114  +6.5723487     588.1901     1283.692     1673.159     95.44299     191.3428     382.4574      3.174     4.53      1327.83     67.43446     134.5625         5     1.125     0.617   3.82   0
        98    112.3991    749.4025 307.8682181  +6.5665724     769.9324     1509.792     2766.669     95.13757     190.8097      382.191      2.209     4.18     1326.268     67.43446     106.5281         7     1.058     0.472 -82.10   0
        99    683.0285    741.8248 307.6298293  +6.5887409     1643.027     4699.256     6940.529      95.2904     191.1145     382.4194      3.144     8.25     1319.849     67.43446     206.1458        41     1.982     1.645  40.50   2
       100    522.0607    744.5771 307.6970570  +6.5822445     691.2662     1657.665     3261.595     95.44299     191.2668     382.4574      3.714     5.92     1322.438     67.43446     108.4058         7     1.374     0.719 -75.03   2
       101    622.0297    744.1454 307.6552614  +6.5857516     738.8842     2014.985      2977.82     95.59533     191.4189     382.4574      2.905     6.31     1321.079     67.43446       130.59         9     1.596     0.701  49.77   0
       102    185.1631    729.2994 307.8384843  +6.5773213     842.4551     1727.333     2844.843     95.89929     191.1907     382.8377      2.054     5.30     1326.602     67.43446      149.188         6     1.648     0.482  74.32   0
       103    416.5435    718.3077 307.7420954  +6.5895939     5927.689     23755.78     35791.46     95.74743     191.2668     382.7237      3.409     9.18     1325.058     67.43446     823.8472       114     2.672     2.406 -66.11   0
       104    744.4953    716.9936 307.6049766  +6.6010562     3979.973     7842.729     11040.09     95.59533     190.9622     382.3433      2.434     9.69      1317.06     67.43446     421.9119        41     2.531     1.131 -74.84   3
       105    740.8095    716.3318 307.6065410  +6.6012075     4194.391      10081.7     13648.51      95.2904     191.1145     382.4194      2.624     8.99     1316.991     67.43446     499.0389        42     2.499     1.131 -76.19   3
       106    102.5828    714.3462 307.8735389  +6.5807447     699.2712     1481.827     2467.257      95.2904     191.4189     382.2291      2.531     3.94     1324.574     67.43446     92.82471         5     1.047     0.424 -74.75   0
       107    540.5222    703.1752 307.6907651  +6.5999857     1356.228     4665.248     6175.037     95.44299     191.1907     382.5335      3.052    12.08     1320.852     67.43446     163.9469        44     2.059     1.974 -59.42   2
       108    502.1502    706.4106 307.7067024  +6.5973690     623.3951     1201.294     2027.515     95.13757     191.1907      382.191      2.386     4.21     1321.888     67.43446     89.83154         5     1.166     0.433 -12.45   0
       109    846.0012    700.1527 307.5631007  +6.6113946     3922.747     9519.395     12354.21     95.13757      190.886     382.0387      2.663     8.30     1313.972     67.43446     448.5778        53     2.534     1.517  82.23   2
       110    849.4979    699.9684 307.5616445  +6.6115869     2912.515     5514.675     6124.732     95.89929     191.1145     382.6856      1.977     5.55     1313.907     67.43446     353.9796        18     1.551     0.901  68.08   3
       111    900.6490    700.2303 307.5402408  +6.6131764      1051.66     2961.642     3538.817     95.44299     191.4189     382.4574      2.733     9.02      1313.08     67.43446      133.838        21     1.925     1.179 -70.63   0
       112    933.9727    698.0449 307.5263777  +6.6151859      3638.45     11593.47     14699.07      95.2904     191.4189     382.4574      2.868     7.99     1312.358     67.43446     383.1366        61     2.192     1.810 -83.35   0
       113    645.0067    696.4675 307.6472958  +6.6062387     966.9083     2737.741     4262.779      95.2904     191.0384     382.3433      3.585     7.34     1317.747     67.43446     140.8347        12     1.472     1.024  21.63   2
       114    699.7722    685.7698 307.6247584  +6.6124855     10610.97     22391.95     28423.84      95.2904     191.0384     382.3052      2.444     8.70     1315.781     67.43446     1201.247        47     2.586     1.189 -82.70   3
       115    696.0107    685.1252 307.6263539  +6.6126271     11845.08     27630.38     35557.09     95.44299      190.886     382.3433      2.587    11.67     1315.871     67.43446     1181.893        67     2.804     1.352 -81.75   3
       116    302.8100    686.4173 307.7907660  +6.5989901     2167.004      5287.76     7072.861     95.59533     191.0384     382.4194      2.702     9.12     1323.781     67.43446     209.8843        44     2.510     1.317 -81.34   3
       117    298.6363    686.7272 307.7925009  +6.5987225     1835.539     4230.005     6884.013     95.74743     191.3428     382.5715      2.943     9.97     1323.885     67.43446     201.0941        35     2.748     1.009 -86.78   3
       118    468.1581    689.7182 307.7214961  +6.6031411     659.2162     1841.874      3223.71     95.89929     191.3428     382.4955      3.478     6.47     1321.959     67.43446     102.8536         6     1.236     0.952  44.89   0
       119    838.1014    688.3297 307.5668119  +6.6160231      842.337     2305.354     3207.706     95.74743     191.4949     382.5715      2.842     7.63     1312.926     67.43446      123.801        12     1.730     0.941  17.94   0
       120    930.1008    684.5385 307.5284616  +6.6206447     1130.847     2816.102     4238.934     95.59533     191.2668     382.7237      3.523     8.06     1311.115     67.43446     174.4196        17     1.854     0.978  83.13   2
       121    784.0552    687.6820 307.5894400  +6.6144959     630.1125     1243.327      1890.84     95.89929     191.3428     382.6096      3.242     4.23     1313.951     67.43446     95.15283         5     1.074     0.474  64.92   0
       122    865.3651    683.3087 307.5555811  +6.6190052     2662.936     8508.399     11468.11     96.05091     191.1907     382.6096      3.009     8.42      1311.81     67.43446      275.348        57     2.144     1.846  89.47   0
       123    406.6957    683.9892 307.7474005  +6.6034615     1009.909     1782.941     2716.429     95.59533      190.886     382.3052      2.411     6.04     1322.756     67.43446     165.1035        11     1.776     0.578  60.73   3
       124    410.1566    681.7024 307.7460321  +6.6045229     1579.507     4281.783     6426.398     95.89929     191.2668     382.8377      2.943    10.90     1322.589     67.43446     174.7258        41     2.214     1.588  48.76   2
       125    969.4278    682.7188 307.5120747  +6.6227017     730.2713     1970.606     2691.134     95.74743     191.1145     382.5335      2.666     5.77     1310.127     67.43446     117.8066         7     1.747     0.536  31.94   0
       126     67.5070    674.2872 307.8895977  +6.5961410     1544.037     4841.891     7758.806     95.89929     191.8744     382.6856      3.409     9.24     1323.126     67.43446     258.3232        41     2.393     1.682  67.50   2
       127    236.9308    671.0076 307.8188527  +6.6031637     8079.203     34131.97     51801.63      95.2904     190.9622     382.4574      3.398     9.11     1322.811     67.43446     1178.136       116     2.650     2.395  81.64   0
       128    213.7752    672.0039 307.8285028  +6.6019778     2149.964     5844.421     9816.076      95.2904     191.0384     382.3813      3.409    10.50     1322.865     67.43446     295.3359        56     2.594     1.885 -35.14   2
       129   1022.6584    672.5729 307.4901582  +6.6286633     930.3123     1746.961     2078.401      94.6776     169.1409     307.1223      2.023     7.16     1308.505     67.43446     146.0138        14     1.647     0.871 -88.74  24
       130    360.9109    666.4024 307.7671581  +6.6092088     11562.01     48795.42     75200.66     95.13757     190.9622     382.2291      3.452     9.50     1321.879     67.43446     1578.144       127     2.715     2.449  85.82   0
       131    118.8551    667.1210 307.8683709  +6.6008236     1385.049     3278.801     5949.205     96.05091     191.3428     382.6096      3.757     7.06     1322.448     67.43446     172.6339        23     1.607     1.128  69.87   2
       132    265.3005    664.0716 307.8072275  +6.6069807     4603.215     18335.57     29972.74     95.59533     191.5708     382.5715      3.598     8.96      1322.33     67.43446     584.1039       110     2.638     2.554  46.60   0
       133    702.3365    661.6652 307.6245167  +6.6225420      9087.72     18061.59     21305.96     95.89929     191.3428     382.5715      2.194     6.59     1313.752     67.43446     956.1243        43     2.188     1.130  86.24   3
       134    698.4922    660.5052 307.6261647  +6.6228940     9732.172      21523.7     31850.29     95.89929     191.9503     382.5715      2.909    12.92     1313.816     67.43446      973.916        68     3.287     1.414  88.50   3
       135     17.3981    660.2150 307.9110428  +6.6002841     2702.722     9698.585      14173.3     95.44299     190.9622     382.3433      3.243     8.28     1322.583     67.43446     385.8639        76     2.407     2.170  70.49   0
       136     53.6608    657.8688 307.8959582  +6.6024688     684.9659     1398.522     2008.181     96.05091     191.2668     382.5715      2.408     5.41     1322.156     67.43446     117.2566         7     1.328     0.621  79.20   0
       137    959.1337    642.7368 307.5177550  +6.6388997     936.1528     2604.749     3774.961     95.89929     191.3428     382.5715      3.225     8.47     1307.333     67.43446     120.3448        15     1.708     1.175 -81.21   0
       138    235.8400    637.4044 307.8204728  +6.6170272     6851.538     30513.57     47599.31     94.98449     191.0384     382.2291      3.512     8.89     1320.476     67.43446     1101.315       121     2.688     2.482 -84.82   0
       139    669.2423    632.5814 307.6393619  +6.6334722     2304.816     5379.146     7512.674      95.2904     191.1145     382.3052      2.731     8.42     1311.859     67.43446     265.2942        33     2.352     1.090  80.14   3
       140    665.4160    631.7959 307.6409895  +6.6336698     2251.566     5141.636     7581.868     95.44299      190.886     382.3813      2.841    10.85     1311.934     67.43446     264.9198        34     2.989     1.097  88.66   3
       141     75.9878    629.8454 307.8875924  +6.6148078     1134.677     3017.606     6273.383      95.2904     191.1145     382.2291      2.944     7.67     1320.036     67.43446     145.9358        20     2.373     0.693 -82.59   2
       142     80.0612    630.2457 307.8858749  +6.6147786     1587.275     3450.738     4955.034     95.74743     191.1907     382.6476      2.707     5.22     1320.006     67.43446     196.8887        18     1.330     1.072  88.15   3
       143    347.0557    627.3667 307.7743035  +6.6248936     996.0897     2859.308     4613.852     95.74743     191.3428     382.5715      3.548     9.65     1319.059     67.43446     163.5651        22     2.207     1.177 -87.63   2
       144    350.8072    626.5679 307.7727620  +6.6253492     1186.487     2605.913     4482.368      95.2904     191.1907     382.3433      3.150     6.41     1319.009     67.43446     152.6659        15     1.479     0.781  86.11   3
       145    314.5610    624.9771 307.7879775  +6.6247973     897.6746     2623.184     4275.208     95.44299     191.0384     382.3433      3.041     8.24     1319.318     67.43446     120.8721        16     2.107     0.901  49.40   0
       146    959.5446    620.3791 307.5183519  +6.6481620      653.497     1381.174       1663.9     95.29041     191.3428     382.3433      1.757     3.50     1305.693     67.43446      107.118         5     1.133     0.313  19.92   0
       147    625.1926    615.7790 307.6583666  +6.6389570     1483.603      2701.18      3506.26     95.44299     191.1145     382.3433      2.101     7.60     1312.671     67.43446     178.0291        20     1.995     0.930  52.32   3
       148    629.1355    612.5811 307.6568277  +6.6404111     1584.565     3474.641     5108.812     95.44299     191.3428     382.3813      2.816     7.56     1312.214     67.43446     223.9541        27     2.055     1.046  82.95   3
       149    625.1495    611.5739 307.6585297  +6.6406951     1415.746     2922.718     3553.589     95.44299     191.4189     382.4574      2.236     8.66     1312.397     67.43446     150.7932        21     2.183     0.960 -79.10   3
       150    164.9515    617.0000 307.8508290  +6.6230977     1221.304     3229.106     4679.292     94.98449      190.886     382.0005      2.914     7.95     1318.981     67.43446     172.3464        17     1.962     0.901   4.90   3
       151    167.2008    613.9709 307.8499932  +6.6244259      1447.41     3130.731     5203.777      95.2904     191.1145     382.3433      2.564     8.38     1318.776     67.43446      169.582        21     1.902     1.032  64.01   3
       152    163.5863    612.1493 307.8515682  +6.6250585     1396.801      2738.73      3591.32     95.13757     191.3428     382.2671      2.202     7.86     1318.631     67.43446      180.255        16     1.908     0.905 -67.35   3
       153    580.5068    601.8558 307.6775384  +6.6432290     13214.02      35117.4     52640.41     95.74743     191.3428     382.7997      3.553    10.98     1313.088     67.43446     1323.191       141     5.133     1.774 -83.39   3
       154    584.8003    601.3581 307.6757597  +6.6435778     14201.58     30907.13      37696.3     94.98449     190.9622     382.1148      2.385     8.08     1312.941     67.43446      1503.13        60     2.485     1.312  77.10   3
       155     49.9435    614.3218 307.8990239  +6.6203572     756.3196      1697.34     2592.428     95.89929     191.3428     382.5335      2.023     4.98     1319.119     67.43446     104.3387         8     1.555     0.452  58.17   0
       156    306.6988    606.5112 307.7919051  +6.6321732     1024.389     3754.243     6367.009     95.89929     191.8744     382.5715      3.584    12.66     1318.104     67.43446     138.3419        35     2.151     2.075 -58.78   0
       157    260.2957    598.6017 307.8115878  +6.6338950     759.7451     1914.007     3209.042      95.2904     191.0384     382.1148      2.048     3.49     1317.666     67.43446     121.8474         5     1.522     0.232 -17.49   3
       158    263.3459    595.1346 307.8104320  +6.6354311     1160.441     2498.668     4852.704     95.89929     191.2668     382.5335      3.549     9.13     1317.311     67.43446     139.8457        18     1.916     1.215  67.31   2
       159    648.7452    585.5631 307.6495571  +6.6522400     824.5296     2142.462     3570.981     95.74743     191.3428     382.6096      2.798     3.48     1309.513     67.43446      129.679         5     1.165     0.407  75.04   2
       160    645.4890    584.5128 307.6509554  +6.6525661     823.0253     2134.057     3540.682     95.59533     191.8744     382.6856      3.065     5.56     1309.645     67.43446     102.4774         8     1.296     0.672 -83.20   2
       161    391.6019    577.1371 307.7574085  +6.6471578     1100.436     1780.694     4531.137     95.13757     191.1145     382.2671      2.696     7.00     1313.852     67.43446     151.2386        15     1.733     0.798  87.05   2
       162    387.6203    575.3218 307.7591367  +6.6477758     1030.627     2692.656     4275.184     95.44299     191.0384     382.5335      3.442     8.67     1313.749     67.43446      141.671        17     1.909     1.100  69.45   2
       163    862.8262    571.4044 307.5604942  +6.6652120     1204.917     3446.013     5748.323      95.2904     191.1145     382.3813      3.527     9.35     1304.644     67.43446     169.1285        21     1.686     1.447  -7.44   2
       164    101.1404    566.2502 307.8792783  +6.6419554     835.8127     2923.705     4839.025     95.89929     191.3428     382.6096      3.564    11.92      1316.35     67.43446     143.7908        24     2.187     1.808  43.32   0
       165    785.6846    557.9515 307.5932266  +6.6682150     1629.237     4076.551     6699.403     95.89929     191.3428     382.6096      3.424     9.05     1304.368     67.43446     198.8774        31     2.076     1.166  88.54   3
       166    781.9502    560.9502 307.5946855  +6.6668505     1459.529     2952.439     4386.076     95.89929     191.1907     382.4955      2.387     6.93      1304.66     67.43446     186.5203        17     2.018     0.667  43.77   3
       167    781.3494    557.1392 307.5950681  +6.6684070     1810.192      3931.97     5522.702     95.89929     191.2668     382.5715      2.493     8.08     1304.424     67.43446     216.5289        20     1.758     1.086  87.08   3
       168    727.9778    557.9788 307.6173650  +6.6662858     927.7394     3102.237     4812.588     95.59533     191.1145     382.5335      3.759    12.24     1305.852     67.43446     120.3076        28     2.313     1.803 -57.15   0
       169     24.6963    555.7599 307.9116162  +6.6437353     1017.212      2210.75     4894.549     95.89929     191.1907     382.7617      3.276     5.86     1317.954     67.43446     168.0729        12     1.684     0.732  88.65   2
       170     50.9311    540.0755 307.9011874  +6.6511016     2745.382     8707.827     14190.68     96.05091     191.4949     382.5715      3.505     9.66     1316.707     67.43446     389.0698        78     2.744     2.211  75.22   2
       171    376.9852    541.8298 307.7647437  +6.6612750     663.2037     1649.066     3424.274     95.44299     191.0384     382.4955      3.270     5.38     1310.995     67.43446     109.9957         6     1.310     0.623  19.52   0
       172    591.0085    534.0237 307.6754869  +6.6716380     4440.629     9817.408     12324.13     95.44299     191.1145     382.3813      2.462     7.33     1307.007     67.43446     456.2666        40     2.231     1.278  43.28   3
       173    593.3350    530.5396 307.6746340  +6.6731568     4621.725     14575.11     19118.83     95.89929     191.2668     382.6096      2.961     9.69     1306.714     67.43446     545.2102        65     2.592     1.595  36.80   3
       174    494.8164    528.8183 307.7159046  +6.6705869     1257.379     3037.027     5330.627     95.59533     190.9622     382.4955      3.119     8.51     1308.403     67.43446     151.8163        21     2.133     0.948 -70.92   2
       175    491.2533    527.2267 307.7174501  +6.6711265     1122.597     3735.007     6008.986     95.59533     191.4949     382.4955      3.499     9.82     1308.319     67.43446     135.1282        23     1.753     1.535  75.87   3
       176    219.6049    523.5447 307.8312076  +6.6635825     2118.709     7594.825     13537.36     95.13757     191.1145      382.191      4.348    14.01     1311.432     67.43446     260.5612        78     3.078     2.479 -37.21   2
       177    398.9053    522.2051 307.7562533  +6.6701243     5614.743     16922.44     23104.19     95.59533     190.9622     382.2671      3.005    10.03     1308.966     67.43446     641.6353        70     2.757     1.594  43.46   3
       178    577.7834    524.2319 307.6813571  +6.6752482     889.7516      2505.73     4994.692     95.44299     191.0384     382.4194      3.889     8.06     1306.304     67.43446       127.77        15     2.158     0.842  11.51   3
       179    580.3564    521.0864 307.6803894  +6.6766350     1101.937     2758.966     5005.165     95.89929     191.1907     382.5715      3.927     7.97     1306.021     67.43446     142.3489        16     1.613     1.102  47.21   2
       180    396.2361    525.8790 307.7572427  +6.6685155     4931.472     10866.72     12637.65     95.74743     191.4189     382.5715      2.367     8.36     1309.372     67.43446     516.5818        40     2.326     1.106  46.63   3
       181    138.0323    506.3352 307.8659252  +6.6679733     3212.626     8326.473      12772.2     95.74743     191.3428     382.5335      3.193    10.52     1312.753     67.43446     374.8309        68     2.926     1.926 -59.01   2
       182    134.0000    504.0962 307.8676895  +6.6687645     2218.575     4238.031     4839.332      95.2904      190.886     382.0768      2.074     7.96     1312.807     67.43446     281.3494        20     1.960     0.904 -74.80   3
       183    884.0000    503.1810 307.5539848  +6.6941367     1029.368     1976.256     3913.844      95.2904     190.7334     382.1529      2.851     4.12     1299.215     67.43446     209.5225        10     1.226     0.639  73.57   3
       184    879.8311    501.9797 307.5557701  +6.6944953     1219.071     2910.805      4007.21      95.2904     191.1145     382.4194      2.878     8.22     1299.252     67.43446     172.1289        19     1.901     0.994 -79.85   2
       185    477.8195    504.3169 307.7238612  +6.6801556      616.309     1564.727     2750.785     95.44299     190.9622     382.4955      2.550     3.74     1306.336     67.43446     106.8662         5     1.058     0.380  86.63   0
       186    945.0425    499.2933 307.5285821  +6.6977704     981.1488     2429.351     3285.519     96.05091     191.2668     382.7237      2.441     6.35     1297.198     67.43446     149.7938        11     1.692     0.668  79.42   0
       187    664.2107    498.3438 307.6460962  +6.6888338     1772.969     4268.892      5801.53     95.13757     191.2668      382.191      2.599     8.39     1302.926     67.43446     184.3369        32     2.052     1.199  45.53   3
       188    668.6432    495.6584 307.6443346  +6.6900921     1766.493      3359.64     3996.046     95.74743     191.2668     382.6856      2.045     5.99     1302.708     67.43446     200.2527        18     1.584     0.889  84.63   3
       189    664.5700    494.0487 307.6460940  +6.6906225     1823.661      4181.05      5583.43     95.44299     191.4189     382.4574      2.635     7.05     1302.536     67.43446     204.3175        25     1.576     1.213  45.90   3
       190    588.3380    495.7022 307.6779268  +6.6874012     1034.455     2504.014     4905.459     95.59533     191.4189     382.6476      4.178     7.86     1303.671     67.43446     127.0791        16     1.567     1.103  85.74   0
       191    386.3358    495.1564 307.7624467  +6.6808937     1319.194     2654.426     4113.558     95.89929     191.2668     382.5715      2.377     5.83     1306.792     67.43446     142.5873        13     1.225     0.878  47.84   3
       192    383.2369    493.0382 307.7638163  +6.6816665     1180.816     2370.003     4293.911     95.59533     191.1907     382.4194      2.719     5.41     1306.686     67.43446      175.375        10     1.474     0.561  79.82   3
       193    389.1328    492.1344 307.7613812  +6.6822371     1419.093     3119.802     4794.889     95.89929     191.3428     382.6096      2.779     7.60     1306.459     67.43446     192.6012        20     2.028     0.797  75.59   3
       194    385.2473    489.9754 307.7630812  +6.6830005     1402.926       3116.9     5562.859     95.44299     191.3428     382.4194      3.609     6.36     1306.378     67.43446     164.7705        18     1.447     1.001  23.90   3
       195    283.7911    487.7305 307.8055991  +6.6805418     2821.627     10928.01     18186.25      95.2904     190.9622     382.4194      3.590    10.32     1308.133     67.43446     424.5532        78     2.711     2.258 -43.60   2
       196    281.0115    484.6147 307.8068697  +6.6817378      2678.21      4724.54     6557.282     95.59533     190.9622     382.4955      2.071     5.44     1307.905     67.43446     268.9799        16     1.336     0.988  -0.91   3
       197     59.0006    486.6656 307.8996657  +6.6734643     828.4905     2011.272     3580.806     94.98449     190.9622     382.2671      3.035     4.36     1314.486     67.43446     117.9696         6     0.966     0.562  89.98   2
       198    351.3409    484.8099 307.7774435  +6.6840056     665.3166     1586.529     2349.959     95.13757     191.1907     382.2291      2.533     5.44     1306.782     67.43446     104.0822         8     1.430     0.583  52.08   0
       199    601.7045    475.3669 307.6730371  +6.6962582     2250.383     8785.294     18182.61     96.05091     191.1907     382.6856      5.134    22.40     1301.379     67.43446     347.0558       134     4.615     3.020  -7.49   2
       200    607.7932    482.6554 307.6702385  +6.6934459     2632.498     5503.017     6960.726      95.2904     191.1145     382.2291      2.243     7.37      1301.75     67.43446     287.9285        28     1.913     1.032  50.37   3
       201    612.0977    479.7367 307.6685385  +6.6947965     2897.832     7244.301     10422.72     95.74743     191.4949     382.6096      3.236     9.45     1301.434     67.43446       303.92        50     2.691     1.320  80.08   3
       202    207.7988    479.9265 307.8376575  +6.6812304     1348.956     3394.295     4598.446     95.13757     190.6571     382.4194      2.714    10.34     1308.536     67.43446     161.4537        29     2.428     1.227  30.39   3
       203    212.2630    477.1650 307.8358858  +6.6825219     2031.988      4490.04      6692.91     95.74743     191.3428     382.5335      3.079     6.80      1308.18     67.43446     238.4031        32     1.867     1.305  74.29   3
       204    207.9877    475.0671 307.8377468  +6.6832468     1553.844     2587.345     3507.706      95.2904     191.1145     382.4574      2.013     4.69     1308.199     67.43446     187.1864        11     1.061     0.824 -43.46   3
       205    369.9868    477.9984 307.7698793  +6.6874456     1762.862     5378.858     8097.486     95.44299     190.9622     382.3052      3.315    13.05     1305.715     67.43446     180.4235        55     3.080     1.538  78.50   2
       206    373.7408    475.2928 307.7684026  +6.6886900     2157.955     4622.444      5876.71     95.74743     191.2668     382.7237      2.495     7.20     1305.341     67.43446     295.8777        25     2.184     0.782  68.43   3
       207    633.2698    473.4748 307.6598976  +6.6980916     5044.142     16498.81     30498.06     96.05091     191.4949     382.5335      3.820     9.62     1300.933     67.43446     494.8842       132     3.184     2.483 -42.99   0
       208    772.2029    478.1129 307.6016169  +6.7007935     664.3594      1488.53     2463.743     95.13757      190.886     382.2671      2.389     4.99       1300.7     67.43446     105.8159         7     1.468     0.480 -47.67   0
       209    110.7000    466.9259 307.8787250  +6.6833601     1385.989     3359.785     6030.262      95.2904     191.4949     382.4574      3.664    11.21     1311.866     67.43446     181.3483        32     2.657     1.317 -62.73   2
       210    106.5795    465.0441 307.8805138  +6.6840006     1130.199     2480.875     3604.105      95.2904     191.1907     382.3813      2.642     8.71     1311.898     67.43446     150.8666        17     2.219     0.955 -72.82   3
       211     20.1792    469.1165 307.9165136  +6.6794232     998.3203     2445.031     4847.386     95.59533     190.9622     382.4574      4.091     7.54     1314.663     67.43446     165.5872        13     1.684     1.160  89.36   2
       212    841.1769    464.6520 307.5732258  +6.7086531     706.4172     1651.267     2388.208      95.2904     191.3428     382.4194      3.320     5.79      1297.85     67.43446     121.1957         6     1.063     0.888  37.01   0
       213    749.4774    453.4818 307.6119727  +6.7102272     907.0993     2628.311     3811.222     96.20229     191.6468     382.7237      3.045     8.29     1298.586     67.43446     110.6848        15     2.169     0.886 -77.52   2
       214    575.1115    448.2393 307.6850984  +6.7065942     2903.814     9850.332     14497.18     95.89929     191.2668     382.6096      3.211    11.09     1300.173     67.43446     341.1647        68     2.871     1.773  78.16   3
       215    579.5763    448.0032 307.6832388  +6.7068406     2664.293     4792.399     6042.487     95.44299     190.9622     382.3813      2.079     6.03     1300.055     67.43446     362.2986        21     1.952     0.693  84.49   3
       216    714.1381    442.6422 307.6271305  +6.7135362      1435.29     3889.838     6264.191     95.89929     191.2668     382.6856      3.225    11.59     1298.279     67.43446     201.2462        38     2.725     1.373  73.24   2
       217    718.4350    441.8885 307.6253589  +6.7139908     1179.588     2698.504     4105.446     95.89929     191.2668     382.5715      3.717     8.98     1298.105     67.43446     139.8394        20     2.585     0.872 -85.64   3
       218    201.0708    440.8173 307.8418272  +6.6971828     1996.121     3056.554     4020.845      95.2904     191.2668     382.4574      1.772     6.29     1306.266     67.43446     319.0714        14     1.553     0.716  17.47   3
       219    203.9080    437.4562 307.8407569  +6.6986680     2902.949     9378.246     15159.34     95.74743     191.2668     382.7237      3.440    12.18     1305.846     67.43446     429.8497        77     2.840     2.377  76.00   2
       220    451.8806    427.6588 307.7373618  +6.7110008     2023.808     6143.441     8677.215     96.05091     191.4189     382.5715      3.172    13.13     1299.646     67.43446     222.0009        57     2.753     2.025  76.05   2
       221    456.7583    427.7778 307.7353171  +6.7111142     2010.428     3455.817     4843.217     95.44299     191.1145     382.3052      2.126     6.03     1299.566     67.43446     253.8505        21     1.828     0.792  80.95   3
       222    161.4915    423.9668 307.8589681  +6.7028293     1964.108     9013.856     14880.37     96.05091     191.1907     382.6096      3.606    10.42     1307.476     67.43446     361.5198        87     2.615     2.454 -85.28   0
       223    762.6876    424.3007 307.6074519  +6.7227374     806.2935     1921.027     3537.178     95.89929     191.8744     382.6096      3.016     5.32     1296.044     67.43446     131.8696         7     1.207     0.663 -33.67   0
       224    303.7740    421.5166 307.7995325  +6.7085987     1042.366     2879.605     5994.707     95.89929     191.0384     382.4955      4.167     8.45     1302.597     67.43446     129.2281        18     1.784     1.118 -84.24   2
       225    804.6267    417.9552 307.5901249  +6.7267560     813.7374     2612.679     4268.991      95.2904     191.4189     382.4574      3.476     7.23     1295.385     67.43446     124.7533         9     1.874     0.782 -77.49   2
       226    802.1696    416.7342 307.5911949  +6.7271794     922.6215     1898.234     3845.096     95.59533     191.3428     382.4955      2.493     5.98     1295.403     67.43446     176.8923        11     1.591     0.632 -73.26   2
       227    749.5251    414.0401 307.6133122  +6.7265443     1793.719     3524.155     4429.451     95.74743     191.3428     382.6096      2.259     6.58     1295.186     67.43446     216.8003        21     1.659     0.962  34.81   3
       228    751.2964    410.5004 307.6126932  +6.7280675     1520.977     4706.021     6709.251     95.89929     191.9503     382.3813      3.247    10.68     1294.934     67.43446     168.8765        35     2.331     1.363  36.16   2
       229    270.9742    414.7668 307.8134875  +6.7102950     918.5569     2053.691     3779.491      95.2904     191.1145     382.3433      3.686     6.13     1302.748     67.43446     134.5176        10     1.346     0.784  12.48   0
       230    365.1437    407.2518 307.7743531  +6.7165484     1010.894     3681.287     6713.929     95.89929     191.3428     382.5335      3.721    13.39     1299.383     67.43446     148.5657        35     2.544     1.961  70.57   2
       231    851.3287    400.8350 307.5711760  +6.7353892     1461.152     3414.409     7515.719     95.74743     191.2668     382.5715      4.464    10.58     1292.421     67.43446     154.5676        37     3.128     0.997  86.13   2
       232    855.0409    402.8514 307.5695535  +6.7346783     1150.134     2720.594     4372.098     95.89929     191.3428     382.5335      4.415     7.59     1292.463     67.43446     134.5063        18     2.099     0.768  78.85   3
       233    488.2253    398.2846 307.7231724  +6.7243634     5676.705     14196.69     18500.55     96.05091     191.0384     382.4194      2.780    11.27     1295.871     67.43446     564.5015        57     2.710     1.412  50.92   3
       234    779.0150    393.1669 307.6016940  +6.7361590     11398.37     25551.76      31411.1     95.44299     191.0384     382.4194      2.466    10.58     1293.276     67.43446      1112.85        55     2.549     1.224  55.45   3
       235    782.9922    390.4741 307.6001228  +6.7374051     12084.46     31646.54      43690.4     95.44299     190.8097     382.4194      2.919    12.76     1292.983     67.43446     1279.812        80     2.836     1.598  44.68   3
       236    484.0722    400.8943 307.7248197  +6.7231454      5059.51     12623.51     16365.12     95.74743     191.4189     382.6096      2.716    11.61     1296.243     67.43446     525.1208        59     2.869     1.309  62.69   3
       237    181.8168    374.1262 307.8521935  +6.7241255     3238.635     7622.708     9424.725      95.2904     191.0384     382.4194      2.359     7.18     1303.543     67.43446     353.1536        32     2.117     1.059  31.24   3
       238    184.4579    370.3475 307.8512196  +6.7257769     3959.685     12112.33     17468.45     95.89929     191.3428     382.5715      3.109    10.31     1303.238     67.43446     510.6816        75     2.835     1.822  34.68   3
       239    950.3332    369.7169 307.5308257  +6.7515476      13376.8     46611.07     62475.13     96.20229     191.6468     382.6476      3.057     8.26     1286.081     67.43446     1487.519       108     2.467     2.156 -89.53   0
       240    786.8172    372.9660 307.5991258  +6.7447747     946.5776     2732.605     4309.561     95.44299     191.1145     382.3813      2.962     8.20     1291.398     67.43446     143.1027        16     2.272     0.828  76.89   0
       241    231.9811    372.9564 307.8312482  +6.7262867     1578.287     3023.627     3493.694      95.2904     191.1907     382.3052      2.172     6.45     1301.312     67.43446     186.9244        18     1.431     0.983  28.92   3
       242    236.2825    370.1403 307.8295463  +6.7275953     1962.341     4738.185     6676.771     96.05091     191.4189     382.6096      2.973    11.19     1301.076     67.43446     240.9771        37     2.476     1.409  64.81   3
       243    821.6882    369.0310 307.5846721  +6.7475610     2450.731     5240.239     7223.932     96.05091     191.1145     382.4955      2.529     8.70     1290.427     67.43446     264.8328        36     2.408     1.118  80.46   3
       244    825.4501    367.6645 307.5831453  +6.7482512     2190.733     4608.896     5720.204     95.74743     191.2668     382.6096      2.385     7.87     1290.273     67.43446     252.5433        30     2.085     1.059  81.72   3
       245    231.5131    368.9872 307.8315815  +6.7279129     1263.729     2875.548     5008.233     95.44299     191.1145     382.4574      2.861     7.00     1301.141     67.43446     150.0492        13     1.745     0.787 -68.99   3
       246    972.7234    363.3116 307.5216782  +6.7549399     1204.924     3264.969     5078.598     95.89929     191.7227     382.6476      3.346    11.39     1284.603     67.43446     152.2188        25     2.207     1.636  28.63   2
       247    258.8701    360.0695 307.8204458  +6.7325160     3153.086     15747.76     26602.08     95.89929     191.4949     382.5335      3.658    10.94     1299.922     67.43446     531.2803       105     2.728     2.524  85.89   0
       248    677.3577    355.8944 307.6455098  +6.7481971     1437.633     3389.146     5174.373     95.89929     191.2668     382.7237      2.780     8.62     1291.325     67.43446     213.1243        23     2.555     0.812  88.19   3
       249    681.7761    355.9348 307.6436598  +6.7483274     1763.474     4790.723      6849.39     95.44299     191.3428     382.4955      3.379    10.62     1291.257     67.43446     207.5656        39     2.188     1.613 -77.19   2
       250   1023.5458    357.1195 307.5006275  +6.7591863     1134.463     1915.774     2711.412     85.12782     154.3881     290.4664      2.317     5.40      1282.29     67.43446     201.0382        10     1.192     0.689  69.27  26
       251    854.7289    346.7920 307.5716143  +6.7578578     801.4789     1431.235     2589.703      95.2904     190.8097     382.4194      2.642     4.76     1287.867     67.43446     137.0505         7     1.137     0.565 -65.75   0
       252    737.1012    331.9976 307.6213382  +6.7600693     880.2141     2361.158     4168.807      95.2904     191.0384      382.191      3.845     9.08     1288.227     67.43446     117.3416        12     2.282     1.009  33.87   2
       253    732.7371    334.2402 307.6230868  +6.7589965      917.019     2272.903     4238.897     95.89929     191.2668     382.6096      3.499     6.12     1288.458     67.43446     131.1075         9     1.354     0.803  62.87   2
       254    905.6174    329.5501 307.5509164  +6.7666796     1657.691     3983.355     6266.624     95.29041     191.4189     382.3052      3.317    10.58     1284.738     67.43446     174.0815        36     2.400     1.299  77.93   2
       255    909.2736    329.2508 307.5493970  +6.7669248     1354.344     2390.561     4090.534     95.89929     191.4189     382.6096      2.520     6.08     1284.574     67.43446     156.0442        16     1.519     0.839  68.28   3
       256    588.9631    330.6381 307.6833639  +6.7557023     2925.458     6701.486      8646.99     95.59533     191.1907     382.4194      2.431     9.28     1288.588     67.43446     322.9264        37     2.350     1.186  62.34   3
       257    593.3654    328.8397 307.6815842  +6.7565929     2969.647     6656.526     7863.532     95.59533     191.1907     382.3433      2.441     7.94       1288.4     67.43446     338.0555        39     2.295     1.183  76.36   3
       258    588.6735    326.6522 307.6836227  +6.7573415     2434.742     3734.786     4477.536     95.89929     191.4189     382.6096      1.809     4.81     1288.173     67.43446     266.3983        10     1.168     0.774 -73.49   3
       259    704.9819    328.2174 307.6349069  +6.7605649     572.0744     1261.263     3209.059     95.59533     190.9622     382.4955      2.842     3.81     1288.106     67.43446     85.75244         5     0.826     0.504 -57.02   0
       260    112.8955    326.2852 307.8826856  +6.7416087     878.5518     3651.028     6296.271     95.89929     191.7986     382.6856      3.640    12.27     1306.148     67.43446     142.8654        34     2.511     1.669 -37.34   2
       261    240.5199    325.3998 307.8293239  +6.7462437     1405.758      3402.29     4320.446     94.98449     190.5808     382.2291      2.526    10.07     1299.031     67.43446     149.0457        30     2.254     1.254  40.74   3
       262    244.2347    322.0866 307.8278845  +6.7477384     1585.323     3548.575     4380.438     95.89929     191.1907     382.5715      2.382     8.09     1298.772     67.43446     197.1805        23     2.115     0.919  67.48   3
       263    240.1846    320.3733 307.8296383  +6.7483118     1221.142     2667.409     4275.131     95.44299     191.1145     382.4574      2.775     7.62     1298.878     67.43446     156.5946        16     1.771     0.917  72.46   3
       264     74.8835    320.1333 307.8988014  +6.7428808      921.846     2428.448     4405.502     96.20229     191.6468     382.6476      3.972     9.09     1308.398     67.43446     140.7205        17     1.642     1.404 -38.35   0
       265    279.6423    316.7321 307.8132568  +6.7511366     1134.038     2883.427     4967.101     95.89929     191.2668     382.6476      3.417     8.09     1296.831     67.43446     145.7303        15     1.870     0.977 -61.65   2
       266    274.0171    319.1831 307.8155253  +6.7499348     977.8433     2281.089     4221.967     95.59533     190.9622     382.4955      3.603    10.24     1297.227     67.43446     137.1702        15     2.701     1.082  83.75   2
       267    301.3983    318.4331 307.8040959  +6.7511598     781.2504      1966.37     3929.381     94.98449     191.1145     382.3052      3.399     5.49     1295.846     67.43446     116.5521         8     1.273     0.668  45.49   0
       268    580.4642    309.7235 307.6876420  +6.7640708     4447.458     10121.33      12015.3     96.20229     191.3428     382.5335      2.460     7.50     1286.398     67.43446     459.5854        37     2.247     1.065  37.45   3
       269    584.2530    306.1546 307.6861800  +6.7656733     4678.435     11176.49     15708.96     95.89929     191.3428     382.6096      2.980     9.76     1285.993     67.43446     465.8129        58     3.124     1.391  76.25   3
       270    580.2857    305.1208 307.6878756  +6.7659688     4730.514     10176.01     13833.77     95.74743     191.7227     382.6856      2.503     6.27     1285.889     67.43446     477.7853        32     2.091     1.119  79.68   3
       271    532.6609    307.7934 307.7077089  +6.7632767     5063.661     11808.53     16594.25     95.13757     191.1145     382.3052      2.777    11.99     1286.379     67.43446     517.0906        54     3.276     1.222  76.80   3
       272    537.5090    305.4525 307.7057614  +6.7644066     5744.719     13673.95     17624.31     95.74744     191.1145     382.7617      2.707    11.51      1286.01     67.43446     583.1288        58     2.745     1.596  65.44   3
       273    463.0815    301.4323 307.7370398  +6.7635885     2226.314     5512.195     7254.789     95.74743     191.2668     382.4955      2.708     7.83     1287.978     67.43446     262.8147        34     2.108     1.199  71.40   3
       274    459.1293    303.9679 307.7386056  +6.7624079     2062.941     5336.484     7116.833     95.74743     191.3428     382.5715      2.680     9.53     1288.414     67.43446     227.5715        36     2.339     1.122  46.54   3
       275    458.4407    299.2669 307.7390563  +6.7643295     2004.991     3536.578     4434.104     95.89929     191.2668     382.6476      2.035     4.21     1288.172     67.43446     251.2529        13     1.155     0.909 -77.99   3
       276    388.6847    298.3872 307.7682714  +6.7623662     729.8892     1963.613     3219.044     95.44299     191.1907     382.3813      3.238     4.03     1291.435     67.43446     117.4371         5     0.919     0.505 -88.60   2
       277    393.0745    295.1130 307.7665481  +6.7638671     897.3511     1864.168     3741.732     95.89929     191.7227     382.6476      3.272     5.16     1291.204     67.43446     124.4175         8     1.003     0.749 -74.66   0
       278    364.6103    286.8809 307.7787419  +6.7663223     2711.269     6156.015     8190.452     95.44299     190.9622     382.3813      2.518     8.72     1291.568     67.43446     284.8062        38     2.265     1.226  49.06   3
       279    369.3334    283.9667 307.7768666  +6.7676854     3232.809     6854.931     8300.665     95.74743     191.4189     382.5335      2.301     8.05     1291.363     67.43446     358.3965        37     2.118     1.377  70.87   3
       280    364.8034    281.6323 307.7788427  +6.7684998     2562.962     4112.108     5441.578     94.98449     191.1145     382.3052      1.819     4.72     1291.414     67.43446     309.5653        17     1.200     0.998  41.23   3
       281    824.7657    277.6609 307.5865319  +6.7854598     5983.601     15179.29     20347.22     95.89929     191.4189     382.5335      2.810     8.84     1282.465     67.43446     590.1786        61     2.749     1.428  77.21   3
       282    828.7436    276.7572 307.5848986  +6.7859658     5317.818     12143.86     15156.93     95.74743     191.2668     382.6096      2.462     6.29      1282.26     67.43446     554.2302        39     2.174     1.112  74.57   3
       283    974.5009    267.7396 307.5242216  +6.7945339     2363.045     5653.249     7370.335     95.59533     191.2668     382.7237      2.591     8.77      1279.35     67.43446     261.8518        36     2.272     1.161  86.49   3
       284    977.7209    266.5100 307.5229165  +6.7951493     1795.809     3709.663     4589.433     95.59533     191.6468     382.6856      2.471     6.71     1279.232     67.43446     194.9274        20     1.798     0.834  80.28   3
       285    655.4762    268.0970 307.6576941  +6.7837873     696.2902     2030.094     3798.143     95.44299     191.5708     382.6096      3.658     7.29       1282.6     67.43446     90.50525        10     1.513     0.983  35.17   2
       286   1017.0511    267.3282 307.5064318  +6.7961149     1114.612     2930.037     3946.823     95.89929     191.3428      380.512      2.896     9.29     1278.674     67.43446     125.7014        20     1.961     1.229 -47.42  18
       287    386.8351    262.4914 307.7702873  +6.7771529     867.6556     1686.942     2545.257     96.05091     191.1907     382.6096      1.962     4.63      1289.83     67.43446     118.3699         7     1.214     0.502 -74.12   0
       288    807.9174    261.2156 307.5941481  +6.7917029     1448.355     3444.814     4550.058     95.44299     190.9622     382.4194      2.724     5.91     1281.598     67.43446     166.4894        21     1.412     1.122  58.85   3
       289    810.5753    257.7178 307.5931565  +6.7932381     1195.227       3019.4     3961.753     95.59533     191.0384     382.5335      2.690     7.32     1281.253     67.43446     132.4238        16     1.774     0.846  54.64   3
       290    759.0204    251.2969 307.6149493  +6.7941809     1106.275     2796.463     4071.429     95.74743     191.1145     382.3433      2.662     7.44     1281.362     67.43446     157.5394        14     1.608     0.963 -13.22   3
       291    759.7032    255.4034 307.6145220  +6.7925048     1212.865     3899.556     5463.382     95.59533     190.9622      382.191      2.982     9.22     1281.638     67.43446     164.6823        22     2.090     1.134 -42.91   2
       292    114.9284    244.6802 307.8846666  +6.7754320     6007.454     28870.98     48052.91     96.20229     191.6468     382.6096      3.629    10.09     1307.162     67.43446     1002.184       122     2.836     2.515  87.19   0
       293      9.8294    242.7756 307.9287036  +6.7726998     751.6588     2124.139     4292.025      95.2904     191.1907     382.3813      3.883     9.18     1314.672     67.43446      130.483        13     1.670     1.409  31.32  26
       294     12.0977    238.3301 307.9279091  +6.7746146     912.7213     2289.416     3846.107     95.74743     191.5708     382.5715      2.940     6.16     1314.802     67.43446     133.2601         8     1.364     0.820  34.02   2
       295    665.8831    235.0000 307.6544818  +6.7978245     797.6846     1813.464     3032.691     94.98449     190.7334     382.1529      2.767     3.82     1280.342     67.43446     119.0162         5     0.843     0.573  -0.77   2
       296    667.4907    230.5262 307.6539635  +6.7997287     876.9979     3279.053      4814.89     95.89929     191.6468     382.6096      3.381    10.80      1280.08     67.43446     131.1818        22     2.013     1.616  -3.56   2
       297    750.1708    226.6287 307.6195026  +6.8040909     1095.989     3169.835     5839.844      95.2904     191.0384     382.2671      4.021    12.11     1279.774     67.43446     160.2643        27     2.723     1.500  72.06   2
       298    327.3804    212.9783 307.7968771  +6.7956490      4437.26     10704.51     13817.12     95.59533     191.2668     382.4955      2.780    10.65     1291.485     67.43446      473.269        47     2.673     1.185  48.61   3
       299    331.3634    209.8425 307.7953191  +6.7970791     5349.661     12407.42     18488.91     95.59533     191.3428     382.4194      3.003    13.71     1291.204     67.43446     554.2679        67     3.298     1.751  44.80   3
       300    419.6557    205.4465 307.7585288  +6.8018448     5487.317     13846.81     17820.15     95.89929     191.3428     382.6476      2.706    11.44     1283.725     67.43446     509.8708        53     2.716     1.343  59.44   3
       301    424.0207    202.6382 307.7567995  +6.8031522     5958.754     14052.15     21197.82     95.44299     191.0384     382.2671      2.995    13.13     1283.198     67.43446      638.759        65     3.182     1.509  45.00   3
       302     96.9266    206.7410 307.8935150  +6.7905225     740.4262     1569.158     3174.198     96.05091     191.3428     382.5715      2.920     4.49     1309.199     67.43446     113.0809         6     1.026     0.559  81.20   0
       303    151.7409    192.3680 307.8710796  +6.7983025     13120.45     64429.95     107006.2     95.59533     191.4189     382.5335      3.634    10.06     1306.447     67.43446     2096.146       152     2.872     2.610  86.60   0
       304     31.7717    191.4994 307.9213044  +6.7946448     5032.537     24450.65     39692.98     95.89929     191.0384     382.5335      3.594     9.75     1314.002     67.43446     931.0491       114     2.736     2.486  84.97   0
       305    791.3086    192.8122 307.6034549  +6.8194470     942.9692     1822.249     3509.286     95.59533     191.0384     382.3052      2.301     5.30     1277.173     67.43446     151.2311         8     1.389     0.586  47.41   0
       306    641.7267    192.3721 307.6660606  +6.8146540     939.5422     2351.256     4692.114     95.74743     191.2668     382.4955      4.369     8.43     1276.984     67.43446     116.6444        15     1.561     1.271 -40.70   0
       307    457.0046    182.5181 307.7436943  +6.8125752     935.2571     2473.198     3376.339      95.2904      190.886     382.2291      2.973     6.32     1279.127     67.43446     122.6903        11     1.423     0.788  88.15   2
       308    462.2524    185.3400 307.7414009  +6.8115829     916.0245     1895.112     3462.244     95.89929     191.2668     382.5715      3.367     4.59     1278.925     67.43446     143.2384         9     1.044     0.728  -9.28   3
       309    462.7987    182.4487 307.7412723  +6.8127971     848.5139     1659.757     3379.533     95.13757      190.886     382.0387      3.797     5.72     1278.671     67.43446      140.509         8     1.072     0.859  81.98   3
       310    862.5737    181.3750 307.5740284  +6.8265455     2268.006     6300.368     8663.217     95.29041     191.1145     382.4194      2.768     9.02     1275.301     67.43446     294.9832        47     2.620     1.352  79.10   3
       311    866.1629    180.8307 307.5725453  +6.8268899     1946.776     4228.545     5283.158     95.44299     191.0384     382.4194      2.268     7.72     1275.237     67.43446     197.5358        22     1.705     1.007  85.78   3
       312    526.6447    177.7593 307.7147194  +6.8168655     1747.098      3988.01      6337.01     95.59533     191.3428     382.4194      3.033    11.84     1276.298     67.43446     198.7654        38     2.534     1.539  59.55   2
       313    522.3091    179.8113 307.7164626  +6.8158722     1512.677     3585.103     4545.487     95.59533     190.9622     382.3433      2.728     7.65     1276.506     67.43446     169.6569        20     1.598     1.024  47.69   3
       314    123.5347    174.5448 307.8834996  +6.8047309     1517.987     5371.165     8744.371     96.05091     191.2668     382.5715      3.519    13.56     1308.349     67.43446     221.7524        51     2.564     2.009 -27.10   2
       315   1003.3220    176.9712 307.5152836  +6.8330375     532.1957     1456.516     2890.336     95.74743     191.3428     382.5715      3.725     4.57     1273.274     67.43446     99.04224         4     0.986     0.602  30.26   2
       316    894.9697    170.4097 307.5608499  +6.8321571     974.9428      2541.81     4624.755      95.2904     191.1145     382.3433      3.672     5.85     1273.995     67.43446     138.9672         9     1.204     0.799 -63.86   2
       317    771.9705    165.3751 307.6124926  +6.8301539     2677.479     7011.896     11747.58      95.2904     191.1907     382.4194      3.378    11.81     1275.495     67.43446     285.8262        59     3.274     1.508  88.31   3
       318    768.7636    165.0214 307.6138467  +6.8301936     2857.797     7682.323     12056.01     95.44299     191.0384     382.2671      3.210    10.49     1275.498     67.43446     283.8912        35     2.727     1.126 -84.93   3
       319    157.9966    166.9830 307.8693428  +6.8090122     716.7833     1737.473     2893.709     95.44299     190.8097     382.3813      2.233     4.20      1307.59     67.43446     118.0724         7     1.495     0.337 -29.23   0
       320    104.4221    138.8770 307.8927343  +6.8188447     1768.014     4297.918     5058.554     95.44299     191.1145     382.4955      2.511     6.47     1309.198     67.43446     200.8352        28     1.659     1.255 -41.55   3
       321    105.5017    144.3827 307.8920915  +6.8166035     2283.815     4861.656     6048.908     95.89929     191.1145     382.3052      2.238     7.44     1309.151     67.43446       217.73        29     1.840     1.170  25.00   3
       322    108.6461    141.0483 307.8908916  +6.8180880     2505.279     5223.221     6309.221     95.89929     191.1907     382.6096      2.201     5.21     1309.073     67.43446     293.5819        25     1.672     0.977  87.27   3
       323     90.1501    138.0791 307.8987336  +6.8186969     968.8285     2134.634     3788.134     95.89929     191.4189     382.5715      2.654     6.30     1309.825     67.43446     119.9797        11     1.543     0.721  78.49   0
       324    640.2144    134.1700 307.6687026  +6.8386794     871.9021     2206.369     4017.452     95.44299     191.0384     382.4955      3.474     6.55     1274.176     67.43446     115.2344        11     1.318     0.914 -76.46   0
       325    913.2690    132.3219 307.5545037  +6.8485200     552.6023     1116.346     1742.052     96.05091     191.6468     382.5335      2.926     4.62     1271.354     67.43446     99.93835         5     0.835     0.725 -83.73   0
       326    450.5564    128.9634 307.7482447  +6.8345131     751.5297     1627.142     3026.819     95.59533     191.2668     382.3813      3.719     6.75     1277.663     67.43446     108.0441        10     1.521     0.841 -23.68   0
       327    927.2274    124.8297 307.5489204  +6.8520826     872.3055     2291.482     3328.295      95.2904     191.0384     382.3433      2.860     7.67     1270.522     67.43446      115.203        12     2.128     0.774  75.24   0
       328    857.8434    123.1006 307.5780150  +6.8504944     1074.339     2238.464     4676.678     95.89929     191.1907     382.8377      3.907     6.26      1272.53     67.43446     131.3104        10     1.226     0.897  52.36   2
       329    857.5053    119.2677 307.5782886  +6.8520687     984.2124     2149.485     4112.096     95.74743     191.5708     382.6096      3.416     4.53     1272.287     67.43446     143.7814         8     1.198     0.637 -83.11   3
       330    184.4925    121.0190 307.8598507  +6.8289113     1226.938     3156.479     5211.343     95.74743     191.0384     382.3813      3.440     9.30     1306.733     67.43446     151.5476        22     1.759     1.373  -3.31   2
       331    187.7433    117.4946 307.8586127  +6.8304779     1261.299     2847.237     4438.036     95.74743     191.3428     382.7997      2.928     6.49     1306.603     67.43446     157.2623        15     1.603     0.737  66.57   2
       332    869.0140    117.7935 307.5735233  +6.8530607     3382.936     12342.47     17584.73     95.44299     191.0384     382.3813      3.201     8.28     1271.951     67.43446      396.973        76     2.280     2.162 -76.51   0
       333    813.5117    117.4859 307.5967599  +6.8513444     2269.345     4350.647     6164.812     95.59533     191.6468     382.7237      2.276     6.02     1273.138     67.43446      239.202        20     1.562     0.892  67.72   3
       334    809.5899    118.7024 307.5983591  +6.8507108     2769.395     7003.788     10668.55     95.59533      190.886     382.3813      3.087    10.11     1273.315     67.43446     296.2396        47     2.636     1.502  77.80   2
       335    170.2585    118.8188 307.8658829  +6.8293452     753.0903     2052.851     3840.834     95.44299     191.1907     382.3052      3.657     6.24     1307.306     67.43446     103.9534         7     1.564     0.699  83.34   2
       336    174.9908    114.7395 307.8640443  +6.8311909     777.5496     1996.723     5390.979     95.13757     191.1907     382.2671      5.134     6.26     1307.114     67.43446     123.6869        10     1.783     0.618  48.46   2
       337    205.2874    114.1473 307.8513878  +6.8324493      2131.69     5111.708     6849.587     95.89929     191.1907     382.7237      2.729    10.26      1305.99     67.43446     234.2708        35     2.363     1.242  52.11   3
       338    209.0905    111.0575 307.8499036  +6.8338546     2347.946      5060.95     7687.185     95.74743     191.3428     382.7237      3.013    11.39     1305.896     67.43446     262.4071        40     2.844     1.353  40.74   3
       339    221.9914    110.2569 307.8445332  +6.8346172     8621.236     22156.68     27844.25     95.13757     191.2668     382.2671      2.741    11.11     1305.453     67.43446     840.9677        47     2.564     1.341  46.23   3
       340    225.4481    107.2515 307.8431910  +6.8359759     10188.95     22618.12     35291.78     96.05091     191.1907     382.5715      3.087    12.90     1305.426     67.43446     1053.451        80     3.298     1.820  47.68   3
       341    189.8529    103.2572 307.8582238  +6.8364377     1192.562     3648.456     5739.178     95.89929     191.3428     382.5715      3.510    12.21     1306.657     67.43446       156.77        37     2.827     1.468  83.75   2
       342    194.3821    101.8567 307.8563772  +6.8371685      1407.83     2893.379     4229.347      95.2904     191.2668     382.2671      2.657     6.96      1306.54     67.43446     174.6599        18     1.653     0.822 -85.73   3
       343    613.2126    100.3018 307.6811711  +6.8517902     656.3379     1283.514      2166.61     95.59533     191.0384     382.3052      3.091     5.11     1273.359     67.43446     92.46179         5     1.007     0.732  83.88   0
       344    905.6912     97.8477 307.5588617  +6.8625292     1319.828     3738.839     5945.316     95.89929     191.1907     382.7237      3.386     7.65     1269.692     67.43446      170.022        19     1.756     0.987  68.48   2
       345    334.6008     93.8527 307.7979811  +6.8451662     2219.305     5974.889     7869.793     95.13757      190.886     382.0387      3.541    13.19     1296.085     67.43446     239.9127        44     2.713     1.785 -41.11   3
       346    335.5003     98.2735 307.7974516  +6.8433676     2495.935     4865.981     6132.662     95.44299     191.4949     382.5335      2.204     6.79     1295.771     67.43446     274.3936        21     1.556     1.091  28.96   3
       347    339.3748     95.6113 307.7959226  +6.8445982     2766.559     5528.771     8790.222     95.44299     191.1145     382.4574      2.645     6.09     1295.414     67.43446     330.6222        29     1.943     1.049 -82.21   3
       348     48.3069     84.9157 307.9180878  +6.8392857     65395.71     295017.6     463625.6     95.59533     191.8744     382.7237      3.511     9.83     1311.656     67.43446     10197.94       209     2.844     2.567 -84.22   0
       349     84.9984     79.2487 307.9029317  +6.8428589     1888.319     3838.278     4502.082     95.13757      190.886     382.0768      2.131     7.59     1309.513     67.43446     221.7656        24     1.616     1.122 -51.91   3
       350     85.5145     84.7527 307.9025246  +6.8405995     2278.805     5277.097     5705.562     95.89929     191.2668     382.5715      2.368     6.65     1309.623     67.43446     234.6974        33     1.839     1.275  26.40   3
       351     89.4758     81.4814 307.9009807  +6.8420853     2806.164      4891.86     6603.336     96.20229     191.6468     382.6856      2.004     5.33     1309.352     67.43446     322.8711        28     1.856     0.954  78.23   3
       352    838.2598     69.3002 307.5880639  +6.8720991     971.3535      2489.34     3543.515     95.59533     191.3428     382.7617      2.688     4.83     1269.938     67.43446     145.5397         7     1.110     0.596  83.36   2
       353    370.3705     71.1606 307.7837989  +6.8557472     4199.136     10688.72     15977.78      95.2904     190.9622     382.3813      3.083    13.22     1290.819     67.43446     451.2703        58     3.252     1.495  68.29   3
       354    374.2640     68.1977 307.7822722  +6.8571028     4297.931     8822.828      11739.3     95.13757     191.0384     382.3052      2.512     9.56     1290.291     67.43446      511.864        43     2.692     1.153  57.89   3
       355    776.0520     63.0000 307.6143141  +6.8726381     1633.734     2956.083     3866.417     94.98449     190.7334     382.0005      2.179     5.60     1270.686     67.43446      196.635        16     1.200     1.022   1.27   3
       356    776.6622     65.6266 307.6139681  +6.8715719      1855.17     3106.328     4028.263     95.44299     191.3428     382.4955      1.874     4.89      1270.85     67.43446     221.9879        10     0.961     0.878 -42.90   3
       357    773.1029     67.0560 307.6154084  +6.8708623     2242.197         4603     5107.872     95.74743     191.3428     382.8377      2.142     5.99     1270.927     67.43446     261.2795        31     1.762     1.252  38.30   3
       358    772.4589     63.4578 307.6158020  +6.8723293     1921.284     3544.511     4279.607     95.89929     191.2668     382.6096      2.084     6.76     1270.709     67.43446     247.1327        16     1.714     1.037 -70.92   3
       359    320.8929     50.3603 307.8052237  +6.8626988     1249.872     2091.318     3897.816     96.05091     191.2668     382.6856      2.067     4.34     1299.201     67.43446     148.1252        12     1.036     0.835  66.97   3
       360    320.6159     55.2430 307.8051704  +6.8606698     1439.976     3820.421     5767.815      95.2904     191.1145     382.3052      3.274     9.49     1299.098     67.43446     179.3359        34     2.310     1.338  35.43   3
       361    324.8113     53.0452 307.8034909  +6.8617190     1507.211      3461.91     5890.358      95.2904     191.1907     382.2291      3.192     7.69      1298.51     67.43446     168.9807        24     1.785     1.068  72.59   3
       362    853.1428     52.7998 307.5824040  +6.8794191     1135.087      3820.13     5302.999     94.98449      190.886     382.1529      3.085    11.64     1268.658     67.43446     153.6836        32     2.284     1.653 -51.55   2
       363     41.7725     42.2320 307.9223047  +6.8567223     2438.824     7945.125     11356.92      95.2904     191.0384     382.3433      3.148     9.85     1310.986     67.43446     290.9677        60     2.609     1.785 -32.25   2
       364     39.5071     38.3674 307.9233869  +6.8582449     2139.093     3975.868     4610.095     96.05091     191.1907     382.6476      1.991     6.75      1311.01     67.43446     201.4838        20     1.504     1.051 -42.09   3
       365    624.6028   1014.0454 307.6448780  +6.4741908     850.0275     2285.058      2956.18     95.13757      190.886     382.1529      2.847     7.86      1335.48     67.43446     116.1586        13     1.580     1.093  54.54  16
       366    325.2178     31.4145 307.8040701  +6.8706801     1275.161     2899.824     4623.471     95.59533     190.9622     382.4574      3.068     9.17     1298.966     67.43446     167.2826        23     1.773     1.324  43.60   3
       367    328.7923     28.5908 307.8026721  +6.8719675     1280.529     3118.885     4221.031     95.13757     191.1145     382.4194      2.519     9.14     1298.379     67.43446     162.7026        24     2.210     1.055  42.44   3
       368    443.2216     28.0238 307.7548059  +6.8760221     1013.878     2590.875     3934.344     95.44299     191.1145     382.5335      2.877     7.02     1284.659     67.43446     145.0531        12     1.558     0.885  34.14   2
       369    447.3067     25.8827 307.7531704  +6.8770441     1116.654     2546.527     4338.756     95.59533     191.7227     382.7237      3.223     5.97     1284.364     67.43446     124.5646        13     1.207     1.094  44.31   2
       370    624.7957     23.2499 307.6789848  +6.8840488     1706.339     3663.087     4581.096     95.13757     191.1145     382.1529      2.219     6.79     1272.541     67.43446     198.4001        17     1.437     0.900  40.95   3
       371    614.8383   1013.8105 307.6489690  +6.4739631     1323.179     3695.369     4885.885     95.13757     191.1145     382.2291      3.141     9.74     1335.385     67.43446     165.2891        30     1.952     1.356  21.48  16
       372    624.0067     19.1636 307.6794561  +6.8857128     1336.496     2325.119     3215.641     94.98449     191.0384     382.2671      2.086     5.42      1272.56     67.43446     168.0043        14     1.184     0.958  -1.39   3
       373    166.6814   1015.3637 307.8363028  +6.4583747     775.8282     1865.127     2449.347     95.89929     191.4189     382.5335      2.715     4.98     1335.749     67.43446     117.9723         6     1.245     0.564  27.71   0
       374    284.1999   1007.5776 307.7874356  +6.4655212     1621.403      4564.67      6221.72      95.2904     190.9622     382.2291      3.022     8.18     1336.987     67.43446     194.2144        37     1.942     1.600  50.24   2
       375     99.2979   1007.0613 307.8647645  +6.4595557     11117.06     31394.96     39125.16     95.59533     191.3428     382.6856      2.754     6.18     1335.598     67.43446     1380.109        87     2.279     1.921  73.27   0
       376    352.9954   1009.3923 307.7586076  +6.4670666     812.3024     2168.255     2189.159     95.13757     190.9622     382.3813      2.380     7.38     1336.979     67.43446     105.2423        13     2.014     0.757  33.77   0
       377    464.3402   1007.8218 307.7121049  +6.4714289     1053.742      2675.93     3915.015     95.44299     191.2668     382.4574      3.045     9.14     1336.249     67.43446     148.2812        19     1.627     1.434  -3.35   0
       378     62.9601   1008.0673 307.8799228  +6.4579240     714.1694     1631.189      2549.13     95.74743     191.2668     382.6856      2.649     4.37     1335.035     67.43446      129.715         5     1.118     0.487  39.29   0
       379     65.8206   1005.1816 307.8788268  +6.4592133     1137.024      2692.84     3633.917     95.59533     191.2668     382.4574      2.527     5.97     1334.994     67.43446     170.7245        14     1.616     0.621  63.71   2
       380   1002.2902   1006.1403 307.4872186  +6.4900020     994.4336     1977.669     1829.394     95.74743     191.3428     382.6476      2.089     4.51     1329.618     67.43446     151.7322         9     1.115     0.816   0.41   0
       381    825.6677   1006.0024 307.5610797  +6.4842004     763.9901     1737.751     1961.647     95.13757      190.886     382.3433      1.919     3.43     1333.238     67.43446     107.2476         5     1.004     0.340 -48.54   2
