#   1 NUMBER                 Running object number                                     
#   2 X_IMAGE                Object position along x                                    [pixel]
#   3 Y_IMAGE                Object position along y                                    [pixel]
#   4 ALPHA_J2000            Right ascension of barycenter (J2000)                      [deg]
#   5 DELTA_J2000            Declination of barycenter (J2000)                          [deg]
#   6 FLUX_APER              Flux vector within fixed circular aperture(s)              [count]
#   9 FLUXERR_APER           RMS error vector for aperture flux(es)                     [count]
#  12 FLUX_RADIUS            Fraction-of-light radii                                    [pixel]
#  13 FWHM_IMAGE             FWHM assuming a gaussian core                              [pixel]
#  14 BACKGROUND             Background at centroid position                            [count]
#  15 THRESHOLD              Detection threshold above background                       [count]
#  16 FLUX_MAX               Peak flux above background                                 [count]
#  17 ISOAREA_IMAGE          Isophotal area above Analysis threshold                    [pixel**2]
#  18 A_IMAGE                Profile RMS along major axis                               [pixel]
#  19 B_IMAGE                Profile RMS along minor axis                               [pixel]
#  20 THETA_IMAGE            Position angle (CCW/x)                                     [deg]
#  21 FLAGS                  Extraction flags                                          
         1    695.0472     15.0876 307.6454088  +6.6897271       7279.9     11366.12     11379.05     77.88663     155.2795     310.7444      1.627     3.14     815.0128     54.76831     1120.137        37     1.303     1.294 -48.77   0
         2    615.3544     14.3401 307.6785435  +6.6873789     3769.927     5748.653     5908.884      77.7633     155.3413     310.8062      1.645     3.16     814.9937     54.76831     613.8054        29     1.281     1.221 -14.71   0
         3    415.4553     10.7022 307.7617153  +6.6822067     6400.579     9832.998     10123.61      77.7633     155.4031     310.9297      1.688     3.26     819.7997     54.76831     997.0061        33     1.291     1.233 -73.15   0
         4     16.3992     10.2654 307.9275137  +6.6690223     8187.374     13070.56     13784.15     77.14365      155.094     310.4663      1.737     3.34     821.2234     54.76831      1291.04        38     1.341     1.323  83.18   0
         5    662.3699      9.5095 307.6591719  +6.6909407      963.007     1522.976     1504.205     78.00977     155.1558     310.6826      1.697     3.56     814.8666     54.76831     163.9615         9     0.873     0.802  38.30   0
         6    491.1060      7.5023 307.7303931  +6.6860550      944.032     1396.853     1297.049     77.88663      155.958     306.5774      1.562     4.08     816.0358     54.76831     165.8391        11     1.203     0.823 -52.78  16
         7    312.0942      5.6383 307.8048268  +6.6808407     13004.84     19953.98     21345.72     78.00977     155.2795     291.5239      1.644     3.36     822.9644     54.76831     1844.883        43     1.351     1.286 -38.43  16
         8     85.7737      5.9230 307.8988398  +6.6731422     2496.982     3911.224     4335.411     77.76329     155.4031     293.9829      1.713     3.50     821.1217     54.76831      350.199        22     1.228     1.111  30.52  16
         9    942.9500      5.6709 307.5427262  +6.7018648     491.3883     727.0032       885.41     77.88663     155.3413     291.6884      1.424     4.29     813.7184     54.76831     77.61322         6     0.833     0.648  33.47  16
        10    407.3367      6.0867 307.7652432  +6.6838406      759.564     1125.207     1434.288     78.00977     155.5266     295.6109      1.477     3.35     820.1591     54.76831     115.3943         7     0.851     0.574 -62.00  16
        11     77.0010      4.9060 307.9025186  +6.6732678     1447.872     2563.177     3177.603     77.39211     154.9701     283.0372      2.002     4.41     821.0339     54.76831     202.2942        19     1.311     1.042 -28.46  16
        12    378.2686      3.4393 307.7774085  +6.6839617     2398.967      3827.03     3949.623      77.7633     149.2916     265.4676      1.723     3.58     821.4728     54.76831     346.0374        22     1.220     1.096   8.55  24
        13    780.7443      4.0833 307.6101723  +6.6971243     823.4965     1113.307     1483.114     77.88663     153.7888     273.6926      1.460     4.30     814.2446     54.76831     111.7432         9     0.906     0.714  23.65  16
        14    638.5538      1.1774 307.6693459  +6.6935862     1882.573     2341.977     2831.904     65.42923     121.0268     231.0989      1.057     2.95     814.5684     54.76831     529.0449         8     1.078     0.378  -3.13  24
        15    254.0425   1002.9957 307.7954371  +6.2671812     732.3349     1117.976     806.2604     77.26798      155.094     310.4354      1.575     4.92      846.205     54.76831     89.09058         8     0.877     0.780 -82.03   0
        16    943.6422   1020.8545 307.5085659  +6.2827941     5126.613     10056.66     10477.89     77.76329     154.1006     274.3231      2.042     4.38     842.6016     54.76831     579.0413        41     1.559     1.436  84.94  24
        17    898.2077    999.3950 307.5281434  +6.2901436     7005.074     13399.48      14482.8     77.26798     155.1558     310.5591      2.026     4.15     843.1476     54.76831     745.3101        51     1.590     1.540 -40.26   0
        18    871.8441    995.6034 307.5392147  +6.2908326     10001.65     19189.85     21006.48     77.26798     155.0321     310.3735      2.026     4.15      843.252     54.76831     1094.081        59     1.676     1.564 -22.31   0
        19    993.6201    994.9724 307.4886803  +6.2951388     3828.753     7594.573     8468.423     77.51603     155.2177     310.6518      2.084     4.42     838.5938     54.76831     413.2061        41     1.534     1.495 -43.46   0
        20    584.7634    996.1008 307.6583776  +6.2810705     1184.879     1995.602     2101.305     77.88663     155.2795     310.8988      1.870     6.08     847.3545     54.76831      152.617        16     1.418     1.011 -39.15   0
        21    516.0016    994.7983 307.6869665  +6.2793151     3699.174     6545.141     7810.647     77.26798     154.9701     310.4044      2.038     3.80      847.097     54.76831      471.629        32     1.480     1.247  -9.52   0
        22    625.6494    994.0413 307.6414732  +6.2832834     1200.398     2031.597     1933.694     78.00977     155.4031     310.6518      1.799     4.89     846.9347     54.76831     158.3495        17     1.244     1.028  83.43   0
        23     50.7784    993.6923 307.8801263  +6.2642169     803.2303     1321.896     925.2282     77.88663     155.2177     310.5281      1.610     4.42     841.5255     54.76831     124.5858         7     1.248     0.445 -69.78   0
        24    469.0760    991.1229 307.7065700  +6.2792666     1915.434     3428.807     3384.155     78.13272       155.65     310.7753      1.895     4.71     846.7415     54.76831     224.6649        26     1.460     1.206  66.70   0
        25    903.5857    983.1656 307.5264521  +6.2970222     35524.14     66790.05     72828.17     77.51604     155.1558     310.5899      2.004     4.07      842.699     54.76831     3920.702        82     1.681     1.639  87.32   0
        26    211.0025    981.4628 307.8140267  +6.2746304     1495.727     2388.709     2636.614     77.26798     155.2177     310.4663      1.773     4.48     844.3127     54.76831        180.4        19     1.288     1.054 -67.45   0
        27    610.3665    979.1869 307.6483146  +6.2889063     805.5527     1164.696     901.4732     77.39211     155.1558     310.6208      1.439     4.52     846.9592     54.76831     112.3323         8     0.928     0.656  68.90   0
        28    749.6553    974.9238 307.5906318  +6.2953053     5902.735     10651.49     12204.24     77.88663     155.4031     310.6518      2.004     4.14     845.1503     54.76831     703.7836        48     1.719     1.439 -85.69   0
        29    801.5984    976.9966 307.5689983  +6.2961780     1967.209     3491.153     3565.493     77.26798     154.9701     310.4663      1.854     4.36     844.4241     54.76831     250.2829        24     1.326     1.213  53.27   0
        30    536.3725    974.5678 307.6791872  +6.2883461     917.0945     1585.479      1150.03     77.39211     155.1558     310.5281      1.803     5.08     846.8594     54.76831     133.9988        11     1.232     0.798 -59.97   0
        31    219.3321    974.0963 307.8108163  +6.2779501     1325.307     2236.377     2584.914     77.76329     155.5266     310.7135      1.871     4.32     844.3233     54.76831     179.5478        16     1.271     0.929 -69.47   0
        32    183.4833    973.4820 307.8257185  +6.2770041     793.0508     1526.681     1528.791     77.63976       155.65     310.8062      2.007     5.23     843.4161     54.76831     129.6052         8     1.092     0.708 -55.76   0
        33     44.0257    972.0577 307.8836572  +6.2729215     2423.295     4125.025     4397.958     77.51604     155.4031     310.5591      1.868     4.14     840.7188     54.76831     279.4701        25     1.331     1.183 -86.52   0
        34    937.8410    969.9654 307.5126709  +6.3036099     5403.456     10447.77     10698.89     77.63976     155.4031     310.5281      2.026     4.28     841.4389     54.76831      620.403        46     1.622     1.481 -73.78   0
        35    194.3534    965.8381 307.8214629  +6.2805233     449.6781     699.4537     769.9075      77.7633     155.3413     310.5899      1.418     3.60     843.5447     54.76831     80.75238         5     1.029     0.363   3.55   0
        36    911.7944    961.5213 307.5237661  +6.3062304     1641.975     2986.985      2991.09     77.51604     154.9082     310.4972      1.884     4.65     841.9734     54.76831     209.3945        23     1.397     1.123 -45.44   0
        37    632.4056    957.5468 307.6398890  +6.2985742     4420.238     7175.123     7464.384     77.39211     155.1558     310.4354      1.759     3.62     846.0663     54.76831     571.0587        32     1.368     1.252 -49.00   0
        38    244.5183    957.9062 307.8009045  +6.2854760     3802.226     6502.311     6976.385     77.63976       155.65     310.8062      1.852     3.77     844.4592     54.76831     479.2358        33     1.403     1.322 -54.74   0
        39    771.3745    957.5665 307.5821948  +6.3031936     1264.155     2076.273     2030.077     77.26798     155.2177     310.5281      1.846     3.35     844.5662     54.76831     176.4093        14     0.999     0.914 -84.69   0
        40    454.9734    955.8536 307.7136061  +6.2933557     1023.166      1694.61     1797.412     77.63976     155.5266     310.6208      1.803     5.48     846.0809     54.76831     168.2126        15     1.277     0.959  73.54   0
        41     13.4392    955.3307 307.8969167  +6.2788012     1934.752     3344.169     3992.693      77.7633     155.4031     310.8062      1.918     4.01     839.3673     54.76831     291.4968        22     1.398     0.998 -43.23   0
        42    864.4907    953.6580 307.5436671  +6.3079043     717.5302      1089.99     577.9235      77.7633     155.4031     310.8371      1.522     4.75     842.9756     54.76831     91.45319         8     1.545     0.414 -79.17   0
        43    557.1530    950.2437 307.6713745  +6.2990806     1603.846     2481.779     3239.007     77.88663     155.3413     310.6826      1.814     4.07     846.4055     54.76831     194.0726        18     1.208     1.008 -73.91   0
        44    988.7366    947.5655 307.4922876  +6.3145476     566.8237     1438.074     1766.461      77.7633     155.4649     310.7135      2.934     7.03     838.8095     54.76831     103.3698         8     2.152     0.644  49.69   2
        45    935.8519    950.5068 307.5141456  +6.3115768     711.7828     1145.584     1253.377      77.7633     155.2795     310.9297      1.897     4.07     840.9047     54.76831     122.1875         9     1.165     0.793  -3.14   0
        46    280.7449    951.0499 307.7860959  +6.2895180     1018.404     1457.989     2136.532     77.88663     155.4031     310.7444      1.723     4.82     845.1263     54.76831     138.4415         9     0.957     0.688  20.14   0
        47    596.0817    946.5685 307.6553362  +6.3018957     1030.405     1505.417     1028.587     77.76329     155.2795     310.7135      1.659     5.53     846.2898     54.76831     124.4055        15     1.199     1.021  -6.80   0
        48    276.0149    944.0909 307.7882931  +6.2922325     1388.072     2259.336     2513.907     77.63976     155.2177     310.5591      1.682     3.99     844.7583     54.76831     204.6294        16     1.231     0.935 -84.83   0
        49     46.2673    946.5506 307.8835847  +6.2835260     757.2763     1050.716     1383.954      77.7633     155.2795     310.7444      1.670     4.05     840.0472     54.76831     107.5908         7     0.993     0.473  10.14   0
        50    880.6706    936.8770 307.5375097  +6.3153698     5976.713     10791.14     11326.48     78.13272       155.65     310.7135      1.931     3.87     842.2802     54.76831     760.2073        42     1.522     1.458  67.69   0
        51    743.2426    940.1306 307.5944565  +6.3094554     867.8295     1294.151     822.8643     77.76329     155.4031     310.7753      1.607     5.90     844.7861     54.76831     107.4853        11     1.047     0.935 -47.28   0
        52    416.4884    933.9886 307.7303156  +6.3010970     1820.895     2988.549     3648.706     77.51603     155.1558     310.5591      1.930     4.52     845.6111     54.76831     298.2467        19     1.273     1.102  68.82   0
        53    318.1287    932.4661 307.7712002  +6.2984394     8925.438     14196.34      14642.1     77.88663     155.4649     310.7135      1.720     3.47     844.9631     54.76831      1120.25        40     1.405     1.276 -48.56   0
        54    585.4740    933.3945 307.6601808  +6.3069806     530.3728     743.7069     526.3937     77.51604     154.9701     310.6208      1.394     5.20     846.0051     54.76831      93.5993         7     0.917     0.854  45.20   0
        55    238.1957    931.4769 307.8044166  +6.2961749     6712.311     11010.09     11742.59     77.51604     154.9082     310.5591      1.785     3.66     843.3903     54.76831     839.1541        38     1.449     1.285 -42.98   0
        56    750.4147    925.9481 307.5919527  +6.3155490     654.8328     1065.029     1171.594     77.26798     155.4031     310.4663      1.736     6.32      844.452     54.76831     98.39667         8     1.333     0.841 -69.41   0
        57    566.3765    925.8931 307.6683603  +6.3094406     1289.115     2092.933     2341.148     77.88663     155.2177     310.5591      1.723     4.28     845.9156     54.76831     183.0277        16     1.119     1.094  56.28   0
        58    896.3118    921.8685 307.5315166  +6.3220857     986.4549     1647.943     2036.971     78.00977       155.65     310.7444      2.066     4.39     841.4396     54.76831     128.9741        12     1.034     0.892  81.44   0
        59    129.1867    921.8808 307.8499924  +6.2964877     592.5533     804.9884     362.0693     77.51603     155.1558     310.5281      1.143     4.02     841.6254     54.76831     96.33362         6     1.248     0.370 -29.18   0
        60    853.4808    920.7161 307.5493374  +6.3211376     679.9738     1189.719     1241.147      77.7633       155.65     310.7753      1.919     5.33     842.6895     54.76831      85.8822         8     0.992     0.809  49.28   0
        61    395.7133    920.3794 307.7393966  +6.3060213     714.4027     1035.162      622.441     77.63976     155.1558     310.5899      1.334     3.44     845.2997     54.76831     131.2387         5     0.729     0.469 -13.04   0
        62    732.9815    914.8622 307.5995608  +6.3195452     1500.768     2437.622      2676.31     77.51604     155.3413     310.5899      1.714     3.97     844.5096     54.76831      189.332        16     1.134     0.985  37.93   0
        63    556.3499    915.1185 307.6728836  +6.3135542     656.2037     747.5172     344.7601     77.88663     155.4649     310.7444      1.496     5.86     845.8154     54.76831     100.3246         9     1.379     0.701  29.15   0
        64    964.2571    911.0739 307.5036672  +6.3287995     1152.814     2331.242      3073.17     77.88663     155.3413     310.6826      2.472     6.95      839.213     54.76831     160.4233        16     1.566     1.094 -62.73   0
        65    517.7673    911.0699 307.6890371  +6.3139387     1169.719     1923.429      1536.91     77.76329     155.4031     310.7444      1.624     3.83     845.7025     54.76831     170.9028        14     1.202     0.888 -74.93   0
        66    596.5571    911.0855 307.6563260  +6.3165597     728.3159     1041.308     1003.583     77.88663     155.2795     310.7135      1.650     6.02     845.5382     54.76831     118.4192        10     1.198     0.851   3.57   0
        67    651.2341    908.3669 307.6337170  +6.3195041     2437.725     3929.065     3900.012     77.51604     155.1558     310.4663      1.711     3.84     844.8801     54.76831     313.3843        26     1.372     1.123 -46.35   0
        68    608.7141    910.5909 307.6512954  +6.3171691     535.5099     902.8908     1067.614     77.51604      155.094     310.5591      1.541     3.36     845.4704     54.76831     89.37012         5     0.735     0.447  20.48   0
        69    458.2193    908.1171 307.7138580  +6.3131705     628.3899     855.0662     923.1187     77.51603      155.094     310.6518      1.551     4.99     845.4045     54.76831     82.69916         6     1.078     0.654 -13.46   0
        70    941.8546    906.0977 307.5131342  +6.3301096     531.7416     881.4482     1674.736     77.76329     155.4031     310.9297      2.604     6.07     839.7047     54.76831     71.60803         7     1.243     0.835 -35.85   0
        71     47.7972    904.6683 307.8843586  +6.3008664     2651.596     4898.801     5120.249     77.26798     155.0321     310.4972      1.918     3.87     839.1754     54.76831     338.2487        31     1.435     1.278 -63.21   0
        72    812.4330    904.8354 307.5669096  +6.3263284     668.2355     1292.955     1481.046     77.51604     155.1558     310.4663      2.036     4.68     843.0266     54.76831     126.9996         8     1.367     0.680 -69.92   0
        73    191.5928    903.6539 307.8246978  +6.3061011     2162.372     3397.496     3850.309     77.39211     155.1558     310.4045      1.732     3.55      842.459     54.76831     299.4009        19     1.137     1.057 -69.91   0
        74     65.4239    903.7966 307.8770705  +6.3018170     1870.126     2706.673     3122.967     77.51604      155.094     310.5591      1.646     3.73     839.4841     54.76831     251.3713        17     1.163     0.954  -9.67   0
        75    645.8033    897.5321 307.6363340  +6.3237961     6539.699     10572.65     11333.18     77.26798     155.0321     310.4972      1.758     3.50     844.8048     54.76831     908.1235        38     1.411     1.274 -81.37   0
        76    330.3712    899.7831 307.7672142  +6.3123405      939.588     1377.731     1993.334     77.51604     155.1558     310.6518      1.818     3.86     844.6686     54.76831     123.1029         9     0.839     0.800   1.50   0
        77    225.5649    899.6238 307.8107299  +6.3089016      727.785     1036.168      1279.33     77.39211     155.2177     310.4972      1.592     5.17     842.8371     54.76831     80.60553         9     0.963     0.786 -73.68   0
        78    783.3419    898.1888 307.5792095  +6.3281045     678.1764     961.5449      596.915     77.26798     155.3413     310.4354      1.476     4.66       843.44     54.76831     94.08154         8     0.953     0.647 -79.02   0
        79      5.7956    895.9379 307.9020886  +6.3030624       1022.7     1747.941      1720.59     77.26798     155.1558      292.674      1.789     5.93     838.3648     54.76831     144.2205        13     1.288     0.880 -38.60  16
        80     19.3471    894.6044 307.8965078  +6.3040672     937.6938     1491.294     1370.785     77.26798     155.1558     310.3735      1.704     5.54     838.5636     54.76831     129.2398        12     1.270     0.802 -67.16   0
        81    883.5970    893.5400 307.5377407  +6.3333578      2637.86     4816.746     5109.365     77.26798     155.1558     310.4354      1.921     4.53     841.1742     54.76831     282.2634        33     1.519     1.321 -19.00   0
        82    328.8275    890.6951 307.7681600  +6.3160406     15510.14     24799.58     26394.99     78.00977     155.1558     310.6208      1.718     3.31     844.5594     54.76831     2200.734        51     1.443     1.367 -75.34   0
        83    199.7011    890.0690 307.8217881  +6.3119805     1194.581     2070.718     1935.348     77.88663     155.5266     310.6826      1.776     4.88     842.3856     54.76831     158.9359        15     1.241     0.973  74.54   0
        84     63.6826    891.5460 307.8782055  +6.3068157     1178.226     1785.655     1584.158     77.88663     155.4031     310.8062      1.691     2.99     839.1741     54.76831     188.6736        11     0.933     0.796 -57.07   0
        85    379.7662    889.6248 307.7470483  +6.3181845     719.3151     1020.799     683.7208     77.39211     155.2177     310.4972      1.441     3.50     844.7818     54.76831      121.775         7     0.966     0.855 -12.00   0
        86    406.5450    881.5510 307.7362015  +6.3224120     1174.154     1573.213     1304.231     77.88663     155.4031     310.7753      1.502     3.80     844.7925     54.76831     189.3185        15     1.196     0.871 -54.42   0
        87     92.0722    881.4153 307.8667605  +6.3119490     1557.583     2410.483      2597.99     77.39211     155.2795     310.6208      1.724     3.66     839.1589     54.76831      215.769        18     1.167     0.992 -32.95   0
        88    660.0920    877.7736 307.6310624  +6.3324289     834.1682     1636.916     2204.239     78.00977     155.1558     310.5591      2.370     6.36     844.4532     54.76831     124.8911        13     1.355     0.847 -48.26   2
        89    487.6951    878.2172 307.7026224  +6.3264975     784.1966     1239.076     1345.458      77.7633     155.2177     310.5591      1.504     2.98     845.3873     54.76831      117.933         7     0.811     0.607  64.46   0
        90    874.2057    875.1418 307.5422537  +6.3406409     1622.676     2952.239     2540.417     77.39211     155.2795     310.4354      1.890     4.63     840.9483     54.76831     216.0009        20     1.356     1.159 -40.95   0
        91    844.8297    874.9114 307.5544580  +6.3397594     1911.713     3216.602      2938.22     78.00977     155.1558     310.6208      1.738     4.33     841.7044     54.76831     249.3395        26     1.465     1.158  69.34   0
        92    807.9945    874.2938 307.5697721  +6.3387892     2745.637     4710.504     5063.375     77.51603      155.094     310.4972      1.800     4.26     842.6796     54.76831     331.5042        27     1.382     1.218 -59.93   0
        93     75.7087    874.8470 307.8737747  +6.3141121     2176.722     3710.285     3883.398     77.88663     155.3413     310.8371      1.781     3.86      838.838     54.76831     286.7886        25     1.345     1.152 -41.22   0
        94    543.9371    865.8610 307.6796860  +6.3334747     317972.1     509026.6     537813.2     77.88663     155.4031     310.7444      1.718     3.43     845.4186     54.76831     42457.73       177     1.631     1.526 -63.36   0
        95    388.1316    868.4703 307.7442847  +6.3271969     7453.053      11728.6      11953.6     77.88663     155.5266     310.6826      1.710     3.41     844.4916     54.76831      1045.48        36     1.397     1.227 -50.23   0
        96    631.8560    868.8476 307.6430840  +6.3351729     1129.565     1755.484     1152.873     77.88663     155.4031     310.8062      1.598     4.68      844.453     54.76831     154.5197        14     1.099     1.030 -45.47   0
        97    331.4125    866.9212 307.7678845  +6.3259412     12051.51     19180.18     20447.48     77.51603      155.094     310.5281      1.711     3.37     844.2857     54.76831     1555.069        49     1.432     1.345 -63.65   0
        98    649.6927    863.1284 307.6358698  +6.3381283     3367.479     5327.098     5394.254     77.76329     155.4649     310.7444      1.676     3.45     844.2969     54.76831     478.2087        29     1.325     1.205 -70.86   0
        99    882.3514    861.8781 307.5393143  +6.3463874     4564.386     8034.689      9043.53     77.88663     155.4649     310.6826      1.915     3.73     840.4689     54.76831     568.0326        37     1.439     1.354  80.34   0
       100    721.7687    859.9246 307.6060520  +6.3418515     662.0367     1029.501     1115.005     77.76329     155.4649     310.6826      1.394     5.22     843.6818     54.76831      99.7995         7     1.287     0.598 -46.95   0
       101    624.5114    856.9857 307.6465302  +6.3398250     3132.564     4973.812      5047.94     77.63976     155.2177     310.6208      1.671     3.51     844.2187     54.76831     462.0482        26     1.238     1.235  -5.93   0
       102   1015.6845    856.1005 307.4841473  +6.3532018     3841.236     7205.205     7416.228     77.88663     155.8965     310.8062      1.997     4.14     837.2818     54.76831     430.1849        38     1.547     1.378  42.39  16
       103    813.3223    856.4404 307.5681562  +6.3463368     1397.459     2254.976      2598.53      77.7633     155.4031     310.7444      1.810     3.72      842.174     54.76831     186.4504        15     1.086     0.980  84.69   0
       104    616.7894    852.9518 307.6498712  +6.3412329     1704.615     4192.104     5271.486     77.39211     155.2795     310.4044      2.588     8.30     844.1434     54.76831     305.5524        36     2.537     0.981 -59.71   0
       105    168.0726    856.7410 307.8360385  +6.3246799     523.0609     826.7784      737.778     78.00977     155.4031     310.6826      1.416     3.89     841.1338     54.76831     101.5936         6     0.901     0.511 -36.24   0
       106    940.1604    854.5760 307.5155558  +6.3513230     652.9895     1236.546     1384.569     77.51604     155.1558     310.4972      2.161     6.71     839.1481     54.76831     87.61389         8     1.467     0.860  75.05   0
       107    901.2020    849.8430 307.5318891  +6.3519824      2608.44     4779.213     4813.064     77.26798      155.094     310.4044      1.900     4.33       839.97     54.76831     324.8059        29     1.463     1.263 -29.29   0
       108    311.4858    850.5716 307.7767059  +6.3320244     999.3219     1494.238     980.8119     78.00977      155.094     310.5591      1.614     4.45      843.485     54.76831     185.6672        10     1.000     0.812  35.92   0
       109    359.1424    845.8262 307.7570795  +6.3355762     2454.489     3778.137     4283.982     77.51603     155.4031     310.5591      1.677     3.43     843.2639     54.76831     321.8334        25     1.274     1.127 -55.81   0
       110    328.1000    838.1593 307.7702247  +6.3377038     525.5148     690.5546    -66.97327     77.88663     155.2795     310.9297      1.551     5.06     842.7684     54.76831     77.32867         6     1.052     0.688  77.25   0
       111    495.5405    835.5392 307.7007948  +6.3443776     2857.466     4746.884     4636.638     77.88663     155.4031     310.7444      1.787     3.31     843.9245     54.76831     468.5681        26     1.330     1.192 -73.72   0
       112    840.4806    834.2888 307.5576197  +6.3563849     1060.499     1331.084     1791.324     77.63976     155.5883     310.8062      1.361     3.50     841.0285     54.76831     179.2396        11     1.041     0.776   2.33   0
       113    560.7912    833.0654 307.6737864  +6.3475755     817.9449     1186.904     1033.693     77.39211     155.1558     310.5899      1.589     5.22     843.6005     54.76831     138.7816         9     1.062     0.807 -47.70   0
       114    542.3314    831.6743 307.6814973  +6.3475342     5773.565     9122.563      9640.04     78.00977     155.5266     310.7135      1.707     3.38     843.5259     54.76831     865.5583        35     1.385     1.257 -39.95   0
       115    460.4940    830.8180 307.7155037  +6.3451568      1421.21     2220.299     2014.777      77.7633     155.1558     310.5899      1.614     4.76     843.5287     54.76831     225.4714        14     1.300     0.907  53.19   0
       116    549.3518    831.0807 307.6786024  +6.3480133     1141.372     1787.011     1886.246     77.88663     155.4031     310.7444      1.638     4.25     843.4669     54.76831     155.7457        10     1.101     0.713 -59.74   0
       117    101.9551    829.8452 307.8643919  +6.3335685     1231.891     2073.838      2468.51     77.88663     155.4031     310.7135      1.871     4.60     838.4879     54.76831     182.6254        16     1.328     1.065 -33.91   0
       118    877.9838    829.5270 307.5422072  +6.3595976     1228.233     2118.452     2000.371     77.39211     155.2795     310.6208      1.885     5.06     840.2285     54.76831     153.1606        15     1.276     0.896 -23.37   0
       119    678.0331    828.8911 307.6252481  +6.3532064     704.4794     1043.208     678.0295     78.00977     155.2795     310.7444      1.523     5.31     843.4914     54.76831     99.75128         7     1.187     0.671 -59.83   0
       120    513.0275    825.5156 307.6938702  +6.3490990     19199.41     29959.73     31053.06     78.00977     155.1558     310.5899      1.702     3.35     843.3447     54.76831     2674.194        55     1.447     1.361 -76.20   0
       121    354.1960    827.3304 307.7597536  +6.3430463     677.2569     903.8321      806.397     77.26798     155.0321     310.5281      1.482     2.63     842.1734     54.76831     115.2058         5     0.714     0.453  13.17   0
       122    926.6448    823.7035 307.5221971  +6.3636190     3436.202     5718.216      5971.21     77.88663     155.2795      310.868      1.786     3.78     839.3578     54.76831     447.6207        27     1.272     1.249  -7.22   0
       123     46.6476    821.3774 307.8876382  +6.3352107     509.1333     785.0953      824.143     77.51604     155.4031     310.5899      1.349     4.05     838.4106     54.76831     85.25549         5     0.973     0.481  -3.91   0
       124     23.4599    815.9625 307.8974470  +6.3366687     1398.434     2221.512     2316.019     77.88663     155.4649     310.7135      1.672     4.51     838.4552     54.76831     180.5726        19     1.284     1.039 -82.32   0
       125    305.6622    814.2637 307.7803422  +6.3468181     3207.263     4961.754     5306.965     77.88663     155.4031     310.7444      1.679     3.44     841.4404     54.76831     486.0037        23     1.219     1.104 -74.52   0
       126    771.2036    810.0533 307.5871932  +6.3640852     51100.02     83635.93     88177.85     77.26798     155.1558     310.3426      1.732     3.44     842.0175     54.76831     6365.697        80     1.514     1.463 -57.36   0
       127      5.5951    812.5839 307.9049774  +6.3374644     2253.753     3447.333     3259.414     77.51604      155.094     290.6665      1.646     3.36      838.498     54.76831     327.4302        21     1.246     1.017 -30.21  16
       128    227.8543    786.6401 307.8135741  +6.3556190       774536      1911949      2115414     77.76329     155.4031     310.7135      2.361     4.92     839.7286     54.76831     63802.43       644     2.676     2.212 -85.94   4
       129    896.5432    805.2574 307.5353110  +6.3702337     7791.973     13174.91     14736.66     78.00977     155.4649     310.7444      1.877     3.68      839.709     54.76831     964.5632        47     1.532     1.417 -52.21   0
       130    699.5010    804.6992 307.6171435  +6.3639084      20379.9     33367.85     36210.73     77.88663     155.7733     310.5591      1.815     3.46     842.9837     54.76831     2912.633        55     1.503     1.354 -59.21   3
       131    693.1481    801.1664 307.6198994  +6.3651553     84325.14     134369.6     142242.6     77.76329     155.3413     310.6208      1.703     3.38     842.9167     54.76831     11220.96        87     1.521     1.453 -76.81   3
       132    337.9982    802.1236 307.7673243  +6.3529107     19880.61     31723.98     33635.45     77.26798     154.8462     310.5591      1.678     3.34     840.7776     54.76831     2791.092        55     1.420     1.392 -48.96   0
       133    399.8967    799.9310 307.7416983  +6.3558840     21404.91     34040.86      35908.8      77.7633     155.5266     310.7135      1.664     3.35      841.408     54.76831     2880.703        54     1.437     1.367 -60.62   0
       134    387.2465    802.2432 307.7468730  +6.3545069     1367.991     2065.219     1746.504     77.88663     155.4031     310.6518      1.585     3.25     841.3069     54.76831      225.725        14     1.096     0.917 -41.65   0
       135    936.8702    798.8282 307.5187811  +6.3742280     1862.725     3369.629     3729.197     77.63976     155.4031     310.6826      1.911     4.31     838.8889     54.76831       235.62        26     1.325     1.258 -50.76   0
       136    893.4155    796.6576 307.5368966  +6.3736800     6056.621     10169.71     11405.75     77.26798     155.3413     310.4354      1.846     3.57      839.639     54.76831     777.8221        40     1.475     1.336  77.37   0
       137    634.0173    795.7495 307.6446319  +6.3654215     6124.088     9741.026      10015.1     77.39211     155.4649     310.4972      1.650     3.37     842.7529     54.76831     851.2917        35     1.356     1.265 -24.56   0
       138    866.4476    797.2015 307.5480760  +6.3725589     704.2913     1086.667     667.6577     77.26798     155.0321     310.3117      1.553     4.01     840.0364     54.76831     104.0784         6     1.028     0.446 -32.78   0
       139    422.7783    793.8133 307.7324031  +6.3591737     1579.708     2623.985     2469.632     77.63976     155.2177     310.6208      1.747     3.80     841.3898     54.76831     242.0224        22     1.232     1.161 -39.75   0
       140    374.1791    794.9937 307.7525416  +6.3570630     468.5226     628.7815     597.5812     77.51604     155.2177     310.5281      1.245     3.06      840.769     54.76831     94.08844         5     0.795     0.492  35.03   0
       141    148.2668    793.3647 307.8463913  +6.3501790     794.8577     1185.587     930.6063      77.7633     155.4649     310.7753      1.666     5.38     838.2896     54.76831     95.84625         9     0.948     0.862  87.70   0
       142    587.5873    787.6924 307.6641795  +6.3671999     744.5842     1175.262     1804.879     77.63976     155.1558     310.5281      1.838     5.61     842.1735     54.76831      116.532         9     1.295     0.685  64.88   0
       143   1017.1250    788.1147 307.4858149  +6.3813162     670.9599     1236.035     1723.664     78.00977     155.7116     308.7923      1.750     4.52     836.1151     54.76831      107.612         7     0.951     0.610 -17.14  16
       144    414.4795    808.5839 307.7353535  +6.3527990     744.1555     1270.266     1270.066     77.51604     155.1558     310.5281      1.827     4.78     842.0444     54.76831     93.50488         9     1.014     0.844 -38.93   0
       145    138.4523    786.7532 307.8506883  +6.3525796      1032.34     1669.378     1745.463     78.00977     155.3413     310.7444      1.751     4.41     838.0817     54.76831      139.044        12     1.167     0.832 -62.69   0
       146    862.5723    787.2045 307.5500188  +6.3765572     654.3505     1092.518     855.0357     77.39211     155.2177     310.5591      1.780     3.05     839.9413     54.76831     109.2946         5     0.810     0.667  23.45   0
       147    669.1286    785.8627 307.6303842  +6.3706729     2420.098     3783.387     3496.601     77.88663     155.4031     310.7753      1.654     3.96     842.2147     54.76831     337.7198        21     1.287     1.076 -41.76   0
       148    113.2426    786.4810 307.8611639  +6.3518476     1067.349     1661.297     1495.394     77.88663     155.4031     310.6826      1.693     4.44     837.9419     54.76831     147.7871        15     1.327     0.877  25.01   0
       149    402.7921    782.6265 307.7410764  +6.3631243     52111.59     82594.84     86529.05     77.51604     155.2177     310.5591      1.704     3.29     840.5298     54.76831      7844.54        73     1.482     1.402 -42.98   0
       150    945.6890    784.3342 307.5156028  +6.3805045     682.8593     1319.817     1696.677     77.88663     155.5883     310.7135      1.988     5.55     838.1644     54.76831     90.50305         8     1.418     0.612 -60.66   0
       151    520.4924    781.5789 307.6922423  +6.3674860     6843.115     10657.24      11016.8      77.7633     155.2177     310.5281      1.718     3.58      841.265     54.76831     1035.375        34     1.349     1.228 -54.35   0
       152    437.1666    780.2100 307.7268852  +6.3652699     4322.704     6838.358     7286.511     77.39211     155.2177     310.5591      1.669     3.53     840.7656     54.76831     638.6619        27     1.354     1.136 -34.81   0
       153    765.7108    778.2382 307.5905368  +6.3770365     10990.25     17386.87     18400.04     77.88663     155.3413     310.7444      1.735     3.46     841.2385     54.76831     1518.262        45     1.456     1.335 -50.37   0
       154    433.9195    773.7194 307.7284509  +6.3678409         2186     3618.136     3888.362     78.13272       155.65      310.868      1.761     3.70     840.3928     54.76831     341.1077        24     1.262     1.178 -33.58   0
       155    787.3616    772.3492 307.5817438  +6.3801881      1074.09     1641.123      1715.91     77.63976     155.3413     310.6518      1.670     6.09     840.6757     54.76831     140.9389        14     1.281     0.957 -41.65   0
       156    131.4993    770.5502 307.8541198  +6.3590355     2976.889     5012.516     5563.542     77.88663     155.4031      310.868      1.854     3.89     837.6439     54.76831     418.7876        29     1.356     1.271 -55.78   0
       157    123.4606    770.3402 307.8574644  +6.3588529      11220.8     17758.68        19742     77.88663     155.4031     310.7444      1.765     3.47      837.594     54.76831     1610.504        45     1.432     1.349 -27.70   3
       158    115.7239    767.5257 307.8607712  +6.3597556     2917.891     4768.062     5346.184     78.13272       155.65     310.7753      1.847     3.66     837.5247     54.76831     404.3634        29     1.400     1.276  13.34   3
       159    115.7098    761.3512 307.8609847  +6.3623040     1948.593     3178.276     3828.308     77.88663     155.2177      310.868      1.751     4.51     837.3571     54.76831     304.9578        25     1.486     1.073 -44.11   3
       160    911.3145    766.5978 307.5304676  +6.3866845     5758.408     9792.376      10780.2     77.26798     155.0321     310.4354      1.807     3.56     838.4871     54.76831     733.6973        38     1.423     1.348  82.54   0
       161    960.6668    766.8188 307.5099677  +6.3882330     1448.932     2368.086     3356.973     77.51604     155.4031     310.6208      1.819     4.37     837.4374     54.76831     154.4816        17     1.242     0.915  60.08   0
       162    666.9839    764.4437 307.6319910  +6.3794437     1627.414     2778.437     3193.068     77.39211     155.2795     310.5281      1.878     3.88     841.2068     54.76831     268.2428        17     1.292     0.931 -63.31   0
       163    553.6495    763.6135 307.6790769  +6.3760085     2217.837     3486.682     3918.763     77.26798     155.3413     310.4354      1.741     3.66     840.8124     54.76831     326.2198        19     1.207     1.028 -50.27   0
       164    401.6231    762.8262 307.7422257  +6.3712591     1196.741     2077.641     2080.517     77.39211     155.2795     310.6518      1.885     4.21     839.4355     54.76831     183.8748        18     1.270     1.072  76.93   0
       165    965.6661    757.8889 307.5081896  +6.3920856     1643.867     2924.965     3103.142     77.88663     155.5883     310.6826      1.883     5.57     837.2081     54.76831     200.8441        22     1.444     1.189 -67.39   0
       166    935.0316    758.1466 307.5209015  +6.3909615     2735.497     4780.679      5072.71      77.7633     155.4649     310.6208      1.871     3.94     837.6269     54.76831     348.0403        28     1.426     1.204 -13.04   0
       167    905.5953    758.7821 307.5331031  +6.3897209     2746.802     4693.459     4752.305     77.51604     155.0321     310.5591      1.812     4.01     838.3914     54.76831     355.8949        27     1.340     1.205   3.23   0
       168    657.7595    757.7553 307.6360449  +6.3818975      1238.86     2154.704     2386.695     77.63976     155.4031     310.5899      1.893     4.58     841.0549     54.76831     179.0054        17     1.262     1.061  88.49   0
       169    805.2101    756.2319 307.5748710  +6.3874356     925.5004     1436.871     1172.988     77.39211     155.1558     310.5591      1.613     5.70     840.1439     54.76831     121.9841        15     1.316     0.918  44.90   0
       170    880.4052    754.0246 307.5437215  +6.3908476     666.2439      1230.27     1480.152     77.39211     155.1558     310.5591      1.823     4.95     839.0303     54.76831     83.34277         8     1.192     0.581 -52.99   0
       171    230.2953    753.1022 307.8136872  +6.3695455      1737.82     3249.078     4251.369     77.88663      155.958     310.5591      2.210     4.39     838.5977     54.76831     240.4748        25     1.443     1.149 -65.06   0
       172    667.6639    749.9799 307.6321924  +6.3854374     746.3486     1192.719     1786.646     77.51603     155.4031     310.5591      2.162     5.08     840.5424     54.76831     95.49243         9     0.901     0.810  -1.09   0
       173    923.2510    748.3566 307.5261197  +6.3946116     1019.502     1367.582     1268.112     78.00977     155.3413     310.7444      1.461     4.04     837.5409     54.76831     134.1725        13     1.019     0.905 -34.83   0
       174    250.8033    748.5156 307.8053264  +6.3721251     747.9578     1124.638     1751.457     77.26798     155.0321     310.4354      2.296     5.71      838.497     54.76831     99.22797         9     1.150     0.798 -51.13   0
       175    145.9522    748.3590 307.8488652  +6.3686802     711.0539     1305.022      1493.51     77.76329     155.4031     310.5899      1.829     5.02     837.0765     54.76831     120.3519         8     1.210     0.588 -29.34   0
       176    950.0798    746.0853 307.5150552  +6.3964407     2285.021     3874.677     4237.717      77.7633     155.7116     310.8062      1.782     4.62     837.1346     54.76831     307.7848        24     1.364     1.237  26.52   0
       177    897.1848    747.0997 307.5369852  +6.3942642     1030.753     1671.168     1817.304     77.88663     155.1558     310.4044      1.879     4.09     838.3494     54.76831     164.6556         9     0.956     0.818  62.31   0
       178    669.5541    745.1302 307.6315697  +6.3875024     944.8873     1551.883     1663.845     77.88663     155.3413     310.7135      1.826     5.01     840.2733     54.76831     157.9418         9     1.025     0.694 -58.11   0
       179   1023.0337    740.0397 307.4849636  +6.4013592     5134.738     7753.288     8092.108     74.35593     132.3174     243.6741      1.581     4.21     836.7413     54.76831     703.2639        27     1.552     0.942 -89.77  24
       180    991.8152    739.2153 307.4979542  +6.4006631     1427.921     2304.701     2775.413     77.63976      155.094     310.6518      1.791     4.17     836.8463     54.76831     181.8291        19     1.274     1.021 -22.71   0
       181    618.0815    739.2980 307.6531375  +6.3881948     700.0298     941.3104     820.8611      77.7633     155.7733     310.8062      1.395     4.37     841.0284     54.76831     110.9944         7     1.033     0.536 -64.14   0
       182    390.5399    739.8588 307.7475977  +6.3803702     579.0551     998.6245     1540.545     77.88663     155.4031     310.7444      1.232     2.01     838.1819     54.76831     129.7953         5     0.684     0.450  65.34   0
       183    793.1130    737.7321 307.5805119  +6.3946704     1011.221     1553.848      1467.36     78.00977       155.65     310.7444      1.613     4.73     839.9146     54.76831     152.1936        12     1.205     0.871 -85.26   0
       184    879.3905    735.0877 307.5447749  +6.3986316     1453.759     2429.793     2950.864     77.51603      155.094     310.4972      1.845     4.77     838.6997     54.76831     177.4855        20     1.325     1.127 -58.45   0
       185    853.4064    730.2546 307.5557258  +6.3997628     803.6486     1215.409     1070.075     77.39211     155.1558     310.4354      1.464     5.17     839.1511     54.76831     106.3212        10     1.387     0.545 -30.64   0
       186    836.1796    726.7260 307.5629968  +6.4006467     1290.573     2278.753     2022.267     77.51604     155.2795     310.6518      1.849     3.88     839.2251     54.76831     186.5432        16     1.201     1.042  76.58   0
       187     99.2589    724.8966 307.8690409  +6.3768016     812.6829     1792.685     1758.791      77.7633     155.4031     310.8371      2.259     7.11     836.4954     54.76831     121.7398        13     1.599     0.886  72.29   0
       188     35.2236    725.6315 307.8956032  +6.3743520     2359.193     3508.674     3679.866     77.26798     155.2177     310.4972      1.605     3.57     836.7746     54.76831      346.272        19     1.155     1.022 -72.22   0
       189    448.3049    724.4050 307.7241310  +6.3886790     491.2935     608.1395     607.2068     77.63976      155.094     310.4663      1.237     3.44     838.2911     54.76831     84.45142         5     1.034     0.330 -21.76   0
       190    647.8290    714.1615 307.6416265  +6.3995631     5932.651     9493.299     9948.599     77.39211      155.094     310.5591      1.676     3.46     839.4758     54.76831     861.2877        34     1.331     1.270 -79.41   0
       191    594.3051    713.3550 307.6638783  +6.3981120     1260.422     2051.145     1794.544     77.88663     155.3413     310.8371      1.802     5.59      839.897     54.76831     194.1307        15     1.234     1.114 -72.56   0
       192    516.0364    714.1041 307.6963526  +6.3951922     658.8601     1051.049     1702.139     78.00977     155.2795     310.8371      1.591     5.06     838.8561     54.76831     112.6823         9     1.265     0.668 -38.55   0
       193    505.8055    713.5982 307.7006177  +6.3950597     870.3305     1140.459     1375.265     77.26798      155.094     310.4972      1.532     4.44     838.8079     54.76831     134.6226        11     1.029     0.893 -58.84   0
       194    110.7117    710.0883 307.8647838  +6.3832982     3509.541     5668.628     5836.084     77.63976     155.8965     310.8062      1.713     3.43     836.1213     54.76831     567.5037        28     1.335     1.198 -50.32   0
       195    984.9263    709.2278 307.5018146  +6.4128140     2283.077     3741.351     3873.646     77.76329     155.3413     310.6518      1.720     4.15     836.8512     54.76831     283.0832        24     1.291     1.217  27.02   0
       196    621.7390    709.7056 307.6526090  +6.4005331     1966.368     3075.766     3157.472      77.7633     155.4649     310.7444      1.649     3.66     839.8167     54.76831     290.7382        22     1.243     1.135  23.70   0
       197    764.7073    706.1709 307.5933615  +6.4067543     19330.35     30595.54     31945.76     78.00977     155.1558     310.6208      1.696     3.35      839.067     54.76831     2865.568        54     1.428     1.386 -55.72   0
       198    894.8191    705.8467 307.5393442  +6.4112160     3433.429     5646.048     5710.788     77.51603     155.3413     310.5281      1.717     3.39     837.6289     54.76831     486.5333        28     1.317     1.199 -61.40   0
       199    492.3684    706.1237 307.7064475  +6.3976968     780.5614     1148.338     1190.955     77.76329     155.4649     310.6826      1.591     5.56      838.557     54.76831     104.6234         9     1.338     0.651 -47.97   0
       200    463.7492    706.3988 307.7183218  +6.3966280      1389.34     2137.047     2462.052     77.26798     155.0321     310.2808      1.646     4.37     838.2053     54.76831     204.2895        13     1.092     0.912 -62.29   0
       201    265.7920    706.1368 307.8005262  +6.3901209     676.0173     945.2001     672.0863     77.26798     155.1558     310.5281      1.561     4.56     836.6017     54.76831     97.09558         7     1.007     0.646 -72.27   0
       202    310.0936    706.1114 307.7821324  +6.3916130     607.6708     894.4632      1001.09     77.88663     155.8349     310.7753      1.431     3.96     836.7717     54.76831     84.74835         8     0.842     0.664 -42.39   0
       203    645.2412    699.0778 307.6432057  +6.4057038     6999.195     10827.43     11806.68     77.76329     155.4031     310.7753      1.680     3.31     838.9612     54.76831      957.964        37     1.343     1.275 -65.49   0
       204    238.2828    699.8527 307.8121594  +6.3917947     5890.276     9354.619     10353.02     77.88663     155.4031     310.8062      1.715     3.50     836.3083     54.76831     770.0085        34     1.375     1.262 -34.65   0
       205    627.7756    700.0211 307.6504265  +6.4047323      853.713     1404.736     1847.226     77.51603     155.2177     310.7135      1.830     4.03     839.3112     54.76831     137.1679         6     0.924     0.644 -15.44   0
       206    341.1381    699.0887 307.7694778  +6.3955499     644.4698     917.9816     1273.113     77.88663     155.5266     310.7753      1.347     4.03     836.7802     54.76831     114.1091         6     0.773     0.600  32.81   0
       207    905.5729    691.5788 307.5353548  +6.4174636     1192.632      2070.85     2127.291     77.39211     155.2177     310.6826      1.858     4.80     837.2185     54.76831     181.4376        17     1.352     1.084 -30.05   0
       208    716.9885    687.5867 307.6137975  +6.4128377      3551.25      5832.81     6302.432     77.76329     155.1558     310.6518      1.788     3.57     838.5613     54.76831     478.5901        30     1.409     1.162  83.75   0
       209    672.4938    687.6299 307.6322722  +6.4113378     977.1596     1639.658     1488.637     78.00977     155.1558     310.6208      1.706     4.54     838.0663     54.76831      155.916        12     1.286     0.890  29.81   0
       210    983.3365    683.9884 307.5033163  +6.4231808     7929.311     13475.82     14182.92     77.39211     155.2177     310.5281      1.805     3.53     836.8464     54.76831      972.307        44     1.466     1.392 -45.21   0
       211    921.6210    684.4948 307.5289272  +6.4209214     2273.284     3803.769     4119.805      77.7633     155.2177     310.5591      1.863     4.11     836.9404     54.76831     299.8691        23     1.266     1.206 -84.99   0
       212      2.5217    684.0837 307.9105794  +6.3904065     1767.953     2627.708     2973.042     78.00977     139.9328     252.3435      1.636     4.10     835.5989     54.76831     268.4567        19     1.298     0.976 -69.01  24
       213    419.1798    682.2388 307.7376381  +6.4051134     573.9122     1075.677     1213.495     77.51604     155.2177     310.4663      1.803     5.57     836.8074     54.76831     87.26349         6     1.364     0.642 -44.75   0
       214     60.5800    678.9988 307.8866446  +6.3944522     24843.21     39542.77     41346.71     77.51603     155.0321     310.4354      1.705     3.40     835.4164     54.76831     3466.528        57     1.441     1.377 -62.45   0
       215    522.0522    679.6337 307.6950093  +6.4096229     2020.734     3342.007     3640.806     77.76329     155.3413     310.6208      1.755     3.71     837.8458     54.76831     288.3431        19     1.210     1.016 -49.26   0
       216    490.4886    677.0951 307.7082008  +6.4096176     1373.099     1995.275     2230.946     77.88663     155.7733     310.7753      1.594     4.59     837.9015     54.76831     218.9124        14     1.284     0.800 -33.14   0
       217    911.6331    675.9808 307.5333588  +6.4241043     1004.863     1535.615     1381.953     77.39211     155.2177     310.5281      1.614     4.11     836.9745     54.76831     139.4957        11     0.987     0.862 -37.20   0
       218    530.9894    673.3126 307.6915100  +6.4125307     995.1077     1697.184     2283.426     77.51603     155.1558     310.5591      1.843     4.97     837.5812     54.76831     176.6467        10     1.098     0.775 -27.13   0
       219    706.7875    671.1035 307.6185846  +6.4193026     3359.891     5073.886      4915.35     77.76329     155.1558     310.4972      1.568     3.35     837.9798     54.76831     488.1136        24     1.249     1.087 -83.65   0
       220    728.6964    669.3038 307.6095471  +6.4207751     4084.146     6192.856     6175.393     77.88663     156.0195     310.5591      1.613     3.30     838.2587     54.76831     644.0312        25     1.240     1.114 -85.76   0
       221    560.1515    667.2837 307.6796025  +6.4159923     3116.363     4924.646     5295.625     77.88663     155.4031     310.7444      1.711     3.70     837.6436     54.76831     467.4562        25     1.294     1.165 -81.12   0
       222    396.4584    667.8202 307.7475563  +6.4103066     1305.422     1925.232     2371.387     77.51604     155.2795     310.5281      1.699     3.94     836.2372     54.76831      194.028        15     1.183     0.858 -57.78   0
       223   1001.4957    665.4548 307.4963934  +6.4314350     4519.526     7273.006     7060.705      77.7633     155.3413     310.9297      1.777     3.67     836.4963     54.76831     577.8305        34     1.379     1.274 -56.16   0
       224    220.6947    666.9241 307.8205685  +6.4047994     1753.209     2560.576     3085.371     77.63976     155.5883     310.7444      1.651     3.73     834.9066     54.76831     237.3615        19     1.204     1.045 -29.55   0
       225    304.4321    666.3613 307.7858175  +6.4078330     1408.649     2182.165     1617.487     77.51604     155.2177     310.5281      1.614     3.11     835.1675     54.76831     229.4285        14     1.081     0.832 -60.82   0
       226    966.8970    664.2725 307.5108004  +6.4307741     7219.009     12193.89     12830.14     77.51604     155.5266     310.6826      1.799     3.65     836.5343     54.76831     919.2662        39     1.397     1.377  51.62   0
       227    686.7382    663.3458 307.6271695  +6.4218374      1132.88      1614.86     1797.345     78.00977     155.3413     310.6826      1.616     3.80     837.6064     54.76831     201.5473        13     1.176     0.732 -51.28   0
       228    520.7985    664.5426 307.6960354  +6.4158110     593.9211     1133.342     1255.438     77.26798      155.094     310.4663      2.016     2.75     837.4843     54.76831     98.39331         5     0.718     0.456  21.20   0
       229     78.2700    660.9722 307.8799060  +6.4024866     825.1854     1412.028     1977.133     77.63976     155.4031     310.6518      2.120     5.84     835.0646     54.76831      125.312        11     1.410     0.680 -53.47   0
       230    125.3776    657.8806 307.8604502  +6.4053412     23507.59     37198.65     39006.18     77.51604      155.094     310.6518      1.688     3.31     834.8538     54.76831     3167.808        53     1.415     1.344 -49.30   0
       231    793.8638    658.1241 307.5828596  +6.4275596     1199.606     1907.108     1535.075     78.13272     155.4031     310.6826      1.651     5.25     837.7098     54.76831     173.8372        13     1.231     0.951 -42.60   0
       232    412.1366    658.6961 307.7413522  +6.4145969     2694.588     4339.862      5283.04      77.7633     155.5266     310.7753      1.782     3.51     836.0121     54.76831     430.6921        23     1.254     1.076 -68.43   0
       233    345.1726    652.4033 307.7693692  +6.4149571     838.5992     1350.781     1538.888     77.39211     155.1558     310.5591      1.835     5.57     835.3289     54.76831     112.1959        11     1.339     0.654 -49.11   0
       234    961.8925    647.2198 307.5134474  +6.4376477     6064.681     10697.67     11982.34     77.76329     155.2177     310.5591      1.914     3.80     835.9849     54.76831     786.1041        46     1.616     1.425  32.51   0
       235      6.8273    647.0358 307.9100391  +6.4058443     979.8401     1551.045     1142.396     77.39211     155.1558     301.8445      1.532     4.56      835.483     54.76831     153.8969        12     1.248     0.688 -77.06  16
       236   1017.1944    642.4180 307.4906422  +6.4414666     82758.22     139866.4     148752.7     77.51604     155.0321     308.2945      1.832     3.55     835.3666     54.76831     10110.02        96     1.579     1.542  89.50  16
       237    555.3958    642.6098 307.6824036  +6.4260195     47186.98     73051.12     76542.07     77.39211      155.094     310.5899      1.682     3.34     837.1518     54.76831     7609.647        66     1.435     1.374 -48.66   0
       238    919.5685    643.8359 307.5311361  +6.4376384     589.8348       976.57     974.6641     77.51604     155.1558     310.4663      1.657     4.47     836.2327     54.76831     100.5229         6     0.980     0.580 -22.88   0
       239    515.2069    642.1939 307.6991060  +6.4248504      625.875     1255.607     1037.515     77.26798     155.2177     310.5591      2.025     4.32     837.0488     54.76831     101.5409         6     0.919     0.578  43.93   2
       240    198.9372    643.7945 307.8303800  +6.4136193     598.3714     776.4387     1255.032     77.26798     155.1558     310.4972      1.397     4.15     834.4706     54.76831     77.89996         6     1.142     0.430 -28.04   0
       241    780.7234    641.6950 307.5888652  +6.4339046     515.2846      644.207      271.901     77.63976     155.5266     310.7753      1.451     3.44     837.5683     54.76831     118.6116         5     0.766     0.445  10.83   0
       242    162.9133    639.3557 307.8454874  +6.4142456     2899.884     4366.396     4338.917     77.88663     155.2795     310.7135      1.632     3.58     834.3975     54.76831     392.6426        21     1.178     1.066 -59.58   0
       243    485.9352    639.8273 307.7113403  +6.4248505     687.7944      1117.38     680.7349     77.51603     155.4031     310.6208      1.643     2.98     837.0219     54.76831     142.3922         8     0.864     0.731 -84.75   0
       244    966.7806    638.5163 307.5117077  +6.4414031     505.0775     701.6318     386.3217     77.51604      155.094     310.6826      1.339     3.31     835.6755     54.76831     95.28094         5     0.741     0.459  19.83   0
       245     55.4862    633.5095 307.8902904  +6.4130596     1479.329      2497.32     2372.676     77.63976     155.8349     310.8371      1.810     4.68     834.9448     54.76831      173.234        17     1.235     0.976 -48.78   0
       246    452.6335    626.4186 307.7256183  +6.4292740     62659.93     95872.13     100437.7     77.39211     155.2177     310.5281      1.678     3.31     835.8598     54.76831     10100.92        79     1.460     1.399 -56.60   0
       247    127.2406    621.5435 307.8608987  +6.4204038     1604.943     2445.692     1575.146     77.88663     155.4649     310.7444      1.622     3.62     834.0856     54.76831     241.3419        17     1.192     0.963 -47.21   0
       248    598.9747    618.4504 307.6651161  +6.4374463     888.1825     1590.571     1963.799     77.51603     155.4031     310.6208      2.099     6.80     837.0019     54.76831     115.9016        12     1.473     0.879 -50.92   0
       249    406.3380    618.9619 307.7450926  +6.4308061     985.6351      1509.41     1433.632     77.88663     155.4649     310.7135      1.496     3.39     834.5179     54.76831     179.0581        11     1.082     0.777 -80.13   0
       250    922.7173    618.6820 307.5306678  +6.4481273     605.9955     1273.518     1183.616     77.63976       155.65     310.8062      2.110     4.47     835.6176     54.76831     89.14062         5     0.985     0.578 -51.19   0
       251    298.2365    616.0368 307.7900797  +6.4284004     2120.645     3532.863     3282.176     77.63976     155.2795     310.5281      1.722     4.08     834.1135     54.76831      300.183        24     1.402     1.067 -70.33   0
       252    638.6147    623.4890 307.6484864  +6.4366877     814.6694     1304.165     1386.763     77.63976     155.2177     310.5899      1.833     4.21     837.1703     54.76831     151.2829        10     1.418     0.694 -58.47   0
       253    724.7142    609.9152 307.6131862  +6.4451596     4935.278     7545.962     7167.432     77.63976     155.5883     310.7753      1.605     3.17     837.0873     54.76831     761.9381        31     1.290     1.235 -14.13   0
       254    778.1876    605.1429 307.5911396  +6.4489099     13263.96     20976.87     21847.29     77.26798     155.2795     310.4044      1.657     3.37      836.976     54.76831     1977.282        47     1.435     1.296 -65.43   0
       255   1018.0252    604.2044 307.4915711  +6.4572699     1799.431     2946.723     2675.352     77.39211     155.1558     302.9237      1.740     4.16      833.636     54.76831     217.5508        21     1.231     1.092 -41.78  16
       256    995.7812    605.2703 307.5007731  +6.4560912     918.2413      1415.71     1326.939     77.51604     155.2795     310.6208      1.656     3.02     834.0497     54.76831     175.1549         8     0.908     0.633 -66.54   0
       257    520.4346    604.8879 307.6981850  +6.4404255     1202.187     1996.723     2126.784     77.88663     155.2795     310.7135      1.775     4.65     836.2562     54.76831     165.9048        15     1.200     1.044  81.10   0
       258    602.1263    603.2726 307.6643154  +6.4438171     2776.405      4397.84     4239.147     78.13272     155.5266     310.7753      1.698     3.46     836.5579     54.76831     421.7787        25     1.268     1.178 -78.52   0
       259     23.3157    604.5726 307.9046224  +6.4239262     654.9798     851.0094     778.9493     78.00977     155.1558     310.5899      1.605     4.16     835.3293     54.76831     93.48438         6     1.073     0.461  86.57   0
       260    919.3396    599.4600 307.5327119  +6.4559504     1144.948     1807.927     2253.358     77.88663     155.4031     310.7444      1.868     5.50     835.2664     54.76831     164.4438        14     1.162     0.980 -27.58   0
       261    214.7143    597.3552 307.8253894  +6.4333180     1166.008     1917.789     1411.187     77.88663     155.2795     310.7135      1.687     5.35     833.5123     54.76831     168.1858        14     1.339     0.843 -58.77   0
       262    360.9183    596.7784 307.7646974  +6.4384461     1033.115     1543.785     1247.542     77.63976      155.094     310.6518      1.526     2.30     833.6035     54.76831     201.4805         8     0.782     0.649 -48.87   0
       263    854.2374    588.3246 307.5601195  +6.4583830     2723.891     4303.922     3881.229      77.7633     155.4649     310.7444      1.682     3.78     835.9261     54.76831     446.1209        24     1.278     1.177  64.91   0
       264    812.9763    585.8055 307.5773387  +6.4580504     2473.919     3786.057     4334.665     77.39211     155.1558     310.5591      1.623     3.33      836.356     54.76831     397.6502        22     1.203     1.075 -43.81   0
       265    784.1989    581.8785 307.5894207  +6.4587141     2527.191     4023.892     4804.625     77.14365     154.8462     310.5281      1.746     3.57     836.3942     54.76831     346.7336        22     1.284     1.082 -59.88   1
       266    241.0140    580.8177 307.8150241  +6.4410250     7474.152     12057.91     12585.83     77.63976      155.094     310.6208      1.711     3.31     833.0547     54.76831     1050.311        41     1.474     1.274 -69.29   0
       267    793.5933    577.0321 307.5856812  +6.4610274     152808.8     237823.8     250339.6     77.26798     155.2177     310.5281      1.667     3.29     836.2678     54.76831        23035       126     1.535     1.469 -71.43   0
       268    726.4227    581.6158 307.6134228  +6.4568991     526.2335     1211.556     2592.868     77.63976     155.2177     310.6208      4.180     5.05      836.309     54.76831      100.329         7     1.485     0.485  39.60   0
       269    175.2288    575.4657 307.8425214  +6.4410323     56350.18     89288.94     94979.28     77.63976     155.3413     310.6518      1.732     3.47     833.4915     54.76831      8133.82        86     1.535     1.457 -41.92   0
       270     99.0692    571.7842 307.8742703  +6.4400008     5900.959     9609.677      10575.5     77.39211     155.2795     310.6208      1.767     3.63     833.5779     54.76831     833.1499        39     1.475     1.322 -35.85   0
       271    964.3865    568.6568 307.5150321  +6.4701636     1138.391     1924.997     1765.484     77.26798     155.2795     310.4045      1.779     4.69     833.8381     54.76831     141.4433        14     1.168     0.844 -49.95   0
       272    985.4102    567.1917 307.5063499  +6.4714668     618.3927     1126.941     1144.031     77.39211     155.2177     310.6208      1.764     4.22     833.3262     54.76831     90.90076         5     0.909     0.559 -40.58   0
       273    213.9771    567.0168 307.8267150  +6.4458172     656.7964     1116.507      1483.75     77.63976     155.2795     310.6518      1.666     2.65     832.8751     54.76831      117.077         5     0.616     0.595   0.83   0
       274    830.1940    564.2864 307.5709072  +6.4675069      4297.57     6614.721     6952.194     77.39211      155.094     310.4354      1.637     3.25     835.6252     54.76831     687.4647        30     1.281     1.185 -42.55   0
       275    348.6045    562.5773 307.7709586  +6.4521532      16888.8     26275.03     27349.12     77.51604     155.1558     310.5281      1.696     3.21     832.3873     54.76831     2783.034        49     1.428     1.316 -56.44   0
       276    439.1767    562.8943 307.7333362  +6.4550485     806.7513     1195.798     1193.993     77.88663     155.2177     310.5899      1.641     5.97     833.4269     54.76831      117.037        10     1.148     0.874 -78.26   0
       277    150.1731    561.3016 307.8534020  +6.4460402     1851.521     2789.965     3277.581     78.00977     155.1558     310.6826      1.615     3.61     833.5723     54.76831      317.802        20     1.198     1.117  10.21   0
       278    515.0368    557.4151 307.7020171  +6.4598430     6408.647     9755.173     10200.79     77.51603     155.2177     310.4972      1.623     3.22     834.3672     54.76831     983.7391        34     1.291     1.243 -44.10   0
       279    225.8908    558.8730 307.8220414  +6.4495778      821.556     1324.172     1970.569     77.88663       155.65     310.7444      1.519     3.65     832.5185     54.76831     128.0735         8     0.840     0.666 -45.80   0
       280    784.0701    557.6241 307.5902846  +6.4687226     5509.208     8618.226     9114.675     77.51603     155.2795     310.6518      1.652     3.25     835.7873     54.76831     789.9297        31     1.364     1.167 -66.64   0
       281     88.0132    558.6046 307.8793047  +6.4450709     922.9371      1484.95     1759.063     77.51603     155.1558     310.5899      1.601     4.29     833.5377     54.76831     129.4429         9     0.909     0.713 -67.77   0
       282    373.5346    553.6611 307.7609052  +6.4566672     1405.939     2210.574     2149.557     77.88663     155.3413     310.7444      1.679     3.82     832.3123     54.76831      208.022        14     1.106     0.966  19.16   0
       283    161.9885    550.5833 307.8488560  +6.4508605     6409.329      10096.8     10130.49     77.63976      155.094     310.6208      1.682     3.28     833.5204     54.76831     938.5443        37     1.325     1.320  -2.33   0
       284    559.7479    550.5326 307.6836800  +6.4641760     2217.665     3611.321       3584.6      77.7633     155.3413     310.6518      1.752     4.01     834.5566     54.76831     317.9319        25     1.437     1.060 -43.48   0
       285    257.1934    547.0771 307.8094390  +6.4554948      83692.2     132365.6     137557.6     77.51603     154.9082     310.5591      1.654     3.37     832.0292     54.76831     11679.37        80     1.474     1.408 -44.36   0
       286     33.5734    549.2912 307.9022242  +6.4470905     4921.451     7938.509     8730.432     78.00977     155.1558     310.5591      1.764     3.34     833.5184     54.76831     737.1539        34     1.330     1.306 -32.15   0
       287    843.4553    549.8154 307.5658832  +6.4739220     619.7338     816.0394     363.5049     77.26798     155.3413     310.4045      1.202     2.32      835.152     54.76831     117.4327         5     0.705     0.443 -65.54   0
       288    800.9912    549.5415 307.5835275  +6.4726224     1367.961     1934.758     2096.947     77.26798     155.3413     310.4354      1.469     2.89      835.585     54.76831     207.5421        12     0.934     0.833 -81.60   0
       289    546.7256    544.1292 307.6893024  +6.4663850     1000.457     1420.929     1687.106     78.13272     155.5266     310.7444      1.501     4.64     834.2917     54.76831     155.7505        10     1.041     0.881  53.88   0
       290    241.0256    542.1450 307.8163186  +6.4569898     1544.533     2639.431     2592.406     77.51604     155.4031     310.5591      1.780     4.04     831.9406     54.76831     239.5703        16     1.224     0.904 -70.47   0
       291    780.3417    539.4387 307.5924407  +6.4761059      15902.3     24080.32     24539.62     77.88663     155.4649     310.7753      1.658     3.19     835.2765     54.76831     2585.921        45     1.360     1.288 -41.61   0
       292    956.7664    540.5612 307.5191339  +6.4815091     1422.234         2329     1869.614     77.63976     155.2177     310.4972      1.711     4.19     833.3982     54.76831        206.4        16     1.288     0.846 -30.11   0
       293    483.9640    537.8721 307.7155759  +6.4668736      38796.1     65792.68     70475.55      77.7633     155.4031     310.7135      1.818     3.67     833.1545     54.76831     5260.632        74     1.589     1.473  -3.09   0
       294    634.6261    536.4909 307.6530542  +6.4724694     956.5618     1331.883     1268.118     78.00977     155.1558     310.5591      1.592     5.12     834.0331     54.76831     132.5568        12     1.106     0.910 -68.81   0
       295    196.6317    534.2358 307.8350196  +6.4587689     1713.891      2807.25     3040.601     77.51604     155.1558     310.4663      1.727     3.38     832.3243     54.76831     282.8859        20     1.229     1.015 -52.73   0
       296     32.1990    534.4874 307.9032933  +6.4531554     1239.413     1866.119     2010.166     77.14365     154.9701     310.4354      1.639     3.99     833.3294     54.76831      188.159        15     1.220     0.971 -67.17   0
       297    706.1829    532.1930 307.6234809  +6.4766279     1250.474     2108.342     2306.644     77.51603     155.1558     310.5591      1.798     6.08     834.5298     54.76831     167.8057        19     1.685     1.003  68.27   0
       298     82.7699    534.4028 307.8822964  +6.4548858     578.6993     753.4129     401.7665     77.39211     155.2177     310.5281      1.311     3.65     833.3294     54.76831     99.88934         5     0.944     0.406  82.59   0
       299    654.2371    532.7558 307.6450349  +6.4746649     1343.938     1923.325      2417.68     77.63976     155.4031     310.5899      1.528     3.11     833.9731     54.76831      212.936        13     1.046     0.799 -63.44   0
       300    643.9158    532.8269 307.6493189  +6.4742916     3119.136     4618.977     4902.253     78.00977     155.1558     310.5899      1.600     3.41     833.9497     54.76831     480.4308        22     1.199     1.046 -43.82   0
       301     61.8097    529.4913 307.8911655  +6.4562106       509.41      1251.52     1872.138     77.63976      155.094     310.4663      3.042     6.42     833.2949     54.76831      119.319         8     1.903     0.609  34.98   0
       302    381.7212    528.7194 307.7583423  +6.4672370     1697.648     2487.768     2479.747     78.13272       155.65     310.8988      1.609     3.58     831.5718     54.76831      244.256        17     1.118     1.016 -87.57   0
       303    128.2449    525.4846 307.8637124  +6.4600911     25408.05     39664.96     41517.24     77.88663     155.3413     310.7135      1.715     3.47     833.0677     54.76831     3769.555        58     1.442     1.374 -58.75   0
       304    492.8506    526.2133 307.7122762  +6.4719832     1996.847     3288.984     3716.486     77.26798     155.3413     310.4663      1.807     3.65     832.7565     54.76831     320.5151        22     1.317     1.066 -58.26   0
       305    313.1652    526.7712 307.7868775  +6.4657495     3776.872      5757.04      5777.77     77.51603     155.1558     310.5281      1.593     3.54     831.0269     54.76831     520.4379        28     1.317     1.120 -51.94   0
       306    856.5319    525.3848 307.5612684  +6.4844425     1469.369     2204.247     2187.616     77.39211     155.2795     310.6208      1.616     3.47     834.2427     54.76831     255.2097        17     1.183     0.967 -42.38   0
       307     93.5223    523.7034 307.8781914  +6.4596629     2606.164     4116.314     4307.137     77.63976     155.5883     310.7753      1.730     3.93     833.2603     54.76831     337.3413        23     1.390     1.034 -43.50   0
       308    329.9759    521.7131 307.7800662  +6.4683997     880.1342     1653.152     2021.555     77.88663     155.2177     310.5591      2.056     5.22     830.8219     54.76831     128.6327        12     1.423     0.920 -41.74   0
       309    953.9073    519.8005 307.5210139  +6.4899847     4875.955     8047.338     8760.171     77.39211     154.9701     310.4044      1.759     3.43     832.9435     54.76831     704.2853        37     1.482     1.282 -89.47   0
       310    527.3408    512.3618 307.6984170  +6.4788524     1462.009     2183.938     2404.043     77.88663     155.4649     310.7753      1.637     3.59     832.3978     54.76831     191.7231        16     1.121     0.923 -43.66   0
       311    425.2829    506.5446 307.7409957  +6.4778465     41807.77     64164.11     66557.04     77.88663     155.4031     310.8062      1.680     3.34     831.5712     54.76831     6625.261        63     1.413     1.365 -53.87   0
       312    402.4301    509.3505 307.7503921  +6.4759248     530.4262     703.8727     730.0732     77.51604     155.4649     310.6208      1.695     4.11     831.2803     54.76831      83.2782         5     0.984     0.491  85.75   0
       313    633.3049    506.1715 307.6546176  +6.4849419     12016.07     18380.95      19085.4     78.00977     155.1558     310.6518      1.644     3.25     832.9737     54.76831     1903.623        40     1.320     1.306 -83.83   0
       314    190.4554    504.1721 307.8385950  +6.4709726     18433.65     30325.85     32122.95     77.51604     155.4649     310.5591      1.778     3.58     831.3374     54.76831     2642.214        60     1.526     1.419  28.69   0
       315    273.2018    506.2514 307.8041625  +6.4728837     1009.976     1532.854     1836.532     77.26798     155.0321     310.3117      1.556     3.55     830.2311     54.76831     141.5219        11     1.095     0.707   4.73   0
       316    156.0932    505.0333 307.8528358  +6.4694664     1628.623      2636.85     2495.018     78.00977     155.2795     310.7753      1.638     3.91     832.2721     54.76831     252.6726        16     1.215     0.921 -36.09   0
       317    967.2471    504.4919 307.5159844  +6.4967477     1044.417       1571.5     1652.716     77.88663     155.3413     310.8371      1.766     4.36     832.2104     54.76831     189.0732        13     1.227     0.783 -32.58   0
       318    896.1517    504.2957 307.5455180  +6.4944661     525.1755     667.0491     603.3985      77.7633     155.2795      310.868      1.320     4.21     833.3219     54.76831     119.3998         5     1.025     0.493 -62.76   0
       319    554.9240    502.9040 307.6872786  +6.4836770     2660.154     4174.292     3905.313     77.51604     155.5266     310.7753      1.653     3.33     832.1311     54.76831     414.0598        22     1.275     1.112 -72.95   0
       320    807.7065    503.6643 307.5822715  +6.4917851     878.5452     1435.012     1210.194      77.7633     155.5266     310.7444      1.633     2.69     834.1697     54.76831     160.1965         8     0.881     0.627  73.12   0
       321    929.0244    500.0888 307.5320059  +6.4972954     4399.004     6786.375     7006.131     77.88663     155.2177     310.5899      1.588     3.16     833.0721     54.76831     639.8499        29     1.279     1.184 -41.53   0
       322    602.0848    498.5617 307.6678381  +6.4870425     6416.985     9826.579     9931.094     77.88663     155.3413     310.6826      1.643     3.41     832.4354     54.76831     960.0847        31     1.300     1.161 -45.38   0
       323     89.4901    499.2652 307.8806881  +6.4696159     1191.132     1542.759     1385.507      77.7633     155.5883     310.7135      1.502     4.79     833.0875     54.76831     175.1566        12     1.110     0.886 -29.97   0
       324    501.3351    497.7757 307.7097058  +6.4840059     616.1246     1194.774     1323.304     77.51604     155.4031     310.6518      2.253     4.52      831.582     54.76831     84.52814         5     1.163     0.500  31.32   0
       325    951.7177    492.3687 307.5228385  +6.5012366     3319.037     5287.498     5294.328      77.7633     155.2177     310.6208      1.710     3.52     832.2874     54.76831     474.6069        28     1.281     1.252  48.61   0
       326    514.3557    489.8043 307.7045655  +6.4877312     7061.266     11041.12     11674.35     77.26798     155.0321     310.4045      1.674     3.27     831.2497     54.76831     1061.505        33     1.315     1.199 -60.63   0
       327    390.5195    491.1067 307.7559505  +6.4830581     738.3668     1105.654     1616.949     77.63976       155.65     310.7753      2.026     3.58     830.4658     54.76831     128.1379         7     1.071     0.577  49.83   0
       328    730.0290    490.6375 307.6149672  +6.4945772     560.3928     955.2763     532.2917     77.51603     155.1558     310.5899      1.679     4.56     833.6153     54.76831     79.50146         5     1.014     0.582 -71.35   0
       329    360.3337    489.9781 307.7685243  +6.4825151     2579.998     3891.714     4052.762     77.51603     155.4031     310.6518      1.584     3.30     829.6802     54.76831     385.3284        22     1.208     1.052 -56.66   0
       330    870.7856    485.6418 307.5566758  +6.5013235     3112.661     4886.745     5754.263     77.26798     155.2177     310.4663      1.756     3.40     832.8561     54.76831     482.1254        26     1.329     1.150 -20.72   0
       331    524.1324    486.1360 307.7006281  +6.4895718      698.671     1085.755     1368.852     77.88663     155.4031     310.7753      1.551     3.22     831.0695     54.76831     105.9061         8     0.809     0.678 -46.97   0
       332    219.1583    485.1969 307.8273131  +6.4797666     751.5185     1166.955     1214.878     77.26798      155.094     310.4354      1.509     4.64     829.6778     54.76831      111.974         8     1.078     0.566 -58.15   0
       333    878.2004    479.9785 307.5537853  +6.5039080     2036.477       3298.3     3461.868     77.51604      155.094     310.4354      1.712     3.68     832.6401     54.76831     312.1583        25     1.373     1.154 -22.46   0
       334    917.7959    479.3488 307.5373615  +6.5054843     1155.804     1697.757     1916.244     77.26798     155.1558     310.3117      1.534     4.03     832.5232     54.76831     183.9245        13     1.215     0.760 -37.64   0
       335     97.4510    478.8936 307.8780677  +6.4782922     746.7118     1209.871     1134.004     77.76329     155.2795     310.8988      2.028     4.41     832.9093     54.76831     118.2854         8     0.937     0.760  53.53   0
       336    702.1786    475.8976 307.6270268  +6.4997345      2971.42     4471.187     4179.366     77.76329     155.2177     310.5281      1.575     3.44     832.6828     54.76831     418.0685        23     1.199     1.123 -44.71   0
       337    373.0166    474.2238 307.7637859  +6.4894426     3669.451     5697.889     5546.444     77.63976     155.2795     310.6518      1.620     3.28     829.3429     54.76831      544.705        27     1.333     1.098 -73.86   0
       338     63.8300    474.9860 307.8921612  +6.4787783     1725.609     3023.147     3138.981     77.51604     155.1558     310.6518      1.752     3.91     832.8243     54.76831     267.2117        21     1.304     1.089  68.28   0
       339    413.2581    474.1915 307.7470747  +6.4908006     990.5707      1559.03     1940.485     77.26798     155.3413     310.4354      1.646     5.22     830.3262     54.76831     134.8394        13     1.311     0.949 -72.69   0
       340    600.7896    470.7637 307.6693068  +6.4984749     9721.992     14962.97     15879.16     77.39211     155.2177     310.4663      1.639     3.43     831.2192     54.76831       1567.2        41     1.382     1.227 -47.29   0
       341    763.5184    467.3246 307.6018379  +6.5053163     16098.71     24151.29        25167     78.13272       155.65     310.7753      1.655     3.20     832.7637     54.76831     2664.253        46     1.440     1.255 -55.16   2
       342    767.8278    462.2984 307.6002162  +6.5075347     1341.726     2044.896     2206.059     78.00977     155.1558     310.6826      1.616     3.53     832.5325     54.76831     216.1035        13     0.991     0.916  61.31   3
       343    283.2174    467.7031 307.8012979  +6.4891318     2556.892     4139.096     4324.226      77.7633     155.2177     310.4972      1.760     3.61     828.7849     54.76831     408.5674        22     1.294     1.093 -52.02   0
       344    792.1409    464.2313 307.5900538  +6.5075460     1192.477     1741.486     1799.575     77.63976     155.4031     310.6826      1.638     5.03     832.7479     54.76831      180.423        14     1.173     0.964 -49.22   0
       345    366.2165    464.2693 307.7669440  +6.4933247     1583.365     2523.983     2878.096     77.39211     155.2795     310.6208      1.720     4.20     828.7263     54.76831     226.1514        18     1.282     0.968 -50.26   0
       346    948.6127    462.1395 307.5251367  +6.5136128     1722.318     2562.503      2351.91     77.26798     155.2795     310.4354      1.620     3.07     831.1785     54.76831       307.42        18     1.132     1.067 -24.13   0
       347    354.9787    460.2921 307.7717445  +6.4945909     826.2574      1369.08     1825.602     77.76329     155.2177     310.5591      1.767     5.60     828.3138     54.76831     123.4592        10     1.101     0.803 -17.57   0
       348    100.9307    459.2271 307.8772844  +6.4865272     4351.873     7076.752     7599.417     77.51603     155.2795     310.6208      1.694     3.55     832.2672     54.76831     671.7183        32     1.354     1.214 -63.45   0
       349    739.0084    458.1856 307.6123230  +6.5082731      2150.56     3413.375     3391.545     77.51604     155.1558     310.5591      1.677     3.62      832.176     54.76831     319.6037        23     1.218     1.151 -74.25   0
       350   1002.9134    456.9856 307.5027558  +6.5175442     3774.563     7046.898     7251.565     77.51604     155.2177     310.5899      1.982     4.26     829.4475     54.76831     443.9495        41     1.651     1.355  22.80   0
       351    258.6627    456.3482 307.8118768  +6.4929977     1522.986     2409.691     2422.849     77.88663     155.3413     310.6826      1.693     3.95     828.6476     54.76831     252.6306        16     1.262     0.973 -46.91   0
       352    336.8835    453.9526 307.7794723  +6.4966030     2922.919     4671.415     5164.945     77.88663     155.4031     310.7444      1.719     3.53     828.0994     54.76831     470.9185        27     1.398     1.112 -25.87   0
       353    692.7599    451.9361 307.6317401  +6.5093126     1519.137     2215.048     2430.284     77.88663     155.3413     310.7753      1.607     3.85     831.2805     54.76831     223.7808        15     1.224     0.801 -62.59   0
       354    224.7796    449.6845 307.8261722  +6.4946146     844.4622     1065.906      1249.31     77.63976      155.094     310.6518      1.337     4.05     828.8516     54.76831     127.8802         8     0.897     0.673  -1.86   0
       355    435.8260    444.5244 307.7386972  +6.5038015     617.2075     720.5582     1203.008     77.51604     155.3413     310.6826      1.316     3.16     828.8112     54.76831     144.7169         5     1.102     0.263  55.22   0
       356    534.7769    444.0671 307.6976170  +6.5072937     969.7828     1627.322     1641.525     77.51603     155.3413     310.6518      1.760     3.93      828.861     54.76831     149.8272        11     1.134     0.703  33.23   0
       357    819.0935    441.6826 307.5796131  +6.5177515     1446.517     2149.703      1523.55     77.63976       155.65     310.8371      1.490     4.26     831.5667     54.76831     213.9788        14     1.158     0.852 -74.99   0
       358    456.3691    442.7180 307.7302260  +6.5052333     1320.482     2007.629     1825.109      77.7633     155.2177     310.6826      1.628     3.56     828.7195     54.76831     204.3617        13     1.108     0.828 -25.39   0
       359    804.6118    440.5869 307.5856644  +6.5177220     1882.099     2747.875     2291.216      77.7633      155.094     310.6518      1.564     3.74     831.6766     54.76831     309.4166        20     1.185     1.132 -13.71   0
       360    604.2410    440.9576 307.6688713  +6.5108945     767.7507     1013.512     1436.989     77.63976     155.4031     310.5899      1.307     3.70      829.921     54.76831      163.978         8     1.076     0.768 -37.32   0
       361    701.9395    438.9818 307.6283609  +6.5149662     14249.75     21891.08     23218.52     77.51604     155.3413     310.5281      1.601     3.39     830.6998     54.76831     2018.757        43     1.359     1.277 -69.99   0
       362    598.5327    431.5365 307.6715576  +6.5145933     5159.958     7156.795     7800.003     77.88663     155.4031     310.7444      1.518     3.16     829.4085     54.76831     799.1121        17     1.167     0.896  83.58   3
       363    594.5370    429.3874 307.6732890  +6.5153473     14482.91     22782.51      25321.2     77.39211     155.2177     310.4972      1.766     3.16     829.1838     54.76831     2445.623        52     1.683     1.364  64.12   2
       364    623.1424    435.0368 307.6612194  +6.5139689     2393.517     3793.091     4028.719     77.88663     155.4031     310.7135      1.679     3.64     829.8329     54.76831     362.3998        24     1.322     1.153 -69.63   0
       365    927.3621    428.8110 307.5350751  +6.5266655     3555.311     5492.379      5246.51     77.26798     155.2177     310.4045      1.614     3.29     830.2151     54.76831     508.3789        27     1.255     1.194 -58.86   0
       366    366.3362    424.9097 307.7682153  +6.5095768      28017.2     43992.67     46183.35     77.88663     155.5883     310.7444      1.666     3.36     826.9929     54.76831     4046.869        57     1.423     1.358 -61.48   0
       367    882.0800    423.1896 307.5540703  +6.5274809      975.921     2774.392     3239.533     77.51603     155.1558     310.5591      2.714     8.32     830.1641     54.76831     225.5652        25     2.539     0.995  50.07   0
       368    112.3883    424.3799 307.8736987  +6.5012962     2382.802     3356.888     3743.201     77.51604      155.094     310.6208      1.527     3.57     830.9883     54.76831     350.1168        18     1.106     1.001 -55.81   0
       369     45.6397    420.1771 307.9015604  +6.5007935     1379.074     2230.708     2347.794     77.51604     155.2177     310.4972      1.667     5.45     831.6763     54.76831     214.8351        13     1.384     0.719 -55.13   0
       370    896.0445    419.2843 307.5484006  +6.5295574     4942.467     7768.594     7997.456     77.88663     155.3413     310.7444      1.672     3.54      829.918     54.76831     705.3629        32     1.361     1.176 -63.09   0
       371    577.5787    420.8207 307.6806191  +6.5183182     735.4863     1002.167     1504.584     77.63976     155.3413     310.6826      1.503     4.67     828.4233     54.76831     98.16229         7     1.033     0.600 -39.42   0
       372    223.8846    415.4986 307.8276929  +6.5086968     13604.15     21314.13     22419.38     77.88663     155.8349     310.7753      1.678     3.24     828.3248     54.76831     2136.888        46     1.411     1.304 -56.25   0
       373     59.7479    409.4456 307.8960627  +6.5056966     696.7464     1230.355     1004.533     78.00977     155.3413     310.7753      1.927     4.89     831.2383     54.76831     92.57458         8     1.026     0.661 -37.97   0
       374    996.8141    408.1719 307.5069172  +6.5374933     598.5572      877.386     791.3867     77.51603     155.2177     310.6208      1.524     4.72     827.1627     54.76831     103.8851         5     1.273     0.497 -45.40   0
       375    718.8119    408.8774 307.6223602  +6.5279560     753.6564     1299.197     1669.495     77.51603     155.0321     310.5591      1.993     4.87     829.4868     54.76831     94.84021         9     1.050     0.640  62.38   0
       376    947.4762    407.5688 307.5274297  +6.5361033     961.0206     1587.762     1560.075      77.7633     155.4649     310.6826      1.772     3.58      828.704     54.76831     145.6769        10     0.959     0.830  57.67   0
       377    687.1931    407.6660 307.6355332  +6.5274028     612.3524     796.4844      967.627     77.39211     155.1558     310.5281      1.382     2.72     829.0815     54.76831      109.782         5     0.719     0.452 -13.83   0
       378    336.8302    405.2907 307.7811281  +6.5166893     1296.963      1920.87      2328.11     78.00977     155.1558     310.6826      1.695     4.11     826.3133     54.76831     169.6178        14     1.046     0.937 -73.19   0
       379    124.0763    404.1650 307.8695248  +6.5100327     4951.731     8001.441     8484.884     77.76329     155.4649     310.7135      1.704     3.37     830.0864     54.76831     710.4661        29     1.331     1.193 -42.95   0
       380    229.0804    403.1304 307.8259507  +6.5139764     1422.307     2250.377     2493.691     78.13272       155.65     310.7444      1.789     4.00     827.8812     54.76831     234.7695        16     1.184     1.040 -24.05   0
       381    170.0017    405.1635 307.8504182  +6.5111590     772.8453     1232.523     1138.217     77.01913     155.2177     310.5281      1.585     4.90     828.9569     54.76831      102.414         9     1.061     0.640 -34.61   0
       382    421.5352    402.8921 307.7460289  +6.5205105     682.6108     941.7211     908.6201     77.88663     155.5883     310.7135      1.398     5.28      826.553     54.76831     113.8871         8     1.176     0.814 -31.97   0
       383    810.2203    400.4030 307.5846778  +6.5344975     737.0476     1182.078     1009.589     77.51604     155.0321     310.4663      1.471     4.47     829.7292     54.76831     132.1999         6     0.925     0.614  62.24   0
       384    146.3685    399.9048 307.8604101  +6.5125382      2532.46      4142.32      4278.93     78.00977     155.2177     310.7753      1.790     3.87     829.4157     54.76831     347.4662        22     1.254     1.080 -71.35   0
       385    542.0495    398.9239 307.6961090  +6.5261723     1011.672     1595.896     1471.594      77.7633     155.4649     310.7135      1.613     3.60     826.7874     54.76831     181.3875        11     1.054     0.814 -64.32   0
       386    958.1224    394.7766 307.5234347  +6.5417380     709.0449     1417.136     1266.784     77.51603     155.2177     310.6518      2.027     6.63      827.813     54.76831     144.9398        10     2.080     0.593 -53.90   0
       387    369.6415    394.6275 307.7678589  +6.5221881      2041.92      3190.76     3084.558     77.51604     155.3413     310.5591      1.654     3.46      825.944     54.76831     328.0432        18     1.160     1.021 -29.65   0
       388    257.9894    394.7987 307.8142244  +6.5183833     845.5398     1101.891     1084.025     77.51604      155.094     310.5281      1.439     2.69     827.0737     54.76831     140.3203         8     0.790     0.664 -40.61   0
       389    423.4510    388.2927 307.7457230  +6.5266013     7369.476     11280.72     11773.46      77.7633     155.2795     310.8988      1.702     3.52     825.8319     54.76831     1172.324        37     1.389     1.230 -75.81   0
       390     19.9942    389.0661 307.9132585  +6.5127761     3178.315     5378.947     5946.918     77.39211     155.1558     310.5281      1.781     3.65     830.8199     54.76831     488.3127        32     1.640     1.104 -45.05   0
       391    764.0920    385.5407 307.6043338  +6.5390977     12634.25     19236.34     19681.08     77.76329     155.3413      310.868      1.636     3.29      828.986     54.76831     1905.125        40     1.355     1.245 -83.68   0
       392    756.2829    387.2289 307.6075209  +6.5381407     1751.226     2815.352     2964.361      77.7633     155.1558     310.6518      1.652     4.12     828.9863     54.76831     309.8855        18     1.263     1.032 -20.26   1
       393    327.4871    383.9468 307.7857252  +6.5251879     1153.356     1991.322     2320.767     77.88663     155.2795      310.868      1.877     3.93     825.7698     54.76831     188.3812        11     1.123     0.833 -54.96   0
       394   1007.9915    380.6593 307.5031922  +6.5492224      3335.88     5249.864     5659.285     77.26798     155.2795     310.4354      1.717     3.41     825.7479     54.76831     481.2649        27     1.334     1.165 -70.20   0
       395    172.9577    376.4859 307.8501550  +6.5230963     810.4665     1312.337     1887.869     77.88663     155.2795     310.7135      1.814     3.03     828.3638     54.76831     177.2008         8     0.884     0.788  16.61   0
       396    443.9063    372.4391 307.7377590  +6.5338292     2261.326     3374.905     3676.953     78.00977     155.3413     310.8062      1.626     4.01     825.0718     54.76831     346.4537        20     1.259     1.051 -45.56   0
       397    900.0897    372.1007 307.5482958  +6.5491704      727.587     1252.511     1484.713     77.88663     155.8349     310.6826      1.928     6.02     827.7693     54.76831     112.1208         8     1.205     0.846 -76.82   0
       398    471.6571    371.8835 307.7262517  +6.5349853     3130.112     4970.646     4902.249     77.88663     155.4031     310.8062      1.633     3.53     825.0857     54.76831     445.8711        25     1.343     1.131 -26.48   0
       399    829.4864    368.4670 307.5777428  +6.5483224     32069.99     51205.19     53982.99     77.88663       155.65     310.7444      1.763     3.48     828.0538     54.76831      4507.13        64     1.512     1.389 -78.30   0
       400   1023.4197    365.6829 307.4972834  +6.5559174     563.4281     819.3311     713.0648       70.649     126.9869      237.692      1.450     3.18     824.7208     54.76831      135.168         5     0.749     0.667 -41.41  24
       401     47.4061    364.7340 307.9026936  +6.5237397     627.3752     906.0311      955.335     77.39211     155.1558     310.5281      1.654     5.60     829.8132     54.76831     100.8526         7     1.115     0.794 -16.26   0
       402    322.2267    363.8101 307.7885861  +6.5333246     695.0619     1146.223     1092.595     77.51603     155.2177     310.5899      1.516     2.45     825.1867     54.76831     140.4215         5     0.864     0.348  44.13   0
       403    601.1898    360.8276 307.6728218  +6.5438718      2522.05     3954.743     4553.479     77.51603     155.2177     310.5899      1.715     3.93     825.6542     54.76831     402.0566        24     1.264     1.213  63.17   0
       404      9.6054    361.0142 307.9185179  +6.5240074     1029.343     1606.886     1682.472     77.51603      155.094     310.5591      1.696     3.87     829.8997     54.76831      136.525        11     1.022     0.737  21.35   0
       405    685.9379    354.4760 307.6378342  +6.5493189     78978.56     119153.1     124633.4     78.13272     155.4031     310.7135      1.629     3.14     827.6646     54.76831     13022.35        84     1.460     1.401 -45.88   0
       406    844.0604    355.9748 307.5721067  +6.5539643       1145.3     1819.287      1993.56     77.51604     155.4031     310.5899      1.634     4.20     827.3429     54.76831     181.7584        14     1.138     1.008  37.81   0
       407     65.3460    354.0891 307.8956013  +6.5287355     1361.749      2288.56     2202.584     77.88663     155.2795     310.8371      1.796     3.24     829.3274     54.76831     206.9032        16     1.129     0.888  73.52   0
       408    548.3080    351.0211 307.6951146  +6.5461562     2582.124     4015.473     4441.714     77.76329     155.2177     310.5591      1.686     3.18     825.0552     54.76831     428.7568        21     1.261     1.001 -47.46   0
       409     85.6067    350.0945 307.8873212  +6.5310637     5970.761     9709.423     10210.47     77.63976      155.094     310.5281      1.720     3.38     829.1418     54.76831     894.9559        37     1.380     1.302  88.84   0
       410    927.9443    351.2334 307.5374226  +6.5587109     826.4952     1201.768     1338.729     77.76329     155.4031     310.7135      1.456     2.58     826.7761     54.76831     145.1334         7     0.741     0.613  12.73   0
       411    376.1903    351.3406 307.7665918  +6.5402763     500.4742     550.6077     498.1639     77.26798     155.2795     310.4354      1.216     2.42     824.4293     54.76831     107.6451         5     0.712     0.450  15.76   0
       412    531.6477    347.3930 307.7021561  +6.5470980      7076.84     10683.75     11209.84     77.39211     155.2177     310.3426      1.648     3.35      824.673     54.76831     1183.938        35     1.311     1.234 -54.15   0
       413    260.7239    345.0141 307.8147615  +6.5390263     2468.325     3825.603     2836.714     77.39211     155.1558     310.5281      1.588     3.44     825.5655     54.76831     382.7836        22     1.182     1.141  77.26   0
       414    394.5890    342.6112 307.7592431  +6.5444948     25779.44     39909.68     41920.02     77.63976     155.2177     310.7135      1.686     3.33     824.0623     54.76831     4166.546        56     1.418     1.372 -61.00   0
       415    573.7231    341.9454 307.6848625  +6.5507507     611.5613     943.5317     1017.209     78.00977     155.4031     310.7135      1.486     4.08     824.6516     54.76831     100.0225         5     0.817     0.581   6.95   0
       416    502.1699    341.1036 307.7146104  +6.5487105     1295.102     1976.655     1513.728     78.00977     155.1558     310.7444      1.501     3.33     824.0187     54.76831     220.3115        14     1.047     0.945  -1.93   0
       417    374.4854    340.6845 307.7676576  +6.5446183      1192.62     1709.226     2183.043     77.63976     155.5266     310.7444      1.469     3.90     824.1722     54.76831     207.8689        13     1.306     0.733 -52.40   0
       418    473.7720    337.8033 307.7265161  +6.5491247     1203.519     1904.744     1681.157     77.39211     155.1558     310.5591      1.750     4.16     823.6646     54.76831     177.2388        13     1.110     0.850 -62.16   0
       419    483.6166    333.0182 307.7225876  +6.5514288     8509.268     12959.21     13598.08     77.63976      155.094     310.6518      1.636     3.31     823.5204     54.76831     1319.366        38     1.400     1.210 -71.11   0
       420    372.3076    335.1545 307.7687478  +6.5468284     694.6093      1118.37     1493.483     77.88663     155.3413     310.8371      1.579     3.68     824.0231     54.76831     139.5434         8     1.112     0.572 -44.20   0
       421    789.1497    334.6029 307.5956288  +6.5609600     818.8739     1097.754     923.2204     77.26798      155.094     310.3117      1.268     2.35     826.8958     54.76831     149.6462         6     0.758     0.481   8.55   0
       422    752.8722    331.6559 307.6107957  +6.5609689     3000.799     4614.269     4893.104     77.76329     155.3413     310.6826      1.642     3.34      826.772     54.76831     468.7069        23     1.194     1.107  61.78   0
       423    701.1047    331.3593 307.6323080  +6.5593672     703.5157     1228.987     1137.599     77.88663     155.3413     310.8371      2.057     6.20     826.3572     54.76831     105.8529         9     1.193     0.906  84.81   0
       424    908.7348    331.5402 307.5460591  +6.5662022     896.2589     1166.468     576.8126     78.00977     155.3413     310.7444      1.271     4.35     826.1996     54.76831     152.0294         9     1.080     0.812  20.60   0
       425    310.2224    329.7755 307.7947149  +6.5469729     1011.246      1513.48     1105.346     77.39211     155.2177     310.6826      1.595     4.06     824.6115     54.76831     151.4234        10     1.122     0.762 -54.80   0
       426    869.0168    327.7891 307.5626821  +6.5664301     476.4875     759.4482     560.3569     77.63976      155.094     310.6208      1.540     3.92     826.1987     54.76831     70.09906         5     0.848     0.518 -58.34   0
       427    246.1401    323.6995 307.8215350  +6.5473370     751.3185     1132.391     1128.503     77.63976     155.3413     310.8371      1.526     5.29     825.5396     54.76831     121.4452        10     1.257     0.628  72.46   0
       428    145.7370    323.1756 307.8632535  +6.5441911     1190.792     1801.771     1838.344     77.51604     155.4031     310.6518      1.597     4.96      828.325     54.76831     160.0208        13     1.160     0.887  56.54   0
       429    662.0693    318.4069 307.6489553  +6.5634135     422.6567     517.4786     815.6461     77.39211     155.0321     310.6208      1.278     4.15     824.8665     54.76831     80.10547         5     1.060     0.464 -62.56   0
       430    373.5767    317.2214 307.7688226  +6.5542737     7516.439     11819.09        12433     77.63976     155.2177     310.6826      1.688     3.27     823.5159     54.76831     1202.815        37     1.328     1.294 -70.81   0
       431    229.3936    317.8111 307.8286884  +6.5492072     2007.412      3266.87     3558.536     77.51604     155.2177     310.6208      1.760     3.36     825.6839     54.76831     323.8913        18     1.171     0.947 -50.49   0
       432    727.1835    316.7323 307.6219651  +6.5662742     1034.028     1394.741     1464.749     77.39211     155.3413     310.6208      1.467     3.38     825.9833     54.76831     178.2562        11     1.030     0.775 -67.93   0
       433    741.4061    313.0288 307.6161813  +6.5682767     53463.78     81211.43     84941.24     77.39211     155.2177     310.5281      1.622     3.20     825.9881     54.76831      8532.48        67     1.401     1.343 -51.87   0
       434    412.9763    312.3717 307.7526207  +6.5575925     2366.247     3407.781     3730.917     77.39211     155.2795     310.5591      1.523     3.15     823.1214     54.76831     389.1243        18     1.122     0.944  -7.89   0
       435    976.1354    310.0548 307.5187796  +6.5773117     1541.936     2579.967     2381.329     78.00977     155.3413     310.6826      1.747     4.02     824.2259     54.76831      210.184        19     1.236     1.024 -24.40   0
       436    559.3886    310.0214 307.6918860  +6.5634512     1263.519     2014.774     1775.164     77.51603     155.1558     310.5899      1.698     3.50     823.0864     54.76831     197.6412        15     1.130     0.875 -55.15   0
       437    449.9977    308.9833 307.7373574  +6.5602280      1116.88     1816.456     2435.195     77.51604     154.9701     310.5281      1.985     6.42     822.8531     54.76831     161.9897        16     1.558     0.863 -72.22   0
       438    917.1373    309.1901 307.5433151  +6.5757081     2199.255     3362.285     3315.042     77.39211     155.2177     310.5281      1.575     3.58     825.4148     54.76831     357.6288        19     1.257     0.929 -57.25   0
       439    399.6166    308.1235 307.7583122  +6.5588997     2094.999     3180.477     3699.021     77.39211     155.1558     310.5899      1.729     3.54     823.1021     54.76831     346.5685        19     1.209     0.969 -71.02   0
       440    733.1449    306.6009 307.6198278  +6.5706552     322.8319      542.679      1406.95     77.26798     155.1558     310.3426      2.551     4.16     825.6537     54.76831     83.32739         5     0.911     0.543  48.30   0
       441    821.2348    302.3624 307.5833791  +6.5753373     1060.018     1492.797     1652.441     77.63976     155.2177     310.4972      1.500     3.38      825.493     54.76831     159.1032        12     1.018     0.844  76.28   0
       442    450.1332    303.1346 307.7374972  +6.5626470     932.0315     1461.103     1520.423     77.88663     155.4031     310.7444      1.641     3.50     822.6767     54.76831     139.7436         8     0.908     0.717 -23.46   0
       443    176.1256    299.4937 307.8514286  +6.5549851     2349.282     3653.393     3460.363     77.76329     155.5266     310.6826      1.585     3.23     827.4575     54.76831      338.082        21     1.136     1.101  -4.04   0
       444    739.9181    297.5254 307.6173179  +6.5746273     5996.814     9090.628     9767.575     78.13272     155.7116     310.7753      1.630     3.10     825.3691     54.76831     997.8599        33     1.310     1.219 -56.81   0
       445    430.4677    299.4388 307.7457895  +6.5635157     1064.541     1716.005     1531.089      77.7633     155.3413     310.8062      1.745     3.17     822.6818     54.76831     169.2071        11     0.984     0.776 -49.40   0
       446    211.4014    297.6491 307.8368391  +6.5569278      648.086     828.5769     1155.488     77.26798     155.0321     310.2808      1.448     4.77     825.9236     54.76831     110.3285         7     1.059     0.609 -61.88   0
       447     72.2655    296.9045 307.8946527  +6.5525733     989.2635     1592.328     1792.137     77.88663     155.5266     310.7444      1.775     5.01      828.796     54.76831     171.7382        13     1.259     0.958 -24.89   0
       448    756.2440    295.5499 307.6106025  +6.5759864     2594.939     3915.679     4462.819     78.00977     155.2795     310.7444      1.656     3.42     825.2866     54.76831     465.8884        19     1.133     1.052 -16.48   0
       449    330.3530    296.7571 307.7874626  +6.5612765     684.5074     821.1797      507.737     77.88663     155.4031     310.6518      1.355     3.58     823.6781     54.76831     97.11261         6     0.716     0.653  -3.46   0
       450    345.6794    290.2330 307.7813158  +6.5644821     1874.675     3685.424     3886.802      77.7633     155.4031     310.7135      2.139     6.25     823.0928     54.76831     243.1262        30     1.874     1.155   0.84   0
       451     59.5904    290.5659 307.9001306  +6.5547649     1220.399     1879.698     2039.328     77.39211     155.2177     310.5591      1.630     3.45     828.8742     54.76831     160.4553        14     1.080     0.882  50.18   0
       452    994.4489    286.4262 307.5119608  +6.5876745     5541.331     8741.579     9353.024     77.51604     155.4031     310.6208      1.741     3.26     823.1022     54.76831     876.9648        32     1.313     1.253 -86.66   0
       453    472.5449    286.1099 307.7287593  +6.5704235     2086.916     3108.838     2869.153     77.76329     155.2177     310.8371      1.605     3.68     822.0067     54.76831     336.9035        17     1.155     0.968 -41.83   0
       454    235.1086    282.0909 307.8275154  +6.5641440     5656.474     8861.363     9541.799     77.88663     155.8965     310.8062      1.642     3.31     825.0109     54.76831     830.3306        34     1.333     1.233 -59.17   0
       455    927.1060    276.0720 307.5402799  +6.5897114     517.6602     680.0542     254.0974      77.7633     155.4649     310.7753      1.352     3.93     824.2032     54.76831     87.96783         5     0.823     0.539 -30.56   0
       456    754.7546    275.0109 307.6119081  +6.5844157     769.7491     1300.929     1696.106     77.39211     155.2795     310.4354      1.672     3.08     824.4625     54.76831     156.5871         7     0.835     0.677  17.97   0
       457    369.2971    272.8518 307.7720895  +6.5724469     1740.886     2947.572     2785.432      77.7633     155.4031     310.9297      1.750     4.03     822.6273     54.76831     254.1467        20     1.305     1.046 -53.87   0
       458    212.0455    274.1313 307.8373623  +6.5666577     557.8314     839.5989       1380.5     77.88663     155.3413     310.7135      1.410     3.73     825.5928     54.76831     117.2061         5     0.683     0.586 -87.23   0
       459    956.3806    271.5949 307.5282689  +6.5925325     974.4437     1514.562     1469.178     77.51604     155.0321     310.5281      1.612     4.40     823.5253     54.76831     168.6797        11     1.095     0.857 -65.70   0
       460    139.1226    268.6555 307.8678350  +6.5664755     1791.903     2798.766     3115.776     77.88663     155.4031     310.7135      1.685     3.90     827.6998     54.76831     275.9612        19     1.231     1.077  84.09   0
       461    176.1686    269.5393 307.8524182  +6.5673517      540.473     700.1557     875.9433     77.63976     155.4649     310.6518      1.301     5.03      826.851     54.76831     90.35852         7     1.159     0.617  40.81   0
       462    291.5847    268.4484 307.8045162  +6.5716657     1201.288     1605.671     1419.294     77.26798     155.3413     310.4663      1.446     3.46      824.019     54.76831     214.9753        15     1.050     1.009 -16.15   0
       463    548.5504    264.2959 307.6979200  +6.5819657     2124.151     3642.781     3843.704      77.7633     155.3413      310.868      1.824     3.75     821.1089     54.76831     352.0511        25     1.327     1.255  -1.75   0
       464    892.2745    263.2310 307.5551774  +6.5938545     1578.999     2634.644     2948.883      77.7633     155.4031     310.7135      1.877     4.24     823.8663     54.76831      248.048        17     1.191     1.040  37.44   0
       465    830.9089    263.8464 307.5806477  +6.5915594     509.7612      780.473     168.5672     77.88663     155.3413     310.8371      1.867     5.42     824.0492     54.76831     88.56311         6     1.383     0.600  11.77   0
       466    712.3068    261.7828 307.6299828  +6.5884628     5108.429     7567.807     8439.803     77.63976     155.2177     310.5899      1.601     3.20     823.3237     54.76831     712.0572        29     1.230     1.195  13.20   0
       467    653.1407    261.7077 307.6545619  +6.5865223     2326.967     3375.608     3504.023      77.7633     155.3413     310.8371      1.526     3.86     822.1125     54.76831     361.6551        22     1.359     0.952 -47.77   0
       468    950.3585    261.6150 307.5311036  +6.5964524     684.5934     746.7686     256.6491     77.39211     155.2177     310.4663      1.334     4.44     823.3079     54.76831     93.27448         6     1.030     0.545 -35.64   0
       469    908.3582    253.9847 307.5488051  +6.5982063     1006.224     1680.121     1869.754     77.39211     155.1558     310.4972      1.901     4.27     823.4418     54.76831     152.8973        12     1.244     0.827 -29.12   0
       470    211.5577    247.0794 307.8384744  +6.5778084     2285.203     3543.947     3638.328     77.88663     155.4031     310.6826      1.681     3.73     825.3617     54.76831     339.9102        22     1.275     1.059 -16.91   0
       471    854.5214    246.0707 307.5714331  +6.5996831     1712.282     2610.317     2591.183     78.13272       155.65     310.6826      1.598     3.30     823.3474     54.76831     269.0872        17     1.185     0.890 -73.74   0
       472    744.8496    245.5134 307.6170090  +6.5962630     1573.091     2161.873     2410.229     77.88663     155.2795     310.8062      1.529     3.76     823.3458     54.76831     249.5803        15     1.200     0.848 -49.44   0
       473    565.2086    241.4349 307.6917666  +6.5919588     567.6967     942.6761     846.0579     77.39211     155.2177     310.5281      1.686     3.36     820.4937     54.76831     102.1298         6     0.912     0.652 -78.16   0
       474    445.6518    236.9483 307.7415788  +6.5898197     22889.93     35031.27     36680.82     78.00977     155.2795     310.7135      1.641     3.26     820.9538     54.76831     3355.817        55     1.429     1.341 -45.27   2
       475    451.6833    230.9761 307.7392738  +6.5924866     1342.232     1952.609     2464.577     77.76329     155.1558     310.6518      1.532     3.26     820.6952     54.76831     234.7109        14     1.075     0.886  29.28   2
       476    233.8459    240.2109 307.8294477  +6.5813900     619.9363     733.8989     528.5751     77.39211     155.2177     310.4044      1.282     2.60     824.7999     54.76831     116.4323         6     0.752     0.535 -48.14   0
       477    771.6400    236.0276 307.6061976  +6.6010710      12943.7     20094.83     21970.34     77.51603     155.2177     310.5899      1.681     3.22     822.9878     54.76831     2144.934        56     1.625     1.350 -18.25   0
       478    710.2586    230.9921 307.6318637  +6.6011056     744.8608     1080.072     1025.875     77.26798     155.2795     310.4972      1.643     2.87     822.2287     54.76831     120.2393         6     0.861     0.470  54.04   0
       479    108.6115    229.3915 307.8818292  +6.5816611     1019.203     1799.936     1997.172     77.51604     155.2177     310.6518      2.009     5.72     827.7361     54.76831     142.7834        12     1.267     0.727 -48.14   0
       480    133.8252    230.1987 307.8713293  +6.5821730     2334.279     3804.883     4388.367     77.51603      155.094     310.4972      1.761     3.47     826.8787     54.76831     376.1864        24     1.293     1.188  53.76   0
       481    908.2743    226.5125 307.5497573  +6.6095447     1395.112     2053.976     2316.759     77.88663     155.7116     310.7753      1.657     3.40     822.3969     54.76831     234.9337        15     1.032     1.015  43.85   0
       482    290.2026    223.8845 307.8065875  +6.5900157     1089.656     1601.262      1495.58     77.26798     155.0321     310.4354      1.589     4.76     822.8684     54.76831     157.7943        13     1.224     0.785 -50.77   0
       483    569.7911    222.5883 307.6904945  +6.5998919     4733.314       7138.5     7390.782     77.63976     155.2177     310.6518      1.614     3.31     820.0408     54.76831      795.298        28     1.287     1.150 -88.42   0
       484    532.2807    222.5406 307.7060776  +6.5986599     2230.022      3080.63     3333.098     78.00977     155.4031     310.7135      1.529     3.69     819.6406     54.76831     380.6781        19     1.303     0.896 -45.98   0
       485    374.2083    221.9774 307.7717574  +6.5936124     1554.727     2295.252     1702.037     77.51604     155.2177     310.5281      1.528     4.36     822.0217     54.76831     217.7345        15     1.241     0.888 -43.74   0
       486    930.6895    219.7019 307.5406733  +6.6131013     2616.197     3944.543     3592.422     77.88663     155.8349     310.7135      1.610     3.57     821.8925     54.76831     356.7154        23     1.267     1.056 -50.49   0
       487    876.8201    219.2170 307.5630673  +6.6115105     10824.38     16733.08     17660.24     77.63976     155.2177     310.6208      1.652     3.34     822.0673     54.76831      1723.68        41     1.328     1.294 -24.80   0
       488    304.5505    219.6969 307.8007684  +6.5922244     1034.137     1504.332     1634.917      77.7633     155.3413      310.868      1.589     3.50     822.7772     54.76831     170.5097        12     1.026     0.913 -26.25   0
       489    196.1582    219.7098 307.8457912  +6.5885910      764.993     1278.223     992.6604     77.88663     155.4031     310.7444      1.780     4.20     825.3259     54.76831     145.3259         7     0.880     0.717 -54.02   0
       490    963.4119    217.0449 307.5271687  +6.6152857     9415.182     14795.78     15736.52     77.39211     155.2795     310.4354      1.652     3.30     821.6277     54.76831     1399.234        38     1.363     1.260 -50.00   0
       491    674.7172    216.9577 307.6470972  +6.6057150     2896.924     4460.987     4657.014     77.88663     155.4031     310.6518      1.649     3.67     821.1266     54.76831      416.622        23     1.219     1.142  70.11   0
       492    552.1536    218.8824 307.6979452  +6.6008332      961.817     1606.128      1527.12     77.88663     155.4031     310.7135      1.697     3.05     819.6662     54.76831      151.244        10     0.900     0.734   3.10   0
       493      3.0216    215.9492 307.9261395  +6.5836688      24584.4     37855.47     39269.08     77.39211     145.3828      259.433      1.606     3.40     829.7535     54.76831     3400.016        48     1.386     1.302 -80.17  24
       494    249.3443    216.9150 307.8237932  +6.5915254       1037.2     1549.819     1413.367     77.88663     155.4031     310.8371      1.670     4.81     824.2243     54.76831      145.382        14     1.230     0.920  71.03   0
       495    483.1586    212.0576 307.7268339  +6.6013475     1960.854     2971.857     3181.558     77.88663     155.4031     310.7444      1.614     3.91     819.8494     54.76831     283.5947        18     1.230     1.015 -34.62   0
       496    815.2844    208.6240 307.5889837  +6.6138364     1910.379     3073.112     3012.265      77.7633     155.1558     310.6826      1.775     3.72     821.6984     54.76831     300.4092        19     1.254     0.999 -67.45   0
       497    867.5539    207.5347 307.5673068  +6.6160250      1862.84     2967.557     3136.367     77.88663     155.3413     310.7135      1.744     3.31     821.3596     54.76831     346.1022        21     1.383     1.088  66.91   0
       498    495.4717    207.8474 307.7218604  +6.6034967     2515.664     3696.046     3574.337     77.88663     155.4649     310.7135      1.541     3.36     819.7462     54.76831     374.7031        19     1.152     1.012 -76.96   0
       499    726.9216    205.1830 307.6258054  +6.6123150     39323.14     60734.68     63397.69     77.51603     155.1558     310.6208      1.637     3.34     821.4024     54.76831     6117.259        65     1.421     1.352 -59.42   0
       500    329.9627    204.7185 307.7907158  +6.5992576     5839.187     12045.05     12727.82     77.88663     155.4649     310.6826      2.159     6.09     822.4808     54.76831     794.5917        48     2.010     1.230 -71.44   0
       501    960.8040    204.0420 307.5286861  +6.6205669     2630.486     4162.138     4998.074     77.26798      155.094     310.4663      1.757     3.81     821.0192     54.76831       353.83        26     1.317     1.182  61.15   0
       502    999.1639    202.8075 307.5127919  +6.6223508     1627.296     2533.154     2402.001     77.26798     155.2177     310.4663      1.660     3.85     821.1475     54.76831     240.4905        18     1.245     0.975 -70.23   0
       503    894.8177    202.2399 307.5561579  +6.6191175     7385.617     11284.54     11207.13     77.51604     155.2177     310.4972      1.627     3.23     820.8672     54.76831     1189.369        34     1.287     1.250 -77.33   0
       504    438.4510    201.3674 307.7457636  +6.6042673     4991.429     7764.715     7657.525      77.7633     155.4649     310.6518      1.688     3.38     820.4096     54.76831     781.0703        32     1.343     1.248   8.36   0
       505    213.3470    197.6622 307.8393929  +6.5982679     559.0134     732.6712     566.5464     77.88663     155.3413     310.6826      1.334     5.38     825.0747     54.76831     101.2907         8     1.266     0.644   7.44   0
       506     95.7176    192.8327 307.8884156  +6.5963203     4764.425     7687.962     7714.356     77.88663     155.3413     310.6518      1.707     3.24     826.9825     54.76831     758.0122        33     1.363     1.224 -42.56   0
       507    241.3259    190.5072 307.8280115  +6.6021582     6523.853     10088.54     10686.73     77.88663     155.5266     310.6826      1.699     3.19     824.4962     54.76831     998.2086        34     1.369     1.266 -33.50   0
       508    915.1195    191.4610 307.5480842  +6.6242422     957.9962      1470.88     1566.075     78.00977     155.4031     310.6826      1.904     4.56     820.0965     54.76831     145.5421        14     1.105     1.040  34.52   0
       509    266.0103    189.4284 307.8177943  +6.6034298     34005.89     52450.77     55133.41     77.51603     155.2177     310.5591      1.659     3.27     823.7338     54.76831     5050.035        62     1.410     1.390 -58.53   0
       510    695.3608    188.6703 307.6394685  +6.6180804     954.7394     1397.635     1836.983      77.7633     155.4031     310.7753      1.594     3.62     820.4093     54.76831     140.5142         8     0.918     0.613  86.37   0
       511    390.0639    184.9404 307.7664146  +6.6094316     49910.06     77627.15     81101.97     78.00977     155.3413     310.7444      1.637     3.32     821.0654     54.76831     6727.667        69     1.437     1.379 -45.74   0
       512    146.0755    186.3158 307.8677176  +6.6006983     3926.225     6366.343     6578.657     78.00977     155.7116     310.7753      1.709     3.67     825.6021     54.76831     540.9374        31     1.351     1.233 -64.58   0
       513    407.3206    185.4825 307.7592280  +6.6097846     1381.071      2318.62     2353.919     78.00977       155.65     310.8371      1.832     4.45     820.6732     54.76831     231.7822        18     1.358     0.918 -49.65   0
       514    294.0536    182.5809 307.8063756  +6.6071949     18420.44     28577.19     30479.86     77.39211     155.4031     310.5281      1.660     3.32     822.9673     54.76831     2661.662        51     1.394     1.324 -47.80   2
       515    301.4490    182.4438 307.8033083  +6.6074989     2175.385      3750.32     4791.456     77.88663     155.3413     310.7135      2.017     4.02     822.8404     54.76831     315.6142        19     1.214     1.096 -42.61   3
       516    677.7231    182.6849 307.6469957  +6.6199635     981.4289     1564.678     1299.449     78.00977     155.7116     310.8062      1.733     3.28     820.0901     54.76831     144.6401         9     0.899     0.773 -38.25   0
       517    777.8921    181.5598 307.6054218  +6.6237644      1204.21     1658.239     1817.516     78.00977     155.3413     310.7753      1.445     3.38     820.3681     54.76831     238.3307        13     1.123     0.875 -43.24   0
       518     16.8042    181.3178 307.9215816  +6.5984269     612.8438       857.14     1192.649     77.39211     155.0321     310.4354      1.611     4.17     829.6986     54.76831     83.93976         7     0.857     0.608  31.86   0
       519     46.1248    178.3888 307.9095014  +6.6006196     9067.797     14312.81      14943.5     77.51604      155.094     310.5281      1.681     3.39     828.5127     54.76831     1338.487        35     1.330     1.266 -26.18   0
       520    729.3318    181.0977 307.6256100  +6.6223381     32984.93     50339.01      52739.6     77.88663     155.5266     310.6826      1.625     3.22     820.2834     54.76831     5330.035        60     1.391     1.360 -71.56   0
       521     80.1814    176.5110 307.8954184  +6.6025369     1361.966     2285.568     2164.641     77.63976     155.1558     310.6208      1.803     4.23     827.0708     54.76831     170.9812        16     1.141     1.028 -21.70   0
       522    987.7794    175.0740 307.5184467  +6.6334217      986.354     1515.715     1681.364     77.51603     155.2795     310.6518      1.576     4.00     820.1562     54.76831     162.0708        11     1.028     0.901  47.22   0
       523    714.2775    168.7988 307.6322752  +6.6269139     576.1835     941.0719     947.7988     77.14365     154.8462     310.5281      1.369     3.60     819.6915     54.76831     130.0804         5     0.837     0.489 -42.53   0
       524    563.2418    165.6696 307.6951224  +6.6231701     803.6946     1293.866     1152.513      77.7633     155.4031     310.7753      1.744     6.82     819.3768     54.76831     105.0674        13     1.222     1.068 -47.41   0
       525    988.8713    161.6629 307.5184406  +6.6389944     2032.927     3440.628     4436.913     77.88663     155.4031     310.7753      1.938     3.86     819.7448     54.76831     318.5322        21     1.268     1.079 -32.98   0
       526    571.8439    159.3532 307.6917606  +6.6260646     1013.126     1344.219     1260.304     77.88663     155.3413     310.6826      1.511     4.49      819.287     54.76831     143.0269        12     1.054     0.818 -47.38   0
       527    580.1591    157.5557 307.6883667  +6.6270840     1958.515     3005.732     3176.103     77.63976     155.4031     310.5591      1.609     3.38     819.2714     54.76831      319.002        18     1.191     0.982 -64.21   0
       528    264.8937    155.6771 307.8193925  +6.6173251     30810.99      47941.7     50405.51     77.63976     155.5883     310.7444      1.644     3.26     823.8304     54.76831     4632.109        61     1.422     1.365 -34.02   0
       529    324.4612    157.4281 307.7945895  +6.6185953     1039.894     1556.279     1388.668     77.51604     155.4031     310.6518      1.601     6.13      822.296     54.76831     139.8576        14     1.361     0.841 -39.95   0
       530     10.1530    154.2092 307.9252577  +6.6093940     4394.161     6746.414     6959.414     77.39211     155.3413     310.3735      1.648     3.41     830.1601     54.76831     625.7455        28     1.246     1.165 -60.73   0
       531    696.5707    152.2180 307.6401858  +6.6331687      8202.73     12271.14     12882.35     77.51604     155.2177     310.6518      1.610     3.26     819.1342     54.76831     1376.233        36     1.285     1.273 -80.31   0
       532    174.2098    153.2481 307.8571436  +6.6152912     893.9446     1340.033     1613.208     77.39211     155.2177     310.4045      1.613     3.23     824.7924     54.76831     156.2832         8     0.898     0.663 -61.51   0
       533    107.3615    149.4623 307.8850390  +6.6146138     4922.213     7861.485     8052.954     77.88663     155.4031     310.7444      1.725     3.40     825.3958     54.76831     722.1139        34     1.359     1.226 -79.51   0
       534    251.1867    150.3942 307.8252639  +6.6190470     850.3762     1329.529     944.3651     77.51604     155.2177     310.5899      1.507     4.02     824.2182     54.76831     128.9491         9     1.075     0.692 -53.50   0
       535    569.2247    147.5051 307.6932457  +6.6308683     796.3514     1315.329     1726.827     78.00977     155.1558     310.5899      2.131     5.96     818.9734     54.76831     113.8196        10     1.097     0.912 -26.89   0
       536    446.5352    146.4952 307.7442465  +6.6271891     1420.132     2172.146      2492.36     77.88663     155.5266     310.7444      1.708     4.14     819.4377     54.76831     212.4736        15     1.235     0.960  79.08   0
       537    377.9722    145.4867 307.7727620  +6.6253142     3949.913     6440.916     6888.679     78.00977     155.1558     310.5899      1.769     3.55     820.9604     54.76831     529.7128        29     1.322     1.189  82.50   0
       538    635.0754    145.9231 307.6659431  +6.6337176     930.5329     1456.598     1376.681     78.13272       155.65     310.7753      1.612     4.04     819.0027     54.76831     127.8105         9     0.919     0.783 -80.35   0
       539    342.4653    144.2446 307.7875534  +6.6246397     3348.021     5184.968     5364.471     77.88663     155.3413     310.7135      1.662     3.41     821.8895     54.76831     502.3436        30     1.388     1.143 -17.79   0
       540     96.9151    144.1423 307.8895573  +6.6164597     1690.014     2838.962      3192.41     77.88663     155.4031     310.8371      1.817     4.31      825.439     54.76831     254.0698        17     1.139     1.086  73.54   0
       541    555.3555    143.9524 307.6991263  +6.6318721     754.0087      1043.09     1049.625     77.88663     155.3413     310.6518      1.574     4.57      818.829     54.76831     118.4476         7     0.968     0.613 -38.47   0
       542    658.6472    142.1243 307.6562781  +6.6360716     781.3459     1124.706     1158.997     77.76329     155.4649     310.7135      1.508     3.82     818.8964     54.76831      132.237         8     1.041     0.552 -66.26   0
       543    989.5166    138.0815 307.5189594  +6.6487507     1474.469     2207.848     2119.996     77.63976       155.65     310.7753      1.557     4.09     818.7416     54.76831     237.8607        19     1.306     1.061  88.17   0
       544    194.3440    133.3069 307.8494508  +6.6241974     5526.125     8625.687     8867.854      77.7633     155.4031     310.8988      1.685     3.48     824.5948     54.76831     840.3652        33     1.336     1.213 -84.03   0
       545     76.9219    133.1406 307.8982327  +6.6203308     2048.847     3537.388     4280.144     78.00977     155.4031     310.6826      2.013     3.49     826.3441     54.76831     318.8431        22     1.216     1.176 -75.73   0
       546    656.1180    131.9776 307.6576684  +6.6401761     6099.304     9355.531     9275.006     77.63976      155.094     310.6518      1.599     3.25     818.6349     54.76831      900.489        30     1.341     1.148 -49.54   0
       547    804.5165    131.7224 307.5960277  +6.6452244     1105.232     1638.266     1209.569     78.00977     155.7116     310.8062      1.555     4.06     818.3103     54.76831     177.4667        12     1.103     1.044 -27.28   0
       548    608.2813    129.3610 307.6776287  +6.6396612     9249.269     14339.84     15758.67     77.88663     155.4649     310.6518      1.690     3.30       818.56     54.76831     1494.001        38     1.351     1.257 -39.44   3
       549    611.8089    120.7928 307.6764503  +6.6433159     53599.59     82129.59     86255.48     77.26798     155.2177     310.5591      1.607     3.20     818.3549     54.76831     8654.597        77     1.444     1.374 -64.08   2
       550    243.1033    129.6398 307.8293195  +6.6273439     772.5471     1146.999     493.1518     77.88663     155.2795     310.8988      1.614     3.57     824.4243     54.76831     110.5009         7     0.752     0.666 -15.12   0
       551      7.0502    128.4709 307.9274138  +6.6199144     884.4217     1603.694     1279.335     77.88663     155.4031     303.6516      1.934     5.42     830.2197     54.76831     153.0562        11     1.628     0.639 -53.87  16
       552    546.2808    128.8990 307.7034007  +6.6377834     657.2803     897.6322     942.7675      77.7633     155.8349     310.8062      1.465     3.96     818.3683     54.76831     122.5997         6     0.967     0.465 -53.44   0
       553    335.3761    125.0359 307.7911435  +6.6323320     3674.899      5915.31      6633.97     77.51603     155.2177     310.4972      1.715     3.13     822.1062     54.76831     605.9384        32     1.516     1.170 -41.64   0
       554    981.8684    124.0452 307.5226052  +6.6542911     737.3582     1022.352      606.394     77.88663     155.3413     310.7135      1.461     4.45      818.044     54.76831     105.5803         9     1.014     0.647 -58.66   0
       555    517.3533    124.1933 307.7155755  +6.6387605     1778.129     2705.168     2895.758     77.39211     155.2177     310.3735      1.631     3.17       818.23     54.76831     295.6763        15     1.036     0.940  56.22   0
       556    290.9153    114.4578 307.8099684  +6.6352113     3595.516     5937.056     6767.341     77.88663     155.4031     310.8062      1.813     3.55     823.1305     54.76831      550.094        32     1.462     1.239 -65.58   0
       557    690.8515    109.1197 307.6440043  +6.6507697     890.0463     1567.199     1422.899     77.88663     155.4031     310.7135      1.777     5.58     818.0252     54.76831     105.5364         9     1.289     0.682 -69.41   0
       558    662.2618    107.5829 307.6559329  +6.6504513     1223.189     1973.246     1604.178     77.39211     155.3413     310.5281      1.672     4.24     818.0054     54.76831     218.2317        14     1.178     1.090 -67.16   0
       559    676.2859    104.7703 307.6502010  +6.6520798     3102.774     4845.365     4265.041     78.00977     155.1558     310.5899      1.643     3.18     817.9236     54.76831     465.9221        25     1.265     1.152 -72.58   0
       560    417.9723     95.7756 307.7578140  +6.6471722     4195.901     6441.847     6260.699     77.39211     155.2177     310.5591      1.576     3.33     819.6763     54.76831     640.7986        24     1.219     1.089 -62.33   0
       561    872.5434     91.8660 307.5690986  +6.6639412     2140.907     3318.656     3714.406     78.00977     155.3413     310.7135      1.696     3.26     816.7994     54.76831     319.2307        21     1.207     1.054 -43.97   0
       562    890.5803     91.1984 307.5616274  +6.6648166     3827.382     5822.807     6095.332     77.51604     154.9701     310.4354      1.655     3.52     816.7642     54.76831     605.2111        25     1.201     1.188  25.14   0
       563      1.7855     91.3008 307.9308533  +6.6350813     514.9578     1436.036     3012.136     73.05363     129.9753     240.8212      6.195     8.11     829.7781     54.76831     91.28589        12     1.835     1.003  88.51  24
       564    582.4151     89.6102 307.6897061  +6.6552079     1664.323     2445.778     2392.019     77.63976     155.1558     310.6208      1.612     3.51     817.4232     54.76831     291.3047        17     1.132     1.035 -69.43   0
       565    571.0729     90.9697 307.6943725  +6.6542683     700.7838     887.3138     911.1218      77.7633     155.4031     310.7135      1.206     2.33     817.4141     54.76831     143.6417         5     0.620     0.568  87.92   0
       566    381.4918     87.5909 307.7732437  +6.6493315     1957.799     2954.151     2891.892     77.51604      155.094     310.4663      1.591     3.30     820.9216     54.76831     299.8418        17     1.156     0.953 -49.38   0
       567    228.4394     88.7955 307.8367843  +6.6437135     668.7398     893.6542     822.8787     77.01913     155.1558     310.4045      1.400     4.33     824.5923     54.76831      108.493         7     1.077     0.495 -42.52   0
       568     71.9303     89.1241 307.9017886  +6.6383331     510.6949     609.5121     723.1379     78.00977     155.5266     310.7135      1.218     4.39     825.6525     54.76831     98.91492         5     0.849     0.646 -40.48   0
       569    129.2139     84.5809 307.8781456  +6.6421291     2967.462     4857.958     4659.458     77.63976     155.1558     310.6208      1.741     3.53     823.6142     54.76831     413.7156        27     1.302     1.211 -81.48   0
       570     11.0990     82.3885 307.9272849  +6.6390727     12235.49     19174.49     20783.71     77.63976     155.1558     310.4972      1.689     3.28     828.3681     54.76831     1710.953        45     1.362     1.326 -58.34   0
       571    550.8193     82.5201 307.7030699  +6.6570806      640.591     975.1855     672.5978     77.51604      155.094     310.6518      1.881     5.06     817.2137     54.76831     95.72968         7     1.308     0.553 -67.66   0
       572    277.6645     83.0560 307.8165283  +6.6477306     1437.264     2266.088     2826.989     78.00977     155.3413     310.7135      1.784     4.28     823.4094     54.76831     178.5948        13     1.144     0.840 -63.45   0
       573    537.9837     81.9741 307.7084205  +6.6568776     686.9884     1083.352     919.5714     77.51604     155.2177     310.6518      1.435     5.54     817.1964     54.76831     106.2168         9     1.243     0.695 -30.49   0
       574    746.4257     81.4332 307.6218429  +6.6640505     702.2031       1097.6     1513.867     77.39211     155.2177     310.5281      1.810     5.40      817.114     54.76831     100.9719         9     1.107     0.743 -66.04   0
       575    812.8864     76.8322 307.5943857  +6.6681625     5977.495     9346.027     9992.101     77.88663     155.2177     310.6826      1.640     3.32     816.5576     54.76831     844.0878        36     1.358     1.224 -78.93   0
       576    758.0451     77.2416 307.6171559  +6.6661678     3249.859     4775.889     5050.823     77.76329     155.4031     310.5591      1.543     3.22     816.8911     54.76831     488.8594        24     1.227     1.087  25.92   0
       577    403.1691     77.6314 307.7645727  +6.6541674     1180.187     1559.948     1308.572     77.39211     155.1558     310.4663      1.479     3.59     820.2012     54.76831     188.3498        14     1.105     0.840 -16.16   0
       578     82.9834     77.5798 307.8975858  +6.6434692     605.8505     902.3912     588.0257     77.63976     155.2177     310.6208      1.590     4.85     824.5168     54.76831     70.22382         7     0.944     0.707  64.57   0
       579    520.4753     75.3191 307.7159173  +6.6590404     1159.474      1795.76     2087.636     78.13272       155.65     310.7753      1.606     4.20     817.0963     54.76831     199.1334        13     1.168     0.953 -27.91   0
       580    412.9040     74.0084 307.7606502  +6.6559884     848.9047     1209.963     1348.556     77.63976     155.0321     310.5281      1.396     5.57     819.8536     54.76831     167.8901        10     1.447     0.604 -60.38   0
       581     51.4211     74.1535 307.9108124  +6.6438250     3122.321     4882.895     4837.313     77.51604     155.4031     310.5591      1.656     3.33     825.7703     54.76831     465.3521        26     1.238     1.194 -31.60   0
       582     36.3501     75.2347 307.9170366  +6.6428730     861.8342     1348.839     933.5828      77.7633     155.4649     310.6208      1.531     5.88     826.5278     54.76831     134.9394        11     1.341     0.725 -17.80   0
       583    575.4645     70.9822 307.6932179  +6.6626659     1194.786     1883.485     1209.944     77.51603     155.4031     310.5281      1.588     3.60     816.9527     54.76831     174.3954        14     1.161     0.845 -44.65   0
       584    752.7795     64.9022 307.6197562  +6.6710863     1869.556     2972.138     2742.668     77.76329     155.2177     310.4663      1.631     3.75     816.5253     54.76831     298.2392        18     1.176     1.021  74.81   0
       585     66.3476     65.4576 307.9049047  +6.6479153     728.1528      1127.57     615.2144     77.88663     155.4031     310.7135      1.470     4.07     824.5576     54.76831     152.9007         8     1.192     0.459 -83.29   0
       586    393.2233     64.8739 307.7691328  +6.6591013     1151.826     2022.137     2041.147     77.51603     155.2177     310.6518      1.862     4.65     820.5933     54.76831     155.9302        15     1.180     0.943 -81.72   0
       587     90.4084     63.3961 307.8949790  +6.6495731     935.1677     1359.916     921.1891     77.26798      155.094     310.5591      1.570     4.75     823.5471     54.76831     145.1799        12     1.171     0.878 -67.81   0
       588     79.1414     58.5665 307.8998221  +6.6511889     9177.905     14842.08     15244.14      77.7633     155.4649     310.6518      1.739     3.39     823.7548     54.76831     1308.972        41     1.390     1.317 -46.45   0
       589    621.9941     50.5303 307.6745726  +6.6726607     18469.87     28153.63     29088.49     77.39211     155.0321     310.5591      1.620     3.23     816.2132     54.76831     3018.178        53     1.390     1.336 -87.84   0
       590    246.0150     52.4867 307.8307039  +6.6592902     1427.513     2319.844     3049.681     77.51603     155.1558     310.6208      1.677     3.71     823.5196     54.76831     203.4678        17     1.182     0.963 -28.84   0
       591    931.2183     50.5659 307.5461012  +6.6829415     479.3589     713.8207     807.9859     77.39211     155.2177     310.5281      1.224     3.51     815.5458     54.76831     80.05994         5     0.786     0.452 -18.49   0
       592    521.6217     46.5501 307.7164057  +6.6709547     5089.922     7776.444     7965.469     77.39211     155.4649     310.5899      1.665     3.25      816.655     54.76831     843.3711        31     1.298     1.221 -73.71   0
       593    240.0459     46.8922 307.8333717  +6.6613997     1960.894     3096.385     4306.671     77.88663     155.3413     310.8371      1.840     3.36     823.4655     54.76831      286.038        18     1.097     1.061  74.13   0
       594    408.2783     58.4149 307.7630953  +6.6622708     2536.085     3918.072     3579.047     77.51604     155.1558     310.5591      1.660     3.58     820.0508     54.76831     422.3207        20     1.268     1.006 -45.21   0
       595    608.3772     41.0145 307.6805485  +6.6761348     2945.742     5345.364     6326.129     77.63976     155.2177     310.6208      2.109     5.59     815.8947     54.76831     467.1476        34     2.008     1.126  76.32   0
       596    427.2722     42.2175 307.7557481  +6.6695920     22934.73     35448.73     37085.72     77.39211     155.3413     310.6518      1.645     3.20     819.2227     54.76831     3707.992        52     1.370     1.352   8.36   0
       597    307.9857     43.1691 307.8052725  +6.6652105     947.3807     1661.583     2119.815     77.51604     155.1558     310.6518      2.065     5.19     822.9067     54.76831     146.8944        14     1.300     0.946 -72.68   0
       598    247.8503     42.6847 307.8302711  +6.6633979     9308.454     14619.99     15672.72     77.88663     155.3413     310.8062      1.685     3.29     823.3516     54.76831     1394.316        41     1.395     1.281 -45.22   0
       599    905.1547     42.0846 307.5572130  +6.6855762     1741.123     2748.432     2707.564     77.88663     155.3413     310.7135      1.659     3.73     815.4919     54.76831      273.343        19     1.267     0.998  81.29   0
       600    513.0136     42.3337 307.7201233  +6.6724079     701.9619     985.7299     841.0745     77.39211     155.2177     310.6518      1.406     5.14     816.5778     54.76831     107.3179        10     0.997     0.842  30.75   0
       601     13.1845     42.1729 307.9277738  +6.6557434     2205.697     3473.029     3351.693     77.51603     155.2177     310.6208      1.646     3.34     824.3517     54.76831     346.0763        24     1.218     1.138  -9.81   0
       602    235.7589     39.2164 307.8354108  +6.6644248     3131.354     4562.517     5049.286     77.39211     155.2177     310.4972      1.601     3.16     823.3136     54.76831     499.8105        24     1.246     1.093 -63.57   0
       603    288.8080     37.3028 307.8134367  +6.6669904     1067.534     1636.762     2150.179     77.63976     155.0321     310.4972      1.569     3.59     823.1824     54.76831     223.9552        12     1.138     0.744 -45.87   0
       604    926.1196     32.1872 307.5488333  +6.6903591     870.2939     1467.962     1438.272     77.51603      155.094     310.5591      1.774     3.62     815.0646     54.76831     140.9334         9     0.941     0.689  86.34   0
       605    677.0244     31.7685 307.6523382  +6.6822404     1833.419     2909.489     3046.003     77.39211     155.2795     310.5281      1.648     3.66     815.5848     54.76831     255.4846        19     1.278     0.959  83.02   0
       606     82.4508     31.5491 307.8993572  +6.6624525     490.6696     862.3517     742.5895     77.88663     155.2795     310.6518      1.573     4.16     822.3548     54.76831     101.0161         6     1.178     0.419  45.00   0
       607    188.6974     27.4817 307.8553564  +6.6676927     907.4845     1481.916     1218.987      77.7633     155.7733     310.7753      1.666     5.93     822.4822     54.76831     142.5113        10     1.163     0.852 -34.18   0
       608    243.0075     26.7471 307.8328188  +6.6698148     732.4896     1067.789     1673.414     77.39211     155.2177     310.4044      1.541     4.55     823.0685     54.76831     109.0901         7     0.844     0.696 -51.51   0
       609    165.3192     24.6986 307.8651620  +6.6680582     10580.93     16605.37     17171.96      77.7633     155.7733     310.7753      1.687     3.35     822.0834     54.76831     1554.763        38     1.357     1.249 -54.06   0
       610    910.9186     22.2155 307.5554820  +6.6939702      3990.68     6004.565      5551.23     77.51603     155.1558     310.5899      1.585     3.43     814.9209     54.76831     586.4656        25     1.277     1.120 -48.20   0
       611    509.5994     22.7358 307.7221990  +6.6803840     3116.775     4572.225     4304.884     77.14365     155.1558     310.4663      1.568     3.22     816.2771     54.76831     459.3046        23     1.176     1.080 -52.48   0
       612    447.8724     21.3000 307.7478918  +6.6789151     1631.589     2410.438     2219.485     77.63976       155.65     310.7444      1.519     3.94     818.0319     54.76831      258.069        16     1.362     0.760 -49.78   0
       613    712.0198     21.0220 307.6381586  +6.6878429     1922.727      2953.19     2948.911     77.63976     155.2795     310.6518      1.601     3.23     815.1973     54.76831     282.7789        16     1.048     0.978 -56.24   0
       614     66.1809     21.2887 307.9064617  +6.6661422     548.6842     757.7389     648.2261     77.63976     155.1558     310.6208      1.469     3.66     821.9354     54.76831     76.03577         5     1.013     0.381 -86.60   0
       615    975.7133     18.5332 307.5286842  +6.6976439     1916.369      2841.78     3095.583     77.88663     155.5883     310.7444      1.617     3.82      813.019     54.76831     277.6102        16     1.239     0.851 -44.93   0
       616    426.9356   1020.5284 307.7230783  +6.2657208     905.0099     1487.548     1542.798     77.88663     155.4031     278.4213      1.740     7.36     847.3245     54.76831      111.649        15     1.474     1.040 -48.01  16
       617    228.2095   1021.0563 307.8055543  +6.2588615     1167.837     2063.145     1748.664     77.26798     152.8497     271.6155      1.800     4.18     846.0814     54.76831     147.9781        16     1.191     0.935 -42.33  16
       618    317.3961     13.9050 307.8023464  +6.6776056     895.1646     1517.602     2047.677     77.63976      155.094     310.4972      2.143     2.69     822.8865     54.76831     163.0739         9     0.819     0.774   1.21   0
       619    698.0145   1021.2076 307.6105236  +6.2744791      989.658     1695.636       2330.5     77.51604     151.7784      269.736      2.012     5.11      846.189     54.76831     130.6937        10     0.969     0.765   5.97  19
       620    370.9339     12.8095 307.7801410  +6.6798485     736.6139     1038.441     853.0762     77.39211     155.2177     310.6208      1.421     4.83     821.7264     54.76831     135.9105         8     1.061     0.622 -33.16   0
       621    703.3718   1018.7565 307.6083815  +6.2756694     2409.419     4373.417     5188.206     77.51604     155.4649     297.0039      2.012     4.55     846.1247     54.76831     299.7482        28     1.434     1.305   4.93  18
       622    350.2066   1016.4633 307.7550661  +6.2648362     1696.888     2776.015     3015.789     77.26798      155.094     310.4972      1.706     3.81     847.3759     54.76831     222.0828        21     1.242     1.079 -52.03  16
       623    719.1410   1018.1024 307.6018570  +6.2764644     709.4581     1129.296     956.4565     77.63976     155.3413      302.575      1.673     6.03     846.0041     54.76831     100.0036        11     1.090     0.938 -70.43  16
       624    532.4009   1006.6784 307.6797610  +6.2749578     3582.173     6416.362     7425.425     77.14366     154.8462     310.5281      1.981     3.92     847.4637     54.76831     481.7604        33     1.503     1.281  86.60   3
       625    529.5940    998.9050 307.6811864  +6.2780731      7526.37     12818.16     14480.82     77.63976      155.094     310.5281      1.845     3.76     847.2888     54.76831     949.1312        46     1.511     1.398 -82.99   2
       626    502.9591   1007.6936 307.6919491  +6.2735565     1077.636     1641.081     1826.334     78.00977     155.3413     310.8062      1.614     4.68     847.2384     54.76831     169.2501        13     1.271     0.731 -89.22   0
       627    736.9868   1005.9366 307.5948551  +6.2820808     6693.062     11772.55     12590.81     77.39211     155.2177     310.5281      1.868     3.76     845.7333     54.76831     779.3005        41     1.450     1.388 -82.01   0
       628    282.6541   1005.3652 307.7834805  +6.2671598     13696.86     23279.77     26474.84      77.7633     155.4031     310.7135      1.900     3.76     847.0669     54.76831     1719.589        65     1.892     1.407 -38.88   0
       629    407.0450   1005.7160 307.7318317  +6.2711714     970.2731     1654.452     1903.461     77.88663     155.4031     310.7444      1.761     4.33     847.0486     54.76831     145.0233        12     1.310     0.689 -49.08   0
       630    798.3348   1004.7189 307.5694276  +6.2846249     983.7228     1459.061     1252.961     78.13272     155.5883     310.7135      1.845     6.05      845.025     54.76831     120.7546        14     1.279     0.914  78.84   0
