#   1 NUMBER                 Running object number                                     
#   2 X_IMAGE                Object position along x                                    [pixel]
#   3 Y_IMAGE                Object position along y                                    [pixel]
#   4 ALPHA_J2000            Right ascension of barycenter (J2000)                      [deg]
#   5 DELTA_J2000            Declination of barycenter (J2000)                          [deg]
#   6 FLUX_APER              Flux vector within fixed circular aperture(s)              [count]
#   9 FLUXERR_APER           RMS error vector for aperture flux(es)                     [count]
#  12 FLUX_RADIUS            Fraction-of-light radii                                    [pixel]
#  13 FWHM_IMAGE             FWHM assuming a gaussian core                              [pixel]
#  14 BACKGROUND             Background at centroid position                            [count]
#  15 THRESHOLD              Detection threshold above background                       [count]
#  16 FLUX_MAX               Peak flux above background                                 [count]
#  17 ISOAREA_IMAGE          Isophotal area above Analysis threshold                    [pixel**2]
#  18 A_IMAGE                Profile RMS along major axis                               [pixel]
#  19 B_IMAGE                Profile RMS along minor axis                               [pixel]
#  20 THETA_IMAGE            Position angle (CCW/x)                                     [deg]
#  21 FLAGS                  Extraction flags                                          
         1    193.5958     19.3931 307.8552121  +6.6679032     614.2511     824.7319     457.6532     77.38177     155.3224     311.0474      1.557     5.37     827.2204     54.84897     87.13293         9     1.443     0.564 -65.29   0
         2    170.7121     16.5893 307.8648166  +6.6682882     9692.949     16247.85     16998.48      77.6302     155.3843     311.0474      1.817     4.23     826.8265     54.84897     1144.724        41     1.720     1.062 -40.15   0
         3    916.2484     14.4489 307.5550324  +6.6942542     3791.081     6015.639     5868.361     78.00134     155.5082     311.1711      1.710     4.28     816.3323     54.84897     484.0394        25     1.547     0.875 -39.88   0
         4    514.8336     14.7107 307.7218617  +6.6806653      2686.35     4730.005      5218.96     78.12466     155.5082     311.1711      1.887     4.84     817.6433     54.84897     356.3097        25     1.616     0.938 -37.88   0
         5    717.3140     12.9638 307.6377653  +6.6881936     1813.949     3083.662     3430.898     78.00134     155.5701     311.1711      1.797     4.97      816.455     54.84897     244.4445        20     1.554     0.880 -28.80   0
         6    453.1049     13.0982 307.7475711  +6.6792531     1634.134     2963.741     2891.997     78.00134     156.1877     311.0164      1.931     4.56      819.936     54.84897     243.6365        21     1.515     1.027 -33.48   0
         7    981.2416     10.6918 307.5281442  +6.6979830     1896.758     3302.482     3642.943     78.00134      155.632     311.2639      1.799     4.28     811.9767     54.84897     283.6299        19     1.399     0.880 -33.96   0
         8    700.3753      7.1148 307.6450011  +6.6900400     6803.939     11168.58     11954.09     78.00134     155.3843     304.3836      1.755     4.34     816.1079     54.84897     865.7831        36     1.678     0.992 -37.94  16
         9    620.7759      6.3519 307.6781101  +6.6876803     3531.465     5856.288     5853.678      77.6302      155.632     298.3139      1.754     4.41     817.4407     54.84897     471.4783        27     1.598     0.939 -36.44  16
        10    322.4253      6.2742 307.8021116  +6.6776673     704.7081     1259.446     1400.115      77.6302     155.4463     297.7001      1.866     6.08     826.8343     54.84897     99.79364         9     1.478     0.702 -41.29  16
        11    376.4601      4.3109 307.7797202  +6.6802996     624.3812     1189.521     719.3931     77.87782     155.2604     276.8564      1.784     4.61     824.6335     54.84897     91.22626         8     1.267     0.476 -45.56  16
        12    420.8728      2.6917 307.7613161  +6.6824646     5730.992     9009.177     9147.959     77.87782      141.778     255.1037      1.673     4.46      822.037     54.84897     728.2301        26     1.593     0.886 -34.15  24
        13     21.6923      2.3912 307.9272252  +6.6691142     7729.501     11560.91     12015.26     77.38177     138.1323     250.4959      1.658     4.75      825.676     54.84897     996.0424        29     1.548     0.933 -28.19  24
        14    667.7764      1.7831 307.6587285  +6.6911464       706.41     1095.994     1097.731     72.76539     130.1667     241.3355      1.486     4.60     815.9319     54.84897     119.3452         8     0.995     0.715 -15.08  24
        15    412.3336    997.7185 307.7315085  +6.2712947     1046.472     1445.858     1587.266     78.24779     155.8792     311.2021      1.474     4.31     851.4186     54.84897     150.9309        10     1.075     0.659 -47.87   0
        16    709.2202   1022.8836 307.6073740  +6.2708814     5847.247     8664.701     9223.323     75.62001     134.3878     246.5448      1.573     4.68     851.1935     54.84897     744.2473        25     1.495     0.912 -24.37  24
        17    700.8636   1022.4277 307.6108596  +6.2707892     968.0664     1503.702     1793.863      77.6302     140.4134     253.2479      1.697     6.00      851.373     54.84897     153.1398        13     1.187     1.013 -11.40  24
        18    576.9108   1023.6456 307.6622948  +6.2661234     3913.273     5646.682     6937.325     68.25998     124.0315     234.4972      1.475     3.37     853.1484     54.84897     1114.727        21     1.624     0.681  -1.66  24
        19    565.2476   1022.3519 307.6671816  +6.2662656     3678.807     6044.565     7224.329     78.00134     141.3018     254.6127      1.854     4.54     853.0738     54.84897     431.1323        29     1.550     1.068 -30.40  24
        20    424.1655   1022.9854 307.7257487  +6.2612592     3276.978     4638.813     5030.842     74.98077      133.309     244.8993      1.478     4.45     851.9146     54.84897     424.5979        19     1.303     0.851 -25.44  24
        21    206.6152   1023.8585 307.8160609  +6.2535694     450.7419     677.4135     965.6834     64.48896      120.568     230.8145      1.447     3.42     850.0833     54.84897     119.1144         5     1.004     0.336   5.61  24
        22    258.8190    995.0533 307.7953490  +6.2672242     920.8224     1702.867     1441.137     77.50608      155.632     310.9854      1.754     5.40     850.8101     54.84897     147.1874        11     1.273     0.646 -39.85   0
        23    902.9952    991.6022 307.5279431  +6.2902963     7311.255     13567.57     14452.04     77.38177     155.1984     310.9545      1.946     4.67     847.1229     54.84897     837.5437        43     1.761     1.173 -39.68   0
        24    534.4180    990.8466 307.6810385  +6.2782392     7409.504     12329.19     13114.76     77.50608     155.5701     310.9235      1.770     4.36     851.8632     54.84897     951.0331        39     1.708     1.018 -40.44   0
        25    876.7078    987.7849 307.5389878  +6.2909920     10597.06     19430.83     21221.46      77.7541     155.4463     311.0164      1.983     4.61      847.443     54.84897     1190.811        54     1.833     1.248 -37.64   0
        26    589.4582    988.1771 307.6582700  +6.2811915     1192.818     2066.234     2163.639      77.6302      155.632     311.0164      1.760     6.66     851.8818     54.84897     158.0809        17     1.806     0.690 -56.49   0
        27    521.0435    986.9388 307.6867236  +6.2794032     3853.099      6970.01     7847.596     78.00134      155.632     311.2949      1.997     4.61     851.5933     54.84897     469.6463        37     1.785     1.398 -20.98   0
        28    630.8019    985.7103 307.6411826  +6.2835991     1214.294     2293.455     2163.147     77.25727     155.2604     310.9235      1.883     5.19     851.5904     54.84897      186.288        13     1.384     0.745 -43.60   0
        29     55.4692    985.6685 307.8801087  +6.2642379     920.8318     1459.568     1614.462     78.00134     155.7556     311.1402      1.648     5.49     847.7577     54.84897     109.4368        14     1.304     0.838 -33.39   0
        30    473.8486    983.4105 307.7064413  +6.2792729     1897.816     3018.365     3063.279     77.50608     155.5082     310.8616      1.694     4.99     851.0773     54.84897     236.5563        20     1.670     0.744 -43.04   0
        31    908.4524    975.3577 307.5262182  +6.2971873      38108.3     68584.03     73907.19     78.00134     155.6938     311.2021      1.949     4.41     846.4843     54.84897      4220.96        82     1.890     1.332 -37.27   0
        32    998.3246    987.3106 307.4884948  +6.2952604     3944.256     7741.317     8230.234     78.00134     155.9409     311.2639      2.052     4.93     843.6155     54.84897     422.6832        40     1.802     1.267 -32.75   0
        33    215.8616    973.4110 307.8139144  +6.2747127     1714.601     2916.039       2882.8     77.38177     155.4463     310.9545      1.869     4.13     849.4732     54.84897     225.7568        20     1.385     0.947 -47.04   0
        34    614.5230    971.8622 307.6484061  +6.2887707     773.9923     1223.072     1392.323     78.24779     155.6938     311.1711      1.688     5.33      851.265     54.84897      132.424        11     1.396     0.575 -41.71   0
        35    103.5717    972.5743 307.8605734  +6.2712692     618.3185     1239.619     1295.798     77.50609     155.4463     311.0474      1.992     4.71     848.0649     54.84897     73.48663         7     1.392     0.452 -44.39   0
        36    806.5746    968.9965 307.5687415  +6.2963998     1930.118     3176.246     3740.459     77.50608     155.3224     311.0164      1.842     5.24     847.8575     54.84897     231.2498        22     1.628     0.898 -35.82   0
        37    754.6180    966.9783 307.5903870  +6.2954906     5761.881     10283.88     10966.44      77.7541     155.5082     311.1093      1.892     4.75     848.7401     54.84897     691.5375        39     1.755     1.126 -43.62   0
        38    541.0462    966.7706 307.6790914  +6.2884041     819.2661     1267.193     1096.961     77.50608     155.7556     311.0474      1.544     5.21     851.1265     54.84897     130.7763         9     1.248     0.614 -36.74   0
        39    224.2443    965.7524 307.8106902  +6.2781578     1229.724     2027.253     1921.964     78.00134     155.5701     311.1093      1.724     5.11     849.4714     54.84897     159.9542        15     1.367     0.774 -37.23   0
        40    188.6884    965.6773 307.8254583  +6.2769896     701.7376     1410.749     1261.007     78.00134     155.9409      311.233      2.059     4.41     849.0028     54.84897     128.3553         8     1.246     0.670 -51.19   0
        41     48.8773    963.8832 307.8835784  +6.2730110     2480.758     4170.045     4639.423     78.12466     155.9409     311.2639      1.788     4.72     847.2696     54.84897     325.7793        21     1.514     0.889 -40.15   0
        42    942.7131    962.1126 307.5124306  +6.3038043     5784.113     10482.79     11098.05      77.7541     156.0027     311.2639      1.939     4.56     845.1826     54.84897     673.7805        42     1.817     1.134 -37.26   0
        43    198.4222    958.1714 307.8216681  +6.2804174     674.7624     1002.387     1384.882     77.50608     155.4463     311.0474      1.615     5.14     849.0162     54.84897     114.8498        10     1.304     0.791 -55.77   0
        44    625.2719    956.1860 307.6444661  +6.2956052     618.0555     998.1932     638.8629     77.50608     155.5082     311.0783      1.919     5.50     850.6588     54.84897     89.33423         8     1.376     0.620 -43.33   0
        45    916.6406    953.6987 307.5235394  +6.3064057     1687.065     3006.468     3225.494     78.00134     155.5082     311.3876      1.953     5.57     845.5654     54.84897     214.8511        23     1.708     0.906 -43.02   0
        46    249.4173    949.8272 307.8007707  +6.2855826      3917.17     6731.341     7019.493      77.6302     155.3843     311.0783      1.803     5.00     849.7023     54.84897     475.8206        30     1.679     0.987 -41.04   0
        47    776.2752    949.9009 307.5819625  +6.3032692     1090.502     1719.695     2141.253     77.50608     155.7556     311.0783      1.702     4.14     848.1535     54.84897     168.8138        13     1.187     0.847 -52.33   0
        48    637.3069    949.7200 307.6396840  +6.2986796     4218.499     6863.387     6618.464      77.7541     155.8174      311.233      1.758     4.68     850.4091     54.84897     581.6245        28     1.608     0.933 -40.36   0
        49    986.6808    949.2105 307.4945996  +6.3106043     603.7342     1240.721     1781.742      77.6302     155.3224     311.0164      2.137     4.43      843.942     54.84897     95.13281         6     1.498     0.373 -56.34   0
        50    459.3827    948.1675 307.7136289  +6.2933395     1158.026     1945.364     1793.297      77.6302     155.4463     311.0474      1.757     6.21     850.3154     54.84897     150.3171        14     1.496     0.725 -43.39   0
        51     18.3813    947.1970 307.8968035  +6.2788709     1983.129      3402.09     3710.633      77.6302     155.1984     310.9854      1.932     5.50     846.6288     54.84897     253.3972        22     1.723     0.871 -34.51   0
        52    869.4559    946.1871 307.5433867  +6.3079268     731.4825     1531.655     1688.241     77.38177     155.5701     310.8616      2.008     7.33     846.6069     54.84897     113.0705        13     1.494     1.006 -16.12   0
        53    940.5086    943.7193 307.5139591  +6.3113261      663.313      1163.28     950.7867      77.7541     155.8792      311.233      1.788     5.84     844.6814     54.84897     102.4962         8     1.219     0.787 -62.31   0
        54    285.4174    943.6568 307.7860272  +6.2893441     837.5953     1435.419     1977.878     77.50609     155.5701     310.9235      1.840     5.50     850.2914     54.84897     115.9429        11     1.239     0.688 -29.90   0
        55    993.0516    941.7209 307.4922031  +6.3139104     803.9671     1452.586      2099.29     78.00134     155.6938     311.1711      2.341     6.13     843.8254     54.84897     96.93799        11     1.336     0.792  83.36   0
        56    562.0830    942.0073 307.6711831  +6.2993370     1594.379     2682.709     2625.731      77.6302     155.3224     311.0474      1.823     4.82     850.2745     54.84897     204.7212        20     1.521     0.916 -42.19   0
        57    601.4149    938.5483 307.6549638  +6.3020871      1081.65     2021.701     1802.101     77.38177      155.632     310.9235      1.864     4.82     850.1434     54.84897     158.1578        14     1.305     0.829 -33.78   0
        58     51.4684    937.5511 307.8833877  +6.2839718     646.7776     1288.062     1744.548     78.00134     155.5701     311.1711      2.233     3.38     846.7976     54.84897       100.27         5     0.744     0.463 -16.21   2
        59    280.9999    936.2940 307.7881087  +6.2922356     1327.215     2336.008     2883.392     77.50608     155.2604     310.7997      1.986     5.63     850.0341     54.84897     152.4318        16     1.467     0.771 -36.68   0
        60    549.3245    934.1583 307.6767444  +6.3021493     609.7654      893.704     836.8987     77.87782      155.632     311.2021      1.510     4.45     850.0043     54.84897     87.76959         6     0.961     0.587 -23.73   0
        61    747.5466    932.4124 307.5944779  +6.3095273      773.091      1255.27     1402.526     77.38177     155.5701     310.8926      2.032     5.50     848.1097     54.84897     103.1633        10     1.321     0.645 -39.85   0
        62    885.5543    929.0621 307.5372716  +6.3155380     6112.805     10955.35     11242.49     77.87782     155.5082      311.233      1.908     4.41     845.6735     54.84897     714.2466        39     1.725     1.108 -37.77   0
        63    421.3495    926.0676 307.7301643  +6.3011856     1919.576     3372.393     3383.635     77.87782     155.5082     311.1093      1.868     4.74     849.9697     54.84897     268.6312        21     1.581     0.820 -43.83   0
        64    590.2632    926.5584 307.6599962  +6.3066636     524.4513     977.0499     443.6294     78.00134     155.5701      311.233      1.785     6.11     849.7308     54.84897     101.2432         6     1.520     0.691 -32.50   0
        65    323.0266    924.4315 307.7710530  +6.2985502     8629.687     14653.88     15953.13     77.50608     155.3843     311.0164      1.828     4.59     850.1859     54.84897     1048.445        41     1.740     1.037 -39.32   0
        66    243.2478    923.3187 307.8042223  +6.2963209     6372.995     10801.16     11673.89     78.00134      155.632     311.2021      1.833     4.31     849.1511     54.84897     784.7396        38     1.709     1.063 -35.18   0
        67    571.0382    917.9797 307.6682676  +6.3095601     996.6606      1719.06     1931.756      77.6302     155.4463     310.9235      1.811     5.45     849.4669     54.84897     139.1612        12     1.425     0.673 -27.01   0
        68    755.7380    917.0422 307.5915890  +6.3161493     737.1933     1221.403     1170.333     78.00134     155.5701     311.2639      1.548     4.73     847.6967     54.84897     105.7068         8     1.048     0.606 -23.61   0
        69    901.1804    913.9108 307.5312868  +6.3223183     1008.867     1926.034     2454.256     77.87782     155.3843     311.0783      2.037     5.55     845.0094     54.84897     131.9341        15     1.463     0.807 -41.37   0
        70    857.9064    912.4744 307.5493078  +6.3214614     776.1548     1166.491     1121.779     77.87782     155.7556     311.1402      1.611     4.68     846.1112     54.84897     104.1511         8     0.910     0.683 -47.00   0
        71    400.3405    912.1323 307.7393564  +6.3062328     554.1259     870.1638     357.3733     78.12466     155.5701     311.1711      1.516     4.15     849.8739     54.84897      98.1076         5     0.931     0.529 -42.06   0
        72    968.3680    909.1711 307.5035393  +6.3265257     707.5562      1180.87     1429.238     77.50608     155.3843     310.9545      2.006     4.78     843.5402     54.84897     116.4741         7     0.907     0.714 -21.29   0
        73    737.6696    907.1188 307.5994246  +6.3196409     1599.536     2523.413     2901.051     78.24779     155.8792     311.2021      1.741     5.17     847.5146     54.84897     178.8261        17     1.454     0.785 -33.62   0
        74    560.9747    908.0057 307.6727808  +6.3133405     694.3547      1079.16     948.0515     77.50608     155.4463     311.0164      1.457     4.57     849.1816     54.84897     96.54614         7     1.298     0.457 -10.02   0
        75    969.0009    902.7144 307.5034916  +6.3292132     1096.569     2057.632     2646.379     77.25726     155.1363     310.8616      1.905     6.75     843.3777     54.84897     145.5071        17     1.666     0.783 -28.63   0
        76    601.6506    903.4525 307.6560395  +6.3165877     661.5773     1100.747     1009.596     78.12466     155.5082     311.2021      1.828     5.10     848.8901     54.84897      105.573         8     1.330     0.554 -31.17   0
        77    523.0703    902.6517 307.6887024  +6.3142771     1116.339     1976.997      2540.61     77.87782     155.5082     311.1711      2.166     6.34     849.2473     54.84897     148.8889        17     1.567     0.869 -36.56   0
        78    613.1544    902.9843 307.6512773  +6.3171675     528.2054     989.8704     815.0346     77.50608     155.4463     310.9235      1.749     4.89     848.8485     54.84897     69.57715         8     1.405     0.482 -33.08   0
        79    656.0202    900.5266 307.6335562  +6.3196223     2456.239     4023.305     4278.384     77.63019     155.5701     311.1093      1.737     4.56     848.5745     54.84897     293.8401        21     1.445     0.871 -43.04   0
        80     52.7653    896.3895 307.8842329  +6.3010123     2780.791     4864.428     4859.915     77.50608     155.3843     310.9854      1.866     4.43     845.7399     54.84897     355.6102        28     1.586     1.059 -49.93   0
        81    816.4724    897.2579 307.5670244  +6.3263561     629.2017     1287.739     1580.846     78.12466      155.632     311.1402      1.892     5.67     846.7025     54.84897     108.9582         9     1.776     0.509 -40.55   0
        82    934.5995    895.5705 307.5180179  +6.3310113     683.0446     1412.601      1347.93     77.38177     155.4463     310.9854      2.048     7.31      844.011     54.84897     97.28955        13     1.385     1.081 -58.45   0
        83    196.1875    895.5315 307.8246991  +6.3062080     2037.622     3386.131     3564.665     77.50608     155.5082     311.0783      1.790     4.80     848.1609     54.84897      273.895        20     1.516     0.820 -38.04   0
        84     70.3974    895.7581 307.8769317  +6.3018686     1800.625     2958.023     2989.706     77.38177     155.3224     310.8926      1.798     4.69     846.1302     54.84897     214.1639        20     1.525     0.835 -37.61   0
        85    650.8451    889.5482 307.6360725  +6.3239820      6333.19     10401.41     10489.52     78.12466     155.5701     311.1711      1.765     4.15      848.149     54.84897     781.8966        37     1.717     1.010 -39.57   0
        86    335.7868    891.2394 307.7668665  +6.3126863     823.5399     1376.102     1756.022     77.50608     155.4463     310.9545      1.834     5.18     849.7496     54.84897     116.2747        10     1.494     0.507 -39.36   0
        87    230.0871    892.1580 307.8107337  +6.3087445      756.022     1281.632      1638.38     78.00134     155.5701     311.2021      1.911     5.71     848.6487     54.84897      97.6803        12     1.476     0.622 -20.58   0
        88    787.7715    891.0551 307.5791519  +6.3279551     630.5054     1033.427     694.0544      77.7541     155.6938     311.0474      1.777     5.56      846.938     54.84897     96.34277         7     1.182     0.737  -4.44   0
        89     10.6122    888.1057 307.9020173  +6.3030087     981.9352     1747.828     2264.387      77.7541     155.3843     310.9854      1.878     6.19     844.4189     54.84897     147.4719        16     1.659     0.686 -39.39  16
        90    888.6458    885.7647 307.5374313  +6.3335213     2441.462     4043.119     4600.688      77.6302     155.5701     311.0474      1.855     4.38     844.8953     54.84897     302.1233        26     1.590     0.964 -41.87   0
        91     23.5407    886.1528 307.8967139  +6.3042520     1043.422     1721.032      1870.07     78.00134      155.632     311.2639      1.755     5.98     844.6813     54.84897     140.2271        14     1.559     0.769 -36.02   0
        92    333.7666    882.6419 307.7679938  +6.3161685     15061.17     25207.33      27288.6      77.7541      155.632     311.0164      1.777     4.43     849.6404     54.84897     1865.865        50     1.797     1.066 -37.33   0
        93     68.4487    883.5045 307.8781529  +6.3068626     1318.164     2212.898     2001.426     77.87782     155.5082     311.3258      1.736     6.00     845.8284     54.84897     165.2819        18     1.594     0.750 -36.89   0
        94    204.3719    882.3110 307.8217439  +6.3119433     1122.329      1684.76     1481.713     78.12466     155.3843     311.0783      1.782     6.25     848.1025     54.84897     143.8685        15     1.340     0.819 -37.14   0
        95    384.6115    881.5112 307.7469149  +6.3183479     618.3248     740.2472     732.4996      77.7541     155.3224     311.0474      1.459     4.43     849.4435     54.84897     101.6495         7     0.918     0.830 -53.14   0
        96    663.2802    874.3198 307.6314167  +6.3306881     504.8521     926.9658      892.597     78.24779     155.8792     311.3258      1.768     4.45     847.3962     54.84897     89.48657         5     1.141     0.493 -33.44   1
        97    411.3892    873.5380 307.7360607  +6.3225419     1120.274     1756.354     1644.266     77.50609     155.4463     310.9545      1.666     5.26     849.2856     54.84897      167.299        15     1.382     0.870 -42.49   0
        98     96.9057    873.2481 307.8666795  +6.3120588     1734.829      2822.68     2486.072     77.87782     155.5082     311.2949      1.666     4.12     846.5314     54.84897      231.777        18     1.338     0.848 -44.88   0
        99    492.8623    870.4698 307.7023256  +6.3265504     704.1047     1288.817     1844.749     78.00134      155.632      311.233      1.683     4.66     849.0092     54.84897     119.6653         7     1.254     0.491 -68.97   0
       100    665.2521    869.5479 307.6307572  +6.3327248     778.6847     1232.123     1555.416     78.24779     155.5082     311.1711      1.742     6.43     847.2089     54.84897     121.4334        12     1.458     0.796 -37.04   0
       101    878.8013    867.6528 307.5421242  +6.3406708     1809.978     3040.532     3103.166     77.38177     155.3224     310.7377      1.804     4.88     844.7568     54.84897     243.4019        19     1.473     0.872 -39.68   0
       102    849.5107    867.1075 307.5543081  +6.3399143     1849.653     3028.203     3347.295     78.00134      156.126     311.2021      1.799     4.66     845.2719     54.84897     237.2344        23     1.551     0.909 -40.24   0
       103     80.6477    866.7141 307.8736511  +6.3142078      2260.93      3834.77     4173.833     78.00134     155.5701     311.1711      1.851     4.84     845.9178     54.84897     297.1229        24     1.620     0.890 -44.54   0
       104    812.9792    866.4167 307.5695044  +6.3389748     2693.733     4568.608     4991.889      77.7541     155.4463     311.0783      1.817     5.45     846.0668     54.84897     344.6653        25     1.595     0.886 -31.48   0
       105    548.8790    857.9253 307.6794799  +6.3336143       304446     508263.8       541580     78.24779     155.8792      311.233      1.802     4.58     847.7676     54.84897     39432.31       181     1.926     1.307 -39.27   0
       106    393.1382    860.4297 307.7440801  +6.3273403     6931.285     11655.91     12587.52      77.7541      155.632     311.1402      1.788     4.70     849.0089     54.84897     893.4365        35     1.657     1.013 -36.36   0
       107    336.3312    858.8188 307.7677274  +6.3260923     11440.88     19251.15     20894.81      77.6302     155.5082     311.1402      1.810     4.58     849.1874     54.84897     1483.392        46     1.771     1.055 -42.15   0
       108    654.5620    855.3019 307.6356733  +6.3382486     3223.082     5643.172       6135.6     78.00134     155.5082     311.3876      1.874     4.48     846.9348     54.84897     411.3884        30     1.662     1.043 -45.70   0
       109    886.8346    854.1944 307.5392363  +6.3464976     4463.918     7987.505     8445.085     77.25726     155.4463     310.9545      1.906     4.99     844.2938     54.84897     632.6633        42     2.033     1.174 -18.70   0
       110    726.1283    851.7703 307.6060666  +6.3421096     596.1815     800.4546     466.5406     77.87782      155.632     311.1402      1.378     4.55     846.4097     54.84897     74.88641         8     1.100     0.534 -52.63   0
       111    629.5458    849.2849 307.6462648  +6.3398931     3203.446     5086.709     5645.505     78.00134      155.632     311.3258      1.757     4.50     847.0194     54.84897     412.3215        27     1.625     0.920 -42.50   0
       112    621.7604    844.9553 307.6496431  +6.3414195     1875.106      3838.04     4751.621      77.7541      155.632     311.0783      2.316     9.03     846.9945     54.84897     282.7076        31     2.654     0.858 -56.96   0
       113   1020.7787    848.2723 307.4837991  +6.3534282     3988.368     7302.547     7932.396      77.6302     154.7635     275.8462      1.922     4.76     839.7513     54.84897     466.4791        36     1.773     1.110 -35.03  24
       114    817.7484    848.4081 307.5681245  +6.3465714     1426.441     2506.855     2801.269     77.50609     155.5082     310.8306      1.875     6.49     845.5275     54.84897     187.4431        17     1.507     0.783 -35.86   0
       115    945.4349    847.1767 307.5151303  +6.3513585     757.3793     1257.328     1160.105     77.50608     155.3843     310.9545      1.837     4.97     842.9153     54.84897     115.5591         8     1.199     0.584 -41.60   0
       116    636.6258    861.0247 307.6429317  +6.3352830     1112.291     1892.659     2522.408     77.50608     155.4463     311.0474      2.079     6.01     847.1885     54.84897     167.2982        14     1.537     0.661 -44.19   0
       117    906.0543    841.9183 307.5316626  +6.3522110     2752.851     4774.334     4978.957     78.00134      155.632      311.233      1.858     4.84     843.7465     54.84897     325.7535        26     1.592     0.988 -46.32   0
       118    315.9045    842.6755 307.7767525  +6.3320703      991.532     1590.049     1638.493      77.6302     155.8174      311.233      1.791     5.91     848.9953     54.84897     146.0381        14     1.503     0.654 -44.12   0
       119    364.2803    837.7988 307.7568241  +6.3357137     2386.284     3959.392     4127.802     77.25727     155.0742     310.9545      1.765     4.40     848.3793     54.84897     347.9984        25     1.554     0.928 -46.54   0
       120    783.6352    835.3033 307.5827309  +6.3508391     400.3115     655.1018     697.3086     78.00134     155.5082     311.3258      1.900     4.14     845.8087     54.84897     77.66492         5     1.027     0.477 -85.96   0
       121    500.4695    827.5869 307.7006017  +6.3445144     2912.127     4597.232     4585.996     77.50609     155.4463     311.0474      1.737     4.71     847.7028     54.84897      394.335        22     1.512     0.847 -37.96   0
       122    845.2423    826.8239 307.5574249  +6.3564064     933.9431     1629.223      1375.51      77.6302     155.5082     310.9545      1.783     4.72     844.3203     54.84897     117.3402        12     1.188     0.774 -46.86   0
       123    565.3717    825.5343 307.6737135  +6.3475444     747.7737     1081.472     1197.866      77.7541     155.5701     311.1093      1.513     5.44     846.8275     54.84897     117.4578         9     1.240     0.673 -27.46   0
       124    547.1875    823.7169 307.6813271  +6.3476836     5524.854     9357.778     10017.22      77.6302     155.3843     311.0164      1.807     4.66     846.8434     54.84897     720.3743        34     1.671     1.017 -34.92   2
       125    554.3631    823.2922 307.6783609  +6.3481002     1190.676     1933.959     2117.031     78.12466     155.5701     311.2021      1.723     5.11     846.7899     54.84897      153.084        15     1.450     0.717 -41.60   2
       126    465.2360    822.5688 307.7154037  +6.3454013     1480.182     2588.883     2379.388      77.6302     155.3843     310.9235      1.825     5.63     847.8612     54.84897     195.7725        16     1.613     0.741 -46.14   0
       127    258.6591    824.6545 307.8011326  +6.3375824     506.5279     902.0248     805.0629     78.12466     155.5701     311.1711      2.189     3.39     848.3701     54.84897     81.31012         4     0.928     0.358 -71.76   2
       128    882.9319    821.8051 307.5419375  +6.3597421      1226.17     2076.089     2012.851     77.50608     155.3224     310.9854      1.769     4.24     843.4733     54.84897     182.5803        16     1.395     0.773 -45.49   0
       129    106.9353    821.6561 307.8642479  +6.3337013     1266.118     1992.913      1687.33     78.12466     155.5701     311.1711      1.676     5.53     845.6919     54.84897     178.4064        16     1.542     0.706 -47.80   0
       130    683.1656    820.5159 307.6249554  +6.3535739     659.4519     1044.742     1143.566     78.00134     155.5701     311.1402      1.435     4.46     846.3267     54.84897     104.0897         7     1.212     0.467 -49.93   0
       131    517.9669    817.5922 307.6936688  +6.3492302     17907.58     30000.46     31685.23     77.50608     155.4463     310.9854      1.795     4.59     847.1157     54.84897     2307.365        51     1.756     1.059 -39.64   0
       132    358.6534    819.3898 307.7597782  +6.3431260     601.6086     907.8157      808.137     77.38177     155.5701     310.8926      1.568     5.48     847.8396     54.84897     106.0679         6     1.280     0.661 -39.59   0
       133    931.7365    815.9810 307.5218599  +6.3637821     3274.731     5652.177     5710.771      77.6302      155.632     311.0164      1.817     4.57     842.7297     54.84897      396.093        28     1.679     0.947 -36.04   0
       134    164.5990    817.2631 307.8404465  +6.3374618     543.8915     844.4888     277.3618     77.38177     155.4463     310.9235      1.725     4.34      846.782     54.84897     99.69476         7     1.197     0.448 -29.11   0
       135     51.0992    813.9116 307.8876981  +6.3350134     542.0927     650.6517     760.6228     78.00134     156.0644     311.1402      1.694     5.48     844.4975     54.84897     74.63513         7     1.484     0.570 -77.44   0
       136     28.2210    808.0063 307.8973984  +6.3366788     1349.948     2324.573     1948.631      77.6302     155.4463     310.9854      1.768     5.45     844.0987     54.84897     197.0834        19     1.510     0.867 -44.41   0
       137    310.5967    806.2642 307.7801782  +6.3469270     2988.254     5089.306     5127.245     77.38177     155.4463     310.9545      1.790     4.47     848.0802     54.84897     406.6361        25     1.533     0.987 -36.22   0
       138    776.1727    802.1936 307.5869359  +6.3642614     49499.29     83655.02     88622.99     77.50608     155.4463     310.9854      1.786     4.49     845.3789     54.84897     6111.794        78     1.804     1.167 -38.95   0
       139     10.5176    804.1635 307.9048802  +6.3376674     2008.547     3515.733     3825.643     78.00134     155.5701     311.1402      1.902     5.50     843.8625     54.84897       265.74        22     1.744     0.816 -46.42  16
       140    419.5179    801.3937 307.7351017  +6.3526068     795.2789     1647.984     1350.901      77.6302     155.1984     310.9854      1.948     6.50     847.1815     54.84897     112.4041        12     1.703     0.696 -52.28   0
       141    233.1865    800.0596 307.8125377  +6.3468795     4642.561     8506.938     10583.47     77.38177     155.5701     310.8926      2.075     4.84      847.566     54.84897     555.6525        35     1.790     1.054 -35.13   0
       142    901.4359    797.4487 307.5350637  +6.3704201     7738.699     13110.99     14312.87      77.7541      155.632     311.0783      1.862     4.45      842.651     54.84897      943.953        43     1.767     1.077 -38.20   0
       143    704.3934    796.7795 307.6169313  +6.3640884     19674.89     33461.66     36523.76      77.6302     155.3843     310.9854      1.828     4.43     845.9561     54.84897     2544.076        58     1.805     1.164 -38.27   3
       144    698.1117    793.2543 307.6196583  +6.3653333     81152.12       133775     142524.1     78.00134     155.5082     311.2949      1.780     4.52     845.8216     54.84897        10276        88     1.820     1.150 -39.03   3
       145    342.9744    794.0745 307.7671391  +6.3530515      18712.3     31801.64     33848.74      77.6302     155.5082     311.1402      1.790     4.57     847.3068     54.84897     2426.891        56     1.800     1.106 -40.94   0
       146    404.8622    791.9371 307.7415058  +6.3560184     20195.51     33460.38     35557.25     78.00134      155.632     311.2021      1.758     4.51     846.8188     54.84897     2601.618        54     1.757     1.082 -38.11   0
       147    392.6384    794.1601 307.7465085  +6.3546888     1258.595     1990.905     1828.016      77.7541     155.6938     311.0474      1.657     5.09     846.9683     54.84897     147.4936        16     1.325     0.813 -55.70   0
       148    201.8541    795.3704 307.8257086  +6.3477590     419.2076      756.928     1254.381      77.7541     155.6938     311.0783      2.302     4.26     847.0167     54.84897     80.14001         5     1.215     0.425  11.60   0
       149    941.9411    791.0993 307.5184505  +6.3743988      2004.05     3333.153     3788.305      77.7541      155.632     311.2949      1.778     4.91     841.5471     54.84897     256.6117        22     1.605     0.907 -36.71   0
       150    232.9110    778.4441 307.8133777  +6.3557960     768313.4      1875072      2117504     78.00134     155.5701     311.2021      2.419    13.93     846.9938     54.84897     63758.52       632     2.567     2.103 -41.11   4
       151    898.3210    788.8305 307.5366449  +6.3738746     6147.581      10301.2     11462.47     77.87782     155.6938     311.1402      1.811     4.43     842.4839     54.84897     798.9468        32     1.628     0.991 -40.91   0
       152    871.4271    789.6765 307.5477878  +6.3726241     689.0683     1212.475     1155.238     77.87782     155.5701     311.1402      2.058     5.88     842.8636     54.84897     87.89557        11     1.368     0.711 -24.99   0
       153    638.8243    787.8588 307.6444645  +6.3655704     5962.192     9790.558     10019.38     77.63019      155.632     311.0164      1.735     4.41     845.6738     54.84897     802.0998        36     1.736     0.966 -34.74   0
       154    427.8257    785.6737 307.7321778  +6.3593778     1573.356     2285.145     2202.116      77.6302     155.5082     311.1093      1.603     6.23     846.4463     54.84897     175.9712        16     1.420     0.768 -41.05   0
       155    152.6300    785.3820 307.8464885  +6.3502225     694.1057     961.5947     858.4418      77.6302     155.4463     311.1093      1.589     5.77     845.9473     54.84897     107.8583         8     1.292     0.725 -38.51   0
       156   1020.9774    780.9802 307.4859576  +6.3812234     620.2272     1281.308     1659.647      77.7541     153.8277     273.1104      2.177     4.83     838.0646     54.84897     109.3265         7     1.381     0.479 -54.53  16
       157    867.6513    779.7805 307.5496862  +6.3765841     641.7185     1009.874     1040.053     77.50608     155.6938     310.9854      1.792     4.27     842.7946     54.84897     78.87518         6     0.759     0.684 -32.31   0
       158    592.5596    779.5482 307.6639592  +6.3674479     830.1793     1048.011     1573.138     78.00134     155.6938     311.1711      1.385     4.89     845.4183     54.84897      121.717         7     1.014     0.668 -49.52   0
       159    142.9415    778.7207 307.8507363  +6.3526462     892.1309     1480.767     1846.054     78.12466      155.632     311.1402      1.688     5.92     845.5643     54.84897     167.6327        14     1.604     0.615 -35.34   0
       160    674.1135    777.9059 307.6301393  +6.3708656     2327.643     3540.709     4018.654     78.00134     156.0644      311.233      1.630     4.24     845.3489     54.84897     308.2758        21     1.462     0.869 -36.37   0
       161    118.1557    778.6718 307.8610324  +6.3518296     1050.029     1627.789      1819.08     77.87782      155.632     311.2021      1.830     5.97     845.0399     54.84897     132.0226        14     1.386     0.723 -34.56   0
       162    407.7857    774.5794 307.7408732  +6.3632845     49443.97     81895.65     87539.38      77.7541     155.3224     311.0783      1.790     4.39     846.0401     54.84897     5986.291        77     1.837     1.139 -39.19   0
       163    950.8296    775.7021 307.5152716  +6.3810548     626.8785     914.8163      1021.46     78.12466     155.3843     311.2021      1.484     4.31     840.7361     54.84897     93.73657         7     0.884     0.600 -30.87   0
       164    525.5560    773.6198 307.6919884  +6.3676435     6622.322     10805.63      11493.3     77.50609     155.5082     311.0164      1.747     4.18     845.3694     54.84897     881.8586        35     1.629     1.015 -35.88   0
       165    442.3365    772.2540 307.7266002  +6.3654078     4035.693     6711.313      7304.38     78.00134     155.5701     311.1402      1.804     4.53     845.7332     54.84897     496.4619        31     1.629     0.989 -40.44   0
       166    770.7568    770.3600 307.5902484  +6.3772253     10591.69     17524.95      18322.5      77.7541      155.632     311.0474      1.784     4.43     844.3141     54.84897     1418.859        44     1.752     1.037 -37.08   0
       167    438.8743    765.7736 307.7282554  +6.3679673     2014.059     3362.604     4132.814      77.6302     155.5701     311.1402      1.734     4.77     845.4404     54.84897     261.6443        22     1.571     0.860 -45.19   0
       168    792.6212    764.3848 307.5813659  +6.3804262      1268.29     2240.229     2398.137      77.7541     155.3843     311.0783      1.832     5.57     843.6777     54.84897     166.2316        17     1.442     0.896 -28.35   0
       169    120.5981    759.6744 307.8606564  +6.3597567     2683.175     4557.974     5444.402     77.50609     155.0742     311.0474      1.814     4.53     844.6575     54.84897     399.3524        25     1.628     0.874 -35.87   2
       170    136.7691    762.3816 307.8538489  +6.3591848     2844.164     4984.603     5596.667      77.6302     155.4463     311.0474      1.959     4.78      844.994     54.84897      347.246        31     1.748     1.034 -40.96   2
       171    128.5416    762.1375 307.8572743  +6.3590078     10705.69     17911.34     20050.03     78.12466     155.5701     311.2021      1.823     4.51     844.8492     54.84897      1316.42        49     1.811     1.100 -34.51   3
       172    960.7415    763.7167 307.5115538  +6.3863361     554.1593     872.3659      904.114     78.12466      155.632      311.233      1.582     4.37     840.1084     54.84897     88.01953         5     0.777     0.699 -67.28   0
       173    916.2631    758.8547 307.5301916  +6.3868543     5847.923     9889.313     10705.29     78.12466     155.5701     311.1402      1.820     4.44      841.253     54.84897     747.6457        33     1.671     1.009 -36.95   0
       174    965.6401    758.9755 307.5096770  +6.3884580     1328.374     2410.822     2961.448     77.63019     155.4463     310.9545      1.928     5.15     839.8625     54.84897     172.1271        18     1.368     0.966 -20.65   0
       175    671.5811    756.5895 307.6319036  +6.3795831      1487.26     2204.702     2624.736      77.6302     155.3224     311.0474      1.664     4.69     844.6716     54.84897     199.5485        13     1.217     0.710 -41.83   0
       176    558.4536    755.8669 307.6789179  +6.3760805     2090.661     3529.462     3544.977     78.00134     155.5701     311.0783      1.788     4.57     844.5522     54.84897     260.5731        22     1.564     0.867 -35.41   0
       177    406.8690    755.1782 307.7419041  +6.3712652     1065.718     1997.697     1985.124     77.63019     155.5701     311.1402      1.851     6.13     845.1657     54.84897     157.2067        13     1.428     0.739 -35.90   0
       178    689.8789    753.8311 307.6243953  +6.3813366     608.1859     762.6649     595.4066     77.87782      155.632     311.1402      1.410     5.17     844.5195     54.84897     87.01581         5     1.144     0.661  18.76   0
       179    120.6692    753.1273 307.8608469  +6.3624626     1745.227     3011.941     3755.643     78.12466     155.7556     311.1711      1.905     5.21     844.4935     54.84897     225.2441        18     1.604     0.771 -33.60   0
       180    970.5624    750.4138 307.5079177  +6.3921584     1650.739      2786.86     3397.654     77.50609     155.4463     310.8926      1.892     4.98     839.5814     54.84897     230.7491        21     1.640     0.833 -26.58   0
       181    910.3917    750.9955 307.5328926  +6.3899030     2780.205     4622.391      4977.26     77.38177     155.3224     311.0164      1.789     4.47     841.1763     54.84897     341.9368        24     1.583     0.865 -37.50   0
       182    662.9423    750.2223 307.6357048  +6.3819223     1321.026     2288.389     2686.191      77.6302      155.632     310.9854      1.702     5.54     844.4454     54.84897     195.8792        14     1.592     0.687 -41.31   0
       183    940.0450    750.3386 307.5205968  +6.3911676     2630.378     4359.355     4536.022     77.87782     155.5701     311.2639      1.815     4.56     840.2947     54.84897      363.424        25     1.578     0.955 -27.93   0
       184    809.9031    748.6445 307.5747127  +6.3875057     863.1995     1251.682     1291.728     78.00134     155.5701     311.3258      1.548     4.70      842.913     54.84897     137.0894         8     1.364     0.460 -42.57   0
       185    235.3430    745.0427 307.8134888  +6.3696706     1704.862     2976.801     3768.299     77.87782     155.5701     311.1711      2.029     4.79     846.1384     54.84897     210.8782        21     1.430     0.996 -39.45   0
       186    886.0486    745.3379 307.5431931  +6.3914237     565.7877     869.3627     922.8833     78.00134     155.5701      311.233      1.527     3.79     841.8065     54.84897     81.57166         5     0.877     0.473  -0.62   0
       187    673.8040    739.2351 307.6315603  +6.3868242     759.8973     1846.644      2035.63     77.13256     155.5082     310.9545      2.637     7.55     844.0855     54.84897     167.5103        17     2.348     0.680 -67.24   0
       188    150.4892    740.5350 307.8488844  +6.3686690     703.1801     1245.777     1211.143     77.87782     155.8174     311.2021      1.892     4.97      844.634     54.84897     118.5874         7     1.378     0.508 -57.45   0
       189    928.7902    740.4072 307.5256030  +6.3948918     868.6223     1454.728     1021.262     77.50608     155.4463     311.0474      1.760     6.05     840.1595     54.84897     146.6075        12     1.337     0.770 -27.11   0
       190    901.8966    739.1554 307.5368162  +6.3945078     1089.798     1824.044     2367.457     78.00134     155.5701     311.3258      1.892     5.86     841.1072     54.84897     145.3663        15     1.464     0.945 -23.76   0
       191    954.8983    738.2704 307.5148291  +6.3966486     2187.184     3609.169     3994.583     77.87782     155.8174     311.2021      1.761     4.61     839.6553     54.84897     255.4495        25     1.515     1.041 -27.82   0
       192    996.8918    731.5338 307.4976096  +6.4008364     1495.558     2565.435     2401.627     78.00134     155.8174     311.1711      1.800     4.62     838.8809     54.84897     186.3937        19     1.300     1.086 -28.83   0
       193    465.7085    732.9227 307.7182097  +6.3824358      513.715     694.8349     874.9736      77.7541     155.8792     311.2021      1.459     4.04     843.7755     54.84897     107.7405         5     1.013     0.460 -26.53   0
       194    395.4285    732.7787 307.7474068  +6.3801296      624.759     761.0867     809.2538     77.38177     155.3843     311.0474      1.588     4.51     844.5268     54.84897     93.01721         5     1.193     0.484 -32.59   0
       195    797.8553    730.2903 307.5803298  +6.3946810     1018.518     1711.328     1887.108     77.87782     155.5082     311.2949      1.816     5.23     842.4931     54.84897     142.9131        13     1.261     0.957 -38.56   0
       196    622.8337    731.3793 307.6529951  +6.3883562     557.5394     801.8815     1308.494     77.50608     155.4463     311.0164      1.555     4.27      843.875     54.84897     74.81104         6     0.777     0.669  44.67   0
       197    907.2060    729.1360 307.5349448  +6.3988232     1769.798      1810.18     1917.192     77.38177     155.3843     310.9545      0.655     1.40     840.6521     54.84897     837.2944         5     0.589     0.379 -71.84   0
       198    884.0974    727.1716 307.5446096  +6.3988601     1281.476     2553.478     2975.448     78.12466     155.3843     311.1711      2.011     5.04     841.4576     54.84897     173.5938        18     1.404     0.992 -52.54   0
       199    858.8450    722.5568 307.5552532  +6.3999195     861.1688     1523.185     1539.997     78.00134      155.632     311.1093      1.779     4.22     842.0862     54.84897     137.7717        10     1.279     0.562 -24.51   0
       200    841.3461    718.6738 307.5626517  +6.4009364     1529.704     2253.633     2543.845     77.87782      155.632     311.1402      1.617     4.45     842.0824     54.84897     214.6291        14     1.284     0.684 -37.57   0
       201     40.1636    717.4301 307.8954847  +6.3744837     2336.696     4078.785     4499.176      77.6302     155.3843     311.0164      1.884     5.49     843.2862     54.84897     283.4165        24     1.673     0.890 -36.85   0
       202    103.4115    714.8442 307.8693015  +6.3776881     642.8127     1147.975     1307.417     77.50608     155.5082     310.8926      1.862     3.39     843.2329     54.84897     92.51776         5     0.748     0.444 -69.28   0
       203    695.6104    709.3726 307.6235002  +6.3998880     560.5851     725.9471     619.0498      77.6302     155.4463     311.0474      1.504     5.20      843.099     54.84897     73.66101         6     1.337     0.571 -49.83   0
       204    652.8883    706.1693 307.6413537  +6.3997762     5658.235     9445.224     9632.846     78.12466     155.4463     311.1093      1.781     4.72     843.1376     54.84897     721.6134        33     1.651     0.974 -36.85   0
       205    510.6101    705.5835 307.7004740  +6.3952359     769.7995     1090.081     801.6475      77.7541     155.3843     311.0474      1.719     5.72     843.0004     54.84897     101.6024        11     1.418     0.651 -59.33   0
       206    599.6359    705.2750 307.6635042  +6.3983564     1307.526      2249.09     2606.839     77.87782     155.6938     311.2021      1.784     5.09     843.2303     54.84897     167.3142        16     1.372     0.834 -48.17   0
       207    521.5664    705.8265 307.6959148  +6.3955041     616.9948     1076.192     960.4413     77.50608     155.3843     310.9545      2.003     4.22      842.989     54.84897     126.3977         5     0.973     0.521 -39.40   0
       208    626.7542    701.7150 307.6523586  +6.4007377      1876.69     3504.296     4333.255     78.00134     155.5701     311.1711      2.144     5.54     843.1324     54.84897     237.8716        29     1.828     1.013 -36.89   0
       209    115.9383    701.9488 307.8645319  +6.3834360     3387.857     5647.021      5589.87     78.00134     155.5701     311.1711      1.715     4.43     842.8966     54.84897     453.8619        25     1.608     0.872 -43.62   0
       210    990.0118    701.5054 307.5014681  +6.4130064     2232.547     3807.541     4368.025      77.7541     155.3843     310.9545      1.853     4.88     838.4516     54.84897     269.6813        24     1.605     0.912 -33.95   0
       211    302.4984    702.0049 307.7870392  +6.3897065     599.5077     855.1296      1017.47      77.7541     155.3224     310.8306      1.775     5.02     843.5743     54.84897     78.23462         7     1.142     0.625 -45.71   0
       212    237.7815    701.5665 307.8139354  +6.3877056     518.8486     819.8275     1106.505     77.50608     155.4463     310.9854      1.637     3.42     843.5652     54.84897      86.9729         5     1.201     0.282 -54.05   0
       213    769.7612    698.2646 307.5930693  +6.4069636     18587.17     30844.39     32474.99     78.00134     155.5701      311.233      1.774     4.40     842.3633     54.84897     2460.743        51     1.732     1.079 -38.20   0
       214    899.6771    698.0850 307.5391078  +6.4113935     3455.552     5685.058     6078.115     78.12466     155.9409     311.2639      1.735     4.29     840.0788     54.84897     499.3186        27     1.640     0.879 -42.97   0
       215    468.8017    698.4614 307.7180791  +6.3967704     1179.369     2073.148     1826.836     77.38177     155.4463     310.8926      1.768     4.63     842.8324     54.84897     175.1044        15     1.334     0.858 -50.80   0
       216    497.3798    698.1047 307.7062202  +6.3978792     1007.869     1546.324     1347.668     77.87782     155.4463     310.9854      1.602     4.91     842.8073     54.84897     142.1091        11     1.120     0.772 -54.69   0
       217    632.8271    692.0963 307.6501576  +6.4049137     775.9236     1441.585     1875.805     78.12466     155.3843     311.1093      2.331     6.26     842.8449     54.84897      125.762        12     1.749     0.630 -48.94   0
       218    243.2279    691.7885 307.8120014  +6.3919270     5484.015     9324.166     10394.51     77.63019     155.4463     311.0783      1.836     4.57     842.8904     54.84897      734.979        37     1.749     1.006 -41.08   0
       219    650.2596    691.0120 307.6429524  +6.4059470     6489.379     11090.64     11986.72     77.38177     155.5082     310.8926      1.807     4.63     842.7247     54.84897     802.0763        34     1.691     0.962 -38.98   0
       220    345.0507    691.1190 307.7697291  +6.3956357     518.0162     681.6316     603.0932     78.00134     155.6938     311.1711      1.743     4.90     842.8929     54.84897     108.3945         6     1.309     0.518 -19.71   0
       221    910.1062    683.4292 307.5352642  +6.4177951     1115.311     1676.456     1726.497     78.12466     155.3843     311.0783      1.601     5.12     839.3053     54.84897     135.1984        13     1.267     0.721 -38.11   0
       222    722.1426    679.3766 307.6134811  +6.4131655     3167.757     5473.418     6061.519      77.6302      155.632     310.9854      1.879     4.37     842.2048     54.84897     399.4619        27     1.611     0.970 -45.14   0
       223    677.2958    679.9539 307.6320913  +6.4114214      895.772     1478.025     1807.323     78.00134     155.5701     311.3258      1.836     5.27     842.2542     54.84897     148.3316        11     1.411     0.624 -46.23   0
       224    988.2937    676.2208 307.5030243  +6.4233903     8014.329     13665.64     14335.92     77.87782     155.4463     311.0164      1.807     4.49     838.0018     54.84897     945.8178        43     1.768     1.095 -36.99   0
       225    926.7067    676.6201 307.5285952  +6.4211630     2203.989     3598.917     3641.308     77.87782     155.4463     311.0164      1.768     4.74      838.517     54.84897      300.504        22     1.621     0.881 -48.38   0
       226      7.2165    675.7812 307.9105706  +6.3905681      1697.65     3247.362     3553.294      77.7541     155.3843     305.2364      2.016     6.30     842.3355     54.84897     211.5975        27     1.855     1.035 -24.16  16
       227     65.6612    670.8661 307.8864601  +6.3945728     23256.49     39191.11     41890.42     78.00134     155.5701     311.1711      1.801     4.39     842.0959     54.84897     2770.653        63     1.817     1.156 -38.62   0
       228    526.8784    671.9562 307.6948421  +6.4096692     1679.056     2652.415     2378.848     77.87782      155.632     311.2021      1.620     5.52     842.0731     54.84897     225.2288        17     1.514     0.745 -36.75   0
       229    495.2976    669.3168 307.7080490  +6.4096969     1304.749      1763.58      2016.21     78.00134     156.0027      311.233      1.582     5.69     842.0727     54.84897     201.3221        16     1.626     0.699 -39.22   0
       230    916.3582    668.3688 307.5331693  +6.4242238     926.9624     1391.199     667.7496     77.50609     155.5082     310.9854      1.726     5.72     838.7332     54.84897      131.839        12     1.611     0.571 -40.44   0
       231    535.8576    665.7968 307.6913184  +6.4125146     814.7261     1230.647      1342.58     77.38177     155.5082     310.9235      1.676     4.62     841.9294     54.84897     120.4074         8     1.306     0.464 -43.52   0
       232    711.5779    663.1374 307.6184123  +6.4195168     3135.802     5124.582     5190.404      77.6302      155.632     311.0783      1.757     4.62     841.7526     54.84897     429.5068        25     1.607     0.935 -40.38   0
       233    733.8102    661.3713 307.6092358  +6.4209923     3752.868     6207.938     6365.622     77.50608     155.4463     311.0164      1.732     4.39     841.6954     54.84897     507.0735        27     1.669     0.864 -36.83   0
       234    565.0233    659.4062 307.6794168  +6.4161342     2933.189     4865.075     5192.728     77.50608     155.3843     311.0474      1.792     4.62     841.8836     54.84897     358.9195        25     1.560     0.928 -42.77   0
       235    401.3614    659.4186 307.7474012  +6.4106226     1185.954     1988.137     2218.972      77.6302     155.4463     310.9545      1.813     5.26     841.5754     54.84897     188.1774        18     1.532     0.841 -35.10   0
       236    225.8377    658.8000 307.8203324  +6.4049625     1591.696     2567.541     2712.962     77.00764     155.3843     310.9545      1.705     5.15     841.2612     54.84897     212.8983        18     1.575     0.724 -42.77   0
       237   1006.5117    657.6688 307.4960744  +6.4316612     4463.387     7345.274     7579.777     78.12466     155.8792     311.1711      1.773     4.42     837.3557     54.84897     541.2191        30     1.594     0.993 -38.30   0
       238    309.0604    658.1753 307.7857839  +6.4080265     1490.547     2558.218     2780.106      77.6302      155.632     311.0474      1.798     5.00     841.2956     54.84897     216.8698        19     1.647     0.769 -35.06   0
       239    971.9987    656.4609 307.5104521  +6.4310046     7425.084        12399      12961.8     77.38177     155.4463     310.8926      1.763     4.29     837.6752     54.84897     901.0331        39     1.631     1.071 -40.11   0
       240   1021.4139    654.7845 307.4899797  +6.4333510     733.3658     1248.296     1446.779      77.7541     150.3462     267.4471      1.947     6.89     837.1061     54.84897     116.8002        13     1.600     0.832 -29.75  24
       241    692.0938    655.0351 307.6267770  +6.4222085     1051.646     1782.306     2057.141     78.12466     155.5082     311.2639      1.851     5.28     841.5237     54.84897     149.6626        11     1.176     0.674 -38.26   0
       242    130.4157    649.7639 307.8602723  +6.4054735     21667.94     36375.19      38249.4      77.6302     155.4463     310.9854      1.794     4.53     841.2951     54.84897     2671.809        52     1.768     1.077 -40.53   0
       243     83.2393    652.9570 307.8797609  +6.4025618     835.8611     1218.505     1764.618      77.7541      155.632     311.0474      1.618     4.29     841.6949     54.84897     124.5385         9     1.049     0.681 -28.78   0
       244    417.1930    650.7098 307.7411168  +6.4147518     2638.913      4619.11     5063.412      77.6302     155.3224     310.9545      1.863     4.58     841.3959     54.84897     406.2837        26     1.711     0.876 -39.50   0
       245    798.5598    650.5565 307.5826991  +6.4276307     1011.833     1881.488     1760.059      77.7541      155.632     311.0474      1.780     5.43      840.863     54.84897     155.7396        11     1.469     0.565 -27.05   0
       246    350.5014    644.0774 307.7690425  +6.4152445     700.5726     1168.504     1396.033     77.63019     155.8792     311.2021      2.088     4.77     841.0132     54.84897      103.423         8     1.141     0.566 -34.68   0
       247    966.9194    639.4321 307.5131298  +6.4378666     6089.758     10958.74     12165.56     77.87782     155.5701     311.1402      1.945     4.33     837.3737     54.84897     745.3677        44     1.688     1.271 -41.70   0
       248    560.4072    634.6729 307.6821620  +6.4261925     44154.95     72744.67     77794.42      77.6302     155.1984     311.0783      1.778     4.54     841.3201     54.84897     5694.974        73     1.806     1.132 -39.47   0
       249     11.7503    638.4659 307.9099430  +6.4061298     1110.653     1603.873     1402.638     77.87782     155.5082     311.1402      1.553     4.64     842.1786     54.84897      159.423        12     1.346     0.601 -36.46   0
       250   1021.9852    634.6516 307.4904131  +6.4416841     80007.41       131998     137002.5     77.38177     145.5308     259.5927      1.763     4.72     836.3969     54.84897     10129.49        66     1.688     1.142 -49.48  24
       251    925.3404    635.7935 307.5305241  +6.4379767     476.9666     613.3051     305.3155     77.38177     155.5082     310.9545      1.498     4.61     838.0065     54.84897     88.89288         6     1.206     0.500 -43.52   0
       252    204.0978    635.6997 307.8301385  +6.4137679     731.1205     1247.921     1325.327     78.00134     156.0027     311.0164      1.799     4.94     840.6993     54.84897     107.6456         8     1.184     0.584 -12.02   0
       253    520.2039    634.6138 307.6988649  +6.4248650     783.3044     1160.902     1022.013      77.6302     155.3224     311.0474      1.495     4.43     841.2935     54.84897     128.2804         9     1.147     0.571 -43.21   0
       254    785.0195    634.1908 307.5888704  +6.4339347     504.3034     692.1253     421.5156      77.6302     155.3843     311.0164      1.538     4.49     840.3508     54.84897     76.25952         6     1.509     0.379 -33.39   0
       255    168.0056    631.2500 307.8452803  +6.4143874     2456.857      4257.79     4356.201     77.38177     155.4463     310.7997      1.817     4.89     840.5864     54.84897     314.9772        23     1.557     0.873 -37.09   0
       256    490.6779    630.9150 307.7112541  +6.4253991     584.5103     766.0498     574.6877     78.00134     155.9409     311.2639      1.303     3.35     841.2194     54.84897      107.639         5     0.937     0.347 -43.85   0
       257     60.4079    625.6644 307.8901624  +6.4130603     1174.469     2060.546     2199.583     77.50609     155.3224     311.0164      1.733     5.90     841.4855     54.84897     193.3785        14     1.525     0.642 -37.51   0
       258    457.7080    618.4374 307.7253681  +6.4294422     56383.23      92874.8     98472.55     78.12466     155.5701     311.2021      1.805     4.52     840.7376     54.84897     7027.573        84     1.818     1.177 -38.88   0
       259      1.8463    619.5282 307.9146941  +6.4136148     1431.153     1919.574     1909.644     73.68567     131.2714     242.4895      1.394     4.33     842.2946     54.84897     224.2753        11     1.068     0.667 -62.40  24
       260    132.1948    613.4893 307.8607525  +6.4205124      1409.25     2398.023     2111.385     77.50608     155.3224     310.8926      1.811     7.14     840.3716     54.84897     168.2883        18     1.529     0.937 -32.10   0
       261    411.4442    610.8177 307.7448418  +6.4310313      832.283      1376.75     1402.074      77.6302     155.5082     310.9235      1.695     5.78      840.195     54.84897     128.3958        12     1.634     0.575 -38.87   0
       262    926.9966    611.2845 307.5306534  +6.4481532      513.686     951.2774     1365.396     77.50608     155.2604     310.8926      2.003     4.86     837.6596     54.84897     99.43298         8     1.319     0.508 -22.86   0
       263    603.5603    610.3843 307.6650483  +6.4376729     800.1436     1291.361     952.1965      77.6302     155.4463     310.9235      1.570     4.99     840.7462     54.84897     116.1247         9     1.471     0.479 -39.60   0
       264    303.1942    607.7767 307.7899116  +6.4286402     1876.614     3224.159     3380.579     77.50608     155.3843     311.0474      1.876     5.20     840.1213     54.84897     241.2463        24     1.653     0.924 -38.17   0
       265    643.5922    615.2262 307.6482562  +6.4370185     822.2224     1151.867     1336.814      77.6302     155.4463     311.0164      1.639     3.74     840.6086     54.84897     143.8831        11     1.309     0.662 -55.53   0
       266    455.1445    606.3135 307.7268391  +6.4343624     752.9097     1355.736      2014.57     78.00134     155.5701     311.3258      2.074     5.83     840.3836     54.84897     96.31372        11     1.186     0.807 -18.08   0
       267    729.7693    601.9958 307.6128982  +6.4453757     4806.501     7710.425     8201.046     77.50608     155.5082     310.9545      1.709     4.34     840.0547     54.84897     608.3154        27     1.566     0.904 -39.53   0
       268    783.3016    597.2493 307.5908177  +6.4491320      12503.6     20464.18     21458.04     78.00134     155.5701     311.3567      1.749     4.63     839.2694     54.84897     1475.746        42     1.688     1.016 -40.32   0
       269   1000.6212    597.8975 307.5005130  +6.4561468     987.3131     1640.449     1261.542     77.87782     155.4463     310.9854      1.681     5.79     835.3531     54.84897     149.0503        13     1.460     0.646 -35.86   0
       270   1022.6866    596.4745 307.4913935  +6.4574729     1667.811      2517.72     3044.372     77.38177     137.6436     249.5719      1.709     4.81     834.6184     54.84897     231.4841        20     1.449     1.027 -50.19  24
       271    525.5887    597.0352 307.6978861  +6.4405639     1053.094     2008.342     2230.049     77.50608     155.4463     310.9545      2.079     6.21     840.2498     54.84897     130.0476        15     1.470     0.739 -44.37   0
       272    607.2563    595.1993 307.6640208  +6.4440676     2628.087     4399.982     4669.667     77.25727     155.3224     310.8926      1.757     4.66     840.1328     54.84897     308.9196        24     1.594     0.847 -38.13   0
       273     28.3894    595.6143 307.9044732  +6.4243868     702.1945     881.3019     895.4771      77.7541     155.3843     311.0783      1.611     4.84      841.577     54.84897     116.4191         8     1.135     0.736 -43.07   0
       274    923.9554    591.5474 307.5325750  +6.4562018     1002.437      1805.01     1720.492     78.00134      155.632     311.1711      1.786     5.90     837.2507     54.84897     129.4496        13     1.645     0.596 -30.92   0
       275    365.9112    589.0465 307.7644867  +6.4384879     935.2191     1407.391     1269.145     78.00134     155.5082     311.2949      1.541     5.12     839.6337     54.84897     134.9666        13     1.375     0.735 -43.58   0
       276    219.5000    588.9094 307.8253119  +6.4336088     1332.212      2333.91     2995.655     78.00134     156.0027     311.1402      2.108     4.57     839.5891     54.84897     172.6179        15     1.235     0.968 -42.08   0
       277    184.4551    589.1875 307.8398604  +6.4323115     645.7678     1002.708     1914.029     77.38177     155.5701     310.8616      1.780     4.36     839.8406     54.84897     102.1856         7     1.187     0.457 -39.37   0
       278    859.2748    580.3637 307.5598192  +6.4586526     2618.049     4291.781     4941.892     77.87782     155.6938     311.2021      1.769     4.59     838.0449     54.84897     356.6685        21     1.544     0.816 -31.76   0
       279    154.3703    580.0809 307.8526636  +6.4350564     629.2451     1076.423     803.8132     77.87782     155.5082     311.1711      1.811     6.21     840.0292     54.84897      93.0376         8     1.370     0.791 -19.66   0
       280    817.9420    577.9407 307.5770714  +6.4582674      2260.93     3821.171     4648.193     78.00134     155.5701     311.2021      1.793     4.65     838.5411     54.84897      305.529        22     1.482     0.919 -35.42   0
       281    798.6858    569.1337 307.5853654  +6.4612584     142758.4     235494.6     250241.5     78.00134     155.8792      311.233      1.774     4.44     838.6656     54.84897     18307.99       127     1.842     1.244 -40.40   0
       282    789.0598    573.9500 307.5892036  +6.4589466     2292.613     3920.534     5205.748     78.00134     155.5701      311.233      1.913     4.54     838.8519     54.84897     330.9023        24     1.529     0.927 -36.81   1
       283    246.1884    572.7694 307.8147673  +6.4411738     6929.771     11965.98     12771.12     77.50608     155.3843     311.0783      1.860     4.72     839.3942     54.84897     891.0283        39     1.758     1.049 -37.65   0
       284    731.7356    573.9641 307.6130180  +6.4570173     692.7203     1291.336     2123.341     77.87782     155.5701     311.2021      1.981     4.36      839.456     54.84897      105.452         7     1.237     0.437 -33.27   0
       285    180.3058    567.3578 307.8423174  +6.4411856     52202.84     88675.38     95978.77     78.00134     155.5701     311.2949      1.850     4.46     839.7017     54.84897     6222.877        86     1.891     1.213 -39.77   0
       286    104.3023    563.5781 307.8740168  +6.4401803     5564.635     9286.736     9617.719     77.87782     155.3843     310.9854      1.794     4.41     840.1633     54.84897     714.5114        34     1.646     1.001 -38.53   0
       287    969.7819    560.5733 307.5145691  +6.4705274     1299.957     2007.961     2082.522      77.6302     155.4463     311.0783      1.646     4.59     834.6169     54.84897     191.4952        11     1.117     0.705 -52.08   0
       288    990.0336    559.5526 307.5061895  +6.4716270     657.1778      1149.51     1283.113     77.63019      155.632     311.1093      1.923     5.10     833.7044     54.84897     100.0707         8     1.397     0.527 -30.25   0
       289    835.1647    556.5202 307.5706314  +6.4676905     4031.252     6657.747     6169.977     77.87782     155.6938     311.2021      1.744     4.78     838.0577     54.84897     548.8903        26     1.589     0.887 -37.56   0
       290    218.4846    559.3427 307.8267267  +6.4457836     685.0633     1089.008     1349.272     78.00134      155.632     311.2639      1.897     4.45     838.9773     54.84897     115.7243         6     1.204     0.468 -34.10   0
       291    353.6807    554.4951 307.7707262  +6.4523434     15380.73     25700.97     27607.31      77.7541     155.8792     311.2639      1.806     4.37     838.7583     54.84897     1873.117        49     1.738     1.095 -39.17   0
       292    444.1215    554.6620 307.7331490  +6.4553203     698.2989     946.0867     847.2022     78.12466     155.6938     311.2021      1.461     4.70     838.7517     54.84897     98.39746         6     0.938     0.667 -68.34   0
       293    156.3466    552.9180 307.8527555  +6.4463395     1615.977     2872.364     3606.138     78.00134      155.632      311.233      2.127     7.95     839.9768     54.84897     224.4579        24     2.339     0.808 -35.78   0
       294    789.1583    549.8166 307.5899686  +6.4689158     5132.604     8726.897     9159.947     77.50608     155.4463     310.9545      1.794     4.78     838.5101     54.84897     702.8992        35     1.678     1.015 -38.69   0
       295    520.0453    549.4528 307.7017822  +6.4600262     5760.491     9487.404     9728.143     78.00134      155.632     311.2021      1.753     4.70     838.3206     54.84897     719.6451        32     1.688     0.935 -40.25   0
       296    231.0293    550.8379 307.8218010  +6.4497187     935.0153     1748.405     1766.561      77.6302     155.3843     311.0474      1.818     5.63     838.7601     54.84897     138.4445        11     1.426     0.628 -30.51   0
       297     93.1664    550.3193 307.8790885  +6.4452791     865.5587     1265.091     1334.565     77.87782     155.5701     311.1711      1.642     4.98     840.1002     54.84897     145.0082        10     1.331     0.796 -20.46   0
       298    378.3916    545.8594 307.7607502  +6.4567419     1211.705     1804.191     1662.573     77.38177     155.4463     310.8926      1.608     4.41     838.5583     54.84897     173.2274        15     1.319     0.794 -50.99   0
       299    166.9891    542.5969 307.8486813  +6.4509607     5996.376     9925.407     10420.13     77.63019     155.3224     311.0474      1.803     4.61     839.7465     54.84897     716.9108        35     1.720     0.966 -39.21   0
       300    564.8247    542.5079 307.6834115  +6.4643999     2233.702     3897.784     4038.881     78.12466     155.3843     311.0164      1.865     5.29     837.9514     54.84897     278.0892        23     1.640     0.860 -29.73   0
       301    805.7558    541.9307 307.5833365  +6.4727290     1322.035     2296.999     2400.934     78.00134     155.5701     311.2021      1.740     5.41     838.1218     54.84897     159.7573        15     1.506     0.711 -43.07   0
       302    262.2832    539.0009 307.8092149  +6.4556607     75927.24     130942.7     138511.3     77.25726     155.1363     310.8926      1.833     4.55     838.7579     54.84897     9388.575        94     1.882     1.207 -39.48   0
       303     38.6892    541.2221 307.9020248  +6.4471948     4379.624     7644.594     7832.101     78.00134     155.4463     311.0474      1.869     4.57     840.4495     54.84897     574.3681        34     1.700     1.063 -36.27   0
       304    552.1064    536.2512 307.6889047  +6.4665559     820.8088     1300.693     1401.301     77.87782     155.5082     311.3567      1.658     5.86     837.6182     54.84897     139.4158        12     1.726     0.559 -39.99   0
       305    246.1010    533.8392 307.8161107  +6.4572464     1294.911      1938.23     1896.156     78.00134     155.5082     311.3876      1.680     5.10     838.2965     54.84897     177.4169        16     1.416     0.772 -33.81   0
       306    961.7935    532.8004 307.5188138  +6.4817288     1379.037     2007.999      1962.74     77.38177     155.3224     310.9854      1.640     5.27     833.8724     54.84897     197.1158        15     1.378     0.750 -40.76   0
       307    785.3821    531.5420 307.5921477  +6.4763356     14483.35     23806.76     24808.18      77.6302     155.5701     310.9235      1.771     4.55     837.8346     54.84897     1851.814        47     1.713     1.068 -37.06   0
       308    489.0686    529.8442 307.7153078  +6.4670813     35723.49     65019.05     70889.18     78.00134     155.5701     311.2021      1.959     4.61     837.6009     54.84897     4169.947        82     1.928     1.302 -32.08   0
       309    639.6928    528.0670 307.6527910  +6.4728795     943.3297     1661.546     2198.456     77.87782     155.8174     311.2021      1.994     7.21      837.459     54.84897     121.9007        14     1.263     1.154  49.61   0
       310    201.6326    526.2233 307.8348398  +6.4588910     1689.667     2958.318     3615.579     77.50608     155.4463     310.9854      1.923     4.90     838.3134     54.84897     248.2529        22     1.579     0.908 -37.88   0
       311     36.7834    526.5060 307.9033116  +6.4532070     1142.335     1686.908     1263.132      77.7541     155.4463     311.0164      1.629     4.50     840.2891     54.84897     146.9157        13     1.285     0.725 -26.00   0
       312    649.0401    524.8320 307.6490159  +6.4745293     2654.153     4465.812     4893.692      77.6302     155.4463     311.0474      1.754     4.41     837.4076     54.84897      401.262        25     1.584     0.903 -38.95   0
       313    710.9929    523.8369 307.6233106  +6.4770208     1179.061     2071.407     2297.802     77.25727     155.4463     310.9545      1.847     4.55     837.8107     54.84897      171.696        17     1.318     0.878 -44.71   0
       314    659.1603    524.7865 307.6448129  +6.4748881     1205.557     1830.451      2393.78     77.50608     155.4463     310.9235      1.785     4.82     837.4859     54.84897     164.7584        11     1.283     0.583 -34.80   0
       315     68.7843    522.9905 307.8901363  +6.4557401     487.5402     982.1016     617.8201      77.7541     155.3843     311.0783      1.859     3.85     839.8485     54.84897     73.55475         5     0.827     0.514 -32.09   0
       316    387.0347    520.2824 307.7580173  +6.4675947     1429.565      2617.44     2583.026     78.00134     155.5701     311.1402      1.964     5.58     837.0851     54.84897     205.2285        17     1.534     0.727 -34.78   0
       317    318.1945    518.8912 307.7866627  +6.4658497     3364.184     5672.336     6140.226     77.63019     155.3224     310.9235      1.811     4.49     837.1242     54.84897     450.1101        27     1.668     0.890 -42.14   0
       318    133.3926    517.3393 307.8634868  +6.4602560     22782.96     38990.71     40928.55     77.38177     155.4463     310.9545      1.825     4.53     839.0762     54.84897     2746.784        57     1.792     1.127 -40.01   0
       319    498.1112    518.0964 307.7119446  +6.4722367     2017.965     3161.166     3827.817     78.00134     156.0027     311.2021      1.733     4.34     836.9967     54.84897     289.9736        19     1.452     0.819 -40.39   0
       320    861.1393    517.6182 307.5611384  +6.4846259     1297.662     2144.167     2398.176      77.6302     155.5701     310.9854      1.831     6.00     836.4331     54.84897     179.3328        14     1.385     0.730 -37.26   0
       321     98.4549    515.5857 307.8780596  +6.4598001     2321.213     3957.915       4573.8     77.38177     155.5701     310.8926      1.870     4.49     839.3361     54.84897     303.0906        26     1.667     0.924 -37.25   0
       322    335.8419    513.8736 307.7794996  +6.4685164     942.3082     1619.128     1589.754     77.87782     155.6938     311.2021      1.694     5.86     836.5878     54.84897      153.145        12     1.409     0.771 -51.21   0
       323    958.9355    512.1309 307.5206904  +6.4901686     4693.313     7769.446     7981.603     78.00134     155.6938     311.2021      1.713     4.53     833.2051     54.84897     585.4915        37     1.704     1.071 -36.21   0
       324    532.1633    504.5203 307.6982523  +6.4789882     1394.518     2272.232     2381.947     77.87782     155.6938     311.1711      1.763     4.45     836.2106     54.84897     212.0911        16     1.325     0.859 -39.99   0
       325      1.1522    500.9440 307.9189736  +6.4625577     1114.026     1536.314     1929.764      65.3785     120.8073     231.1063      1.322     3.96     840.5356     54.84897     292.8694         8     1.320     0.356 -87.87  24
       326    430.3762    498.5239 307.7407408  +6.4780392     37938.29     63428.62     67450.95      77.6302     155.5701     311.1402      1.813     4.47     836.2437     54.84897     4750.224        71     1.812     1.153 -39.59   0
       327    638.4435    498.2734 307.6543066  +6.4851406     10944.93     18062.32     19056.86     77.87782     155.6938     311.2021      1.766     4.42     836.2124     54.84897     1432.003        42     1.713     1.036 -39.07   0
       328    278.8041    498.1722 307.8037222  +6.4730774     790.0353      1424.96     1298.676     77.50608     155.4463     311.0164      1.934     6.06     835.8188     54.84897      112.872        12     1.483     0.695 -35.65   0
       329    195.5851    496.1217 307.8383633  +6.4711168     16641.16     29421.66     32079.54      77.6302     155.3843     311.0164      1.921     4.48     837.2867     54.84897     1943.391        62     1.830     1.317 -31.66   0
       330    161.2641    497.1818 307.8525857  +6.4695206     1471.437     2632.845     2515.296      77.6302      155.632     311.0164      1.843     5.51     838.0565     54.84897     193.3304        18     1.506     0.865 -44.79   0
       331    972.3584    496.5403 307.5156333  +6.4970562      957.905     1829.105     1997.467     78.00134      155.632     311.2639      1.831     5.09     832.0955     54.84897     158.6824        11     1.466     0.501 -38.47   0
       332    812.4461    496.1648 307.5820850  +6.4918523     1058.614     1557.191     1373.493      77.6302      155.632     311.0474      1.497     5.53     835.7694     54.84897      152.553        12     1.353     0.660 -46.60   0
       333    560.2711    494.9248 307.6868961  +6.4838959      2504.77     4383.052     4325.067     78.24779     155.7556     311.1711      1.789     4.87     835.6664     54.84897     326.5602        25     1.733     0.847 -38.42   0
       334    901.6066    495.1502 307.5450752  +6.4952603     656.7435     1088.443     1368.991     77.50608     155.4463     310.7997      1.900     4.78     834.4703     54.84897     110.3157         8     1.247     0.647 -48.81   0
       335    934.1855    492.1440 307.5316398  +6.4975932      4270.95     7299.243     7695.301     77.38177     155.5082     310.8926      1.780     4.62     833.4314     54.84897     528.1534        31     1.610     1.023 -33.52   0
       336    607.2421    490.5600 307.6675276  +6.4872773      5780.92     9814.286     10796.02      77.7541      155.632     311.0474      1.832     4.65      835.476     54.84897     731.3326        35     1.709     0.990 -39.75   0
       337     94.9424    490.8086 307.8803520  +6.4699126     1122.613     1982.985     2065.487     77.38177     155.5701     310.8926      1.957     5.27     838.7974     54.84897     151.8879        15     1.485     0.750 -51.73   0
       338    956.6260    484.4786 307.5225719  +6.5015102     3055.874       5130.7     5507.816     77.87782     155.5701     311.1093      1.799     4.46     832.2018     54.84897     384.1127        27     1.623     1.012 -43.01   0
       339    519.4254    481.7965 307.7043053  +6.4879434      6607.44     11232.52     12074.89     77.50608     155.3224     311.0164      1.835     4.67     835.1948     54.84897     783.8296        38     1.743     1.010 -39.63   0
       340    735.2626    482.2002 307.6146189  +6.4950293     555.4477     972.2645     1099.671     77.25727     155.3843     310.8306      1.855     4.30     836.1771     54.84897     96.76807         6     1.512     0.349 -42.96   0
       341    365.4323    481.9876 307.7682761  +6.4826803     2337.331      4014.48     4676.994     77.50608     155.3843     311.0783      1.944     4.63     834.4957     54.84897     301.7477        24     1.515     0.939 -43.96   0
       342    876.0360    477.6608 307.5562828  +6.5016256     2890.344     4831.048     5789.081     78.00134      155.632     311.1402      1.782     4.56     834.4723     54.84897     387.2244        27     1.666     0.880 -37.13   0
       343    529.0194    477.9847 307.7004470  +6.4898401      595.164     1076.342     1925.478      77.7541     155.3843     311.0783      1.977     3.61     834.9649     54.84897     100.8766         5     0.979     0.383 -59.64   0
       344    224.1959    477.6255 307.8270986  +6.4797199     562.5995     878.1764     728.1674     77.50608     155.3843     311.0164      1.465     3.41     836.0451     54.84897     86.81281         5     0.749     0.448 -17.68   0
       345    871.3922    474.4283 307.5583201  +6.5028048     487.6517     983.0867     1095.989      77.6302     155.4463     310.9854      2.199     4.96     834.4966     54.84897     67.37537         5     1.150     0.606  56.08   1
       346    883.5491    472.0000 307.5533501  +6.5042150     2017.859     3340.787      3221.74     77.25726     155.1363     310.7067      1.693     4.55     834.0616     54.84897     254.0767        20     1.540     0.801 -34.96   0
       347    922.6412    471.5582 307.5371228  +6.5057074      1224.14     1781.966     1733.317      77.7541      155.632     311.0474      1.684     5.30     832.9262     54.84897     172.2121        13     1.201     0.729 -41.93   0
       348    102.4289    471.1568 307.8779027  +6.4782803     638.6408     1185.419      879.807      77.6302     155.6938     311.0783      1.644     5.50     838.1989     54.84897     98.40955         9     1.242     0.687  65.91   0
       349    707.3027    468.0568 307.6267082  +6.4999311     2630.687     4249.712      4364.84     77.87782     155.5701     311.3876      1.695     4.64     835.5834     54.84897     338.2388        22     1.498     0.876 -34.74   0
       350    378.2410    466.0526 307.7634891  +6.4896920     3335.223     5752.837     6156.829     78.00134     155.6938     311.1711      1.864     4.23     833.9272     54.84897     423.6547        32     1.639     1.105 -39.31   0
       351     69.0272    467.1362 307.8919141  +6.4788120      1782.17     2903.563     3077.152      77.6302      155.632     311.0783      1.719     4.66     838.6882     54.84897     225.5861        23     1.508     1.035 -31.07   0
       352    418.3185    466.6370 307.7468190  +6.4908005      929.704     1328.471     1984.645     78.00134     155.6938     311.1402      1.601     4.14     834.3991     54.84897     140.1189         7     1.055     0.465 -28.92   0
       353    605.8480    462.8530 307.6690339  +6.4986718     8856.563     14978.86     16148.79     78.12466      155.632     311.1711      1.809     4.81     834.4056     54.84897     1138.708        45     1.799     1.076 -41.12   0
       354    768.9117    459.0464 307.6014122  +6.5057198     14597.73     24537.76      27593.6     78.00134     155.5082      311.233      1.882     5.10       834.88     54.84897     1938.718        66     2.299     1.068 -44.76   0
       355    288.3382    459.3655 307.8010640  +6.4894234     2483.416     4079.288      4349.15     77.87782     155.6938     311.1402      1.792     4.42     833.8254     54.84897     337.6047        26     1.581     1.011 -42.71   0
       356    412.4578    458.9713 307.7495109  +6.4937686     660.9625     1157.937     1761.647     77.63019     155.6938     311.0783      2.054     5.62     833.8141     54.84897     99.20251         8     1.046     0.851 -55.18   0
       357    797.5349    456.7716 307.5895958  +6.5076195     1091.282     2164.252     2401.133      77.7541      155.632     311.1093      2.147     6.87     834.5109     54.84897     145.6329        17     1.802     0.734 -42.04   0
       358    953.8172    454.5182 307.5247379  +6.5137884     1843.863     3087.196     3525.766      77.6302     155.3224     311.1093      1.826     5.24     831.2224     54.84897     290.9783        21     1.579     0.916 -34.23   0
       359    371.6312    456.1132 307.7665685  +6.4935737     1367.741     2312.496     2705.163     78.12466     155.4463     311.1093      1.687     4.99      833.404     54.84897     176.9337        16     1.400     0.738 -45.76   0
       360    702.3728    453.1703 307.6292541  +6.5059128     521.0571     774.3671     751.4527     77.50608     155.4463     310.9854      1.501     4.65     834.9412     54.84897     83.61163         5     1.201     0.511 -32.81   0
       361    359.4210    452.7268 307.7717550  +6.4945606     704.4581      1075.06     1325.053      77.6302     155.4463     311.1093      1.624     4.22     833.2167     54.84897     88.92877         7     0.953     0.532 -31.58   0
       362    105.9421    451.1830 307.8771148  +6.4866467     3844.546     6729.613     7085.416     77.50608     155.5701     310.9235      1.809     4.57     837.6449     54.84897      466.051        30     1.672     0.992 -33.40   0
       363    744.1703    450.3120 307.6119836  +6.5084963     2119.656      3452.86     3883.181     78.12466     155.3843     311.0783      1.863     4.11     834.8023     54.84897     284.7069        22     1.364     1.048 -43.73   0
       364   1007.8705    449.1582 307.5024579  +6.5178116     3640.065     6808.985     7074.507     77.87782      155.632      311.233      1.971     4.66     829.3801     54.84897     369.5529        32     1.571     1.203 -23.00   0
       365    264.2478    448.0076 307.8114537  +6.4933011     1291.066      2377.24     3152.663     77.50608     155.4463     310.7997      2.088     5.33     834.1831     54.84897     166.9952        18     1.631     0.716 -40.23   2
       366    342.0647    445.9318 307.7791938  +6.4967817     2855.171     4781.454     5392.516     78.00134     155.6938     311.2021      1.820     3.89     833.0442     54.84897     415.4207        25     1.479     0.955 -37.69   0
       367    697.9908    443.8548 307.6313862  +6.5096125      1469.77     2366.916     2370.237     77.38177     155.5701     310.8926      1.692     5.60      834.551     54.84897     176.8735        16     1.376     0.805 -38.07   0
       368    229.6833    442.1653 307.8260098  +6.4945477     656.6023     1028.328      870.264     78.00134      155.632     311.1402      1.669     4.46     834.8099     54.84897     124.4224         7     1.385     0.408 -45.84   0
       369    539.4501    436.3949 307.6975061  +6.5073651      816.517      1520.92     1964.145     77.38177     155.4463     310.7997      2.091     4.69     833.3969     54.84897     118.7612         9     1.315     0.475 -40.53   0
       370    461.7041    435.0294 307.7298532  +6.5053131     1336.515     2255.678     2549.475     78.12466     155.3843     311.1711      1.896     5.24     832.1951     54.84897     202.0419        17     1.486     0.841 -43.76   0
       371    824.1647    433.9450 307.5792937  +6.5179388     1321.244     1975.158     2355.708     77.87782      155.632     311.2021      1.632     4.25     833.8057     54.84897     184.9176        15     1.348     0.748 -35.45   0
       372    809.5253    433.1242 307.5854037  +6.5177868     1823.436     3057.771     3183.607     78.24779     155.8792     311.2639      1.791     5.11     833.8516     54.84897     247.0314        20     1.510     0.841 -41.50   0
       373    707.0740    431.1060 307.6280384  +6.5151820     13391.87     22048.18     22782.02     77.87782     155.7556     311.1711      1.735     4.56     834.0151     54.84897     1722.922        41     1.660     1.019 -39.20   0
       374    609.5732    432.6087 307.6684982  +6.5112862     713.0145     1140.527     1715.714      77.6302     155.4463     311.0164      1.697     4.86     833.4246     54.84897     102.5993         9     1.338     0.499 -48.36   0
       375    628.2920    427.0409 307.6609071  +6.5142144     2424.469     3857.421     4403.113     78.00134     155.5701     311.2639      1.748     4.37     833.3787     54.84897     308.6409        24     1.464     0.953 -40.08   0
       376    701.6046    425.3263 307.6305041  +6.5173851     500.5016     632.1416     1109.844      77.6302     155.1984     311.0474      1.403     4.84      833.748     54.84897     84.29944         8     1.376     0.482 -50.11   0
       377    603.6445    424.0265 307.6712486  +6.5146309     4658.439     8076.914     9672.936     77.50608     155.6938     311.0783      1.808     4.90     833.1179     54.84897     567.3334        26     1.673     0.882 -33.33   3
       378    599.5955    421.4651 307.6730167  +6.5155525     12958.13     22150.44     23929.63     77.25727     155.3224     310.9545      1.843     4.53     833.0188     54.84897     1580.436        47     1.769     1.100 -33.77   3
       379    371.5166    416.9263 307.7679305  +6.5097515     25664.02     43327.81     46061.11     78.12466     155.9409      311.233      1.826     4.40     831.6051     54.84897     3113.628        56     1.791     1.111 -39.37   0
       380    408.6933    418.0406 307.7524472  +6.5105436     550.7813     866.5709     578.8658     78.12466     155.5701     311.2639      1.651     4.52     831.1356     54.84897     80.84558         6     0.885     0.655 -53.59   0
       381    888.2273    416.5415 307.5532570  +6.5272733     1398.602     2495.896     2743.606      77.6302     155.6938     311.0474      1.968     5.64     832.1393     54.84897     159.9867        16     1.354     0.956 -24.03   2
       382    885.3817    412.7661 307.5545653  +6.5287370     612.4383     1326.771     1425.561     77.50608     155.4463     310.9854      2.253     6.84     832.0939     54.84897     84.26935         9     1.444     0.909  28.94   3
       383    117.6396    416.2752 307.8734290  +6.5014562     1965.395      3275.98     3556.772     77.87782      155.632     311.2021      1.821     4.69      836.596     54.84897     245.6368        22     1.538     0.858 -39.41   0
       384    901.1932    411.5024 307.5480377  +6.5297887     4533.772     7255.998     7896.625      77.7541     155.2604     310.9545      1.719     4.58     831.3903     54.84897     538.2559        28     1.586     0.927 -36.39   0
       385    932.3341    420.9947 307.5347820  +6.5269123     3441.234     5671.394      6260.68     77.50608     155.3224     310.9854      1.727     4.65     830.4522     54.84897      422.155        25     1.618     0.882 -38.42   0
       386     50.7344    411.7378 307.9013775  +6.5010692     1341.189     2361.312     2721.552     78.00134      155.632     311.1711      1.914     5.11     837.4149     54.84897     177.7858        18     1.552     0.829 -36.31   0
       387    229.0092    407.4615 307.8274555  +6.5088552     12060.62      20750.9     22029.64     77.38177     155.5082     310.9545      1.831     4.37      833.732     54.84897     1458.454        46     1.722     1.110 -42.46   0
       388     64.1693    401.8228 307.8961295  +6.5056174     645.2756     1174.674     934.1434     77.38177     155.3843     311.0164      1.870     5.38     837.0356     54.84897     101.5645         8     1.282     0.638 -39.41   0
       389   1001.4887    400.5114 307.5067309  +6.5376867     594.1742     930.7866     763.7692      77.7541      156.126     311.2639      1.398     3.78     828.6472     54.84897     70.28497         6     1.020     0.402 -18.47   0
       390    952.3444    399.7312 307.5271768  +6.5363633     934.9145     1624.094     1800.098     78.00134     155.5082     311.1402      1.750     6.16     829.5464     54.84897     142.8298        12     1.499     0.712 -40.51   0
       391    342.4240    396.8014 307.7806928  +6.5170814     1179.852     1968.738     2255.867      77.6302     155.3224     310.9545      1.858     6.58      831.186     54.84897      130.671        16     1.470     0.826 -39.53   0
       392    174.6746    397.2534 307.8503726  +6.5112367     854.9275      1451.91     1617.979     77.87782      155.632     311.1402      1.732     5.67     834.8271     54.84897     129.6331        10     1.313     0.708 -55.94   0
       393    129.2387    396.1208 307.8692877  +6.5101702     4555.946     7932.644     8635.035     77.87782     155.6938     311.1711      1.886     4.70     835.8049     54.84897     555.1428        37     1.754     1.059 -41.15   0
       394    427.0777    394.6304 307.7455938  +6.5208296     723.7969     1095.599     1755.238     77.87782     155.6938     311.1711      1.824     5.16      830.192     54.84897     104.7184         8     1.190     0.631 -55.15   0
       395    234.4888    394.7141 307.8256071  +6.5143038     1278.628     1913.696     2279.332      77.7541     155.8792     311.2949      1.666     4.33     833.2238     54.84897     182.6452        12     1.180     0.786 -50.22   0
       396    815.3328    392.6707 307.5843416  +6.5346867     706.3596     1127.551      875.893     78.00134     155.7556     311.1711      1.822     4.98     832.2184     54.84897     103.3035         9     1.190     0.590 -44.02   0
       397    151.4236    391.5762 307.8602235  +6.5127959     2207.982     4203.049     4680.311     77.50609     155.4463     311.1093      2.044     5.20     835.2378     54.84897     295.8597        32     1.779     1.093 -54.22   0
       398    546.8235    391.0116 307.6959622  +6.5263537     864.9086     1359.453     1106.271      77.6302     155.4463     311.1093      1.691     6.06     831.1872     54.84897     125.1152        11     1.426     0.725 -40.37   0
       399    375.0975    386.5448 307.7674618  +6.5224177     1801.242     3072.212     2604.124     77.87782      155.632     311.3567      1.835     5.14     830.2762     54.84897     232.3071        19     1.546     0.806 -34.13   0
       400    263.2658    387.1297 307.8139058  +6.5184064     637.8962     862.4053     578.7921     78.00134     155.6938     311.1711      1.260     4.11       832.47     54.84897       97.276         6     0.768     0.629 -19.82   0
       401    963.6931    385.8105 307.5229255  +6.5424919     890.3704     1465.037     2238.253      77.7541     155.2604     310.9545      1.920     4.96      829.118     54.84897     134.8608         9     1.460     0.477 -33.96   0
       402    308.7493    384.9414 307.7950819  +6.5208437     488.4866     897.4569     960.4577     78.00134      155.632     311.1711      1.955     5.50     831.4809     54.84897     85.78284         6     1.382     0.618 -41.90   0
       403    761.3547    379.4420 307.6072117  +6.5383385     1735.608     2863.131     3067.086     77.87782      155.632     311.0164      1.771     5.78     831.3829     54.84897     220.5757        22     1.683     0.880 -39.16   1
       404    428.6355    380.3074 307.7454267  +6.5267966     6464.275     11092.51     12244.07     78.12466     155.5082      311.233      1.878     4.66     829.6745     54.84897     801.8782        38     1.742     1.025 -37.27   0
       405     24.9943    380.9714 307.9131068  +6.5129032     2903.595      5116.16     5547.352     77.50608     155.4463     310.9854      1.911     4.74     837.2086     54.84897     362.3745        29     1.799     0.960 -37.80   0
       406    769.2708    377.6653 307.6039819  +6.5393378     11576.47     19111.35     20732.68     78.00134     155.6938     311.1711      1.760     4.51     831.3779     54.84897     1518.169        41     1.711     0.988 -39.23   0
       407    332.8907    376.0265 307.7853508  +6.5253388     989.1806     1877.804     2297.276     78.12466     155.3843     311.0164      2.048     7.17     830.4995     54.84897     126.2325        18     1.667     0.909 -45.22   0
       408   1013.2163    372.8054 307.5027814  +6.5495205     3035.718     5143.976      4988.31     77.63019     155.3224     311.0164      1.743     4.59     828.2948     54.84897     468.0233        29     1.681     0.945 -36.73  16
       409    894.6746    368.5303 307.5521802  +6.5473155     617.0745     1052.425     959.1337     78.12466     155.7556     311.1711      1.651     3.99     829.9558     54.84897     93.50635         6     1.053     0.464  11.22   0
       410    177.9682    368.2442 307.8499792  +6.5233266     710.7054     1261.726     1510.545     77.63019     155.6938     311.0474      1.922     4.26     833.7106     54.84897     98.08466         7     0.730     0.711 -20.67   0
       411    476.9178    363.8176 307.7259184  +6.5352312     2669.291     4347.903     4469.462     77.63019     155.3224     311.1093      1.694     4.57     829.2256     54.84897     340.7731        22     1.453     0.892 -39.83   0
       412    449.0883    364.5083 307.7374583  +6.5340092     2084.422     3338.572     3037.308     78.00134     156.0644     311.2949      1.707     4.91     829.1982     54.84897     251.5337        18     1.457     0.791 -35.27   0
       413    905.5862    363.5228 307.5478133  +6.5497490     667.3835     909.9173     1030.815      77.6302     155.3224     310.9854      1.584     5.15     829.5721     54.84897     117.1252         7     1.432     0.523 -39.29   0
       414    834.6458    360.6156 307.5773873  +6.5485715     29691.09      50518.2     53362.54     77.50609     155.4463     310.9235      1.818     4.40     830.4065     54.84897     3518.938        61     1.800     1.138 -44.72   0
       415    326.8752    356.2159 307.7885150  +6.5333165     728.4566     1029.178     799.0331     77.50608     155.3843     311.0474      1.519     5.04     829.8459     54.84897     105.9503         9     1.001     0.719 -14.03   0
       416    606.3479    353.0941 307.6724991  +6.5440127     2406.345     4001.425     4272.505     77.87782     155.5082     311.4185      1.721     4.61     828.9579     54.84897      308.307        21     1.557     0.802 -35.26   0
       417     14.2118    353.1562 307.9185228  +6.5240242     1020.973     1582.704     1399.777     77.50608     155.5082     310.8926      1.706     6.53     836.9402     54.84897     141.8542        14     1.269     0.971 -35.76   0
       418    691.0813    346.5717 307.6375097  +6.5495529      72022.9     118546.6     125597.6     77.87782     155.4463     311.1402      1.779     4.45     829.2935     54.84897     9258.895        84     1.790     1.152 -38.98   0
       419    849.1259    348.1732 307.5717860  +6.5541951     1236.969     2095.426       2193.6      77.7541     155.5701     311.1402      1.809     6.26     829.7201     54.84897     148.8237        15     1.344     0.818 -38.29   0
       420     70.2263    346.0100 307.8954909  +6.5288685     1318.618      2307.46      2438.51      77.6302     155.4463     311.0474      1.804     5.56      835.625     54.84897     158.2504        16     1.454     0.811 -42.09   0
       421    932.7083    343.8191 307.5372009  +6.5587944     855.6141     1496.015     1546.604     77.87782     155.3843     311.0164      1.701     5.37     828.5813     54.84897      123.967        11     1.538     0.530 -46.41   0
       422    553.4951    343.3707 307.6947854  +6.5462509     2569.644      4360.65     4767.538     78.12466     155.3843     311.1093      1.913     4.54     828.2018     54.84897     322.0645        27     1.551     1.029 -41.99   0
       423     90.9227    342.0568 307.8870250  +6.5312003      5347.81     9234.707     9896.243     78.00134     155.5701     311.1402      1.842     4.63     835.1459     54.84897     649.0971        35     1.671     1.025 -43.17   0
       424    751.3104    341.4191 307.6126558  +6.5537028     485.4446     1110.958     2108.338      77.7541     155.3843     311.0783      3.594     5.31     829.5273     54.84897     82.40643         5     1.343     0.592  27.10   0
       425    536.8661    339.4106 307.7018275  +6.5473268     6466.638     10974.48     11545.51     77.50608     155.4463     311.0164      1.796     4.45     827.9818     54.84897     861.6696        37     1.671     1.024 -34.80   0
       426    399.7465    334.6288 307.7589615  +6.5446860      23032.8     39134.05     41740.51      77.7541     155.6938     311.0783      1.814     4.32     828.3885     54.84897      2762.79        59     1.794     1.134 -39.44   0
       427    265.7431    337.0894 307.8145568  +6.5391531     2461.466      4128.75     4526.912     77.87782     155.5701     311.2949      1.791     4.80     830.8474     54.84897     295.1338        23     1.592     0.874 -36.04   0
       428    507.1990    333.7167 307.7143451  +6.5486800     1226.799     2025.414      2062.49     77.25727     155.1984     310.8926      1.737     5.65     827.7908     54.84897     152.0031        16     1.420     0.756 -40.58   0
       429    578.1246    333.7876 307.6848724  +6.5510363     694.3755     1112.594     963.8382      77.6302     155.3224     310.9854      1.976     5.03     827.8127     54.84897      114.105         8     1.339     0.533 -27.45   0
       430    379.5973    332.6529 307.7673998  +6.5448231     969.2288     1542.549     2318.005     77.38177     155.3843     310.7377      1.657     5.58     828.4573     54.84897     125.7692        11     1.268     0.692 -51.58   0
       431    479.4603    329.6893 307.7260057  +6.5494096     1029.224     2009.168     2057.062     77.87782     155.7556     311.2021      1.880     5.67     827.6546     54.84897     159.3156        14     1.699     0.655 -32.47   0
       432    794.9042    326.9074 307.5950265  +6.5611581     840.7814     1566.174      1691.26     78.00134      156.126     311.1402      2.278     6.41     829.5322     54.84897     99.37909        13     1.329     0.867 -41.68   0
       433    488.8498    325.0392 307.7222601  +6.5516458     7635.049      13008.2     13612.48     77.87782      155.632     311.1402      1.796     4.53     827.3505     54.84897     1032.749        36     1.677     1.030 -41.79   0
       434    377.1466    327.0975 307.7686044  +6.5470345     717.6419     1185.714     1593.869     77.87782      155.632     311.3876      1.735     4.62     828.3716     54.84897     89.51349         8     0.886     0.683 -45.65   0
       435    757.9300    323.8472 307.6104925  +6.5611811     2848.396     4716.288     5807.495     78.00134     155.5701     311.1711      1.821     4.42     829.1614     54.84897     415.0366        23     1.557     0.888 -37.81   0
       436    913.2715    323.6190 307.5459513  +6.5664847      775.623         1256      1469.83      77.6302     155.5082     311.1093      2.121     6.11     828.2159     54.84897     100.3577        11     1.418     0.739 -30.40   0
       437    706.0417    323.0454 307.6320800  +6.5597703     639.9526     995.1912     794.6747     77.87782      155.632     311.0164      1.541     4.74     828.7698     54.84897     107.0327         7     1.148     0.555 -31.71   0
       438    315.4391    321.8562 307.7944198  +6.5471192     790.8613     1369.092     1077.373     78.00134     155.6938     311.1402      1.687     6.51     829.2948     54.84897     121.9053        13     1.746     0.680 -42.16   0
       439    150.9369    315.7442 307.8629750  +6.5440926     1144.095     1951.757     2276.261     78.12466      155.632     311.1711      1.843     4.77     833.0734     54.84897     168.4481        14     1.258     0.856 -45.03   0
       440    378.6717    309.1994 307.7685711  +6.5544767     6573.505      11276.9     12052.64     77.38177     155.1363     311.0164      1.818     4.64     828.0478     54.84897     808.8059        37     1.712     1.010 -38.39   0
       441    234.5269    309.8019 307.8284435  +6.5493679     1899.516     3239.843     3776.314     77.50608     155.1363     311.0474      1.788     4.95     830.9783     54.84897     214.6042        24     1.530     1.046 -33.81   0
       442    732.4145    308.9384 307.6215931  +6.5664812     865.3698     1410.874     1502.469     77.50608     155.5701     310.9854      1.778     5.30     828.6127     54.84897      120.177         9     1.182     0.670 -32.84   0
       443    746.5838    305.1410 307.6158323  +6.5685249      48555.2     80634.23     85138.76     77.50608     155.5082     310.9235      1.775     4.48     828.6153     54.84897     6089.996        70     1.769     1.123 -38.14   0
       444    418.2948    304.5216 307.7522642  +6.5577430     2026.666     3518.675      3969.11      77.7541     155.8174     311.2021      1.855     4.75     827.6001     54.84897     293.3331        23     1.671     0.842 -38.51   0
       445    981.2983    302.4065 307.5183913  +6.5775230     1521.542     2363.348      2204.24      77.7541     155.2604     310.9545      1.616     5.28     825.6111     54.84897     210.9896        16     1.352     0.765 -35.57   0
       446    922.3290    301.4993 307.5429256  +6.5759225     2086.942     3333.115     3548.304      77.7541     155.7556     311.2021      1.781     4.56     827.3163     54.84897     302.9777        19     1.407     0.849 -42.25   0
       447    564.4912    301.7336 307.6916105  +6.5638142     1102.867     1776.147     1716.206     78.00134     155.8174     311.2021      1.645     4.88     826.0609     54.84897      153.973        14     1.346     0.788 -55.08   0
       448    455.1165    301.1970 307.7370757  +6.5603557     936.5406     1831.639     1978.691     77.38177     155.2604     310.8616      1.928     6.54     826.6657     54.84897     126.1119        14     1.643     0.731 -43.21   0
       449    404.9945    300.2151 307.7579350  +6.5590733     1788.526     2963.327     2642.958      77.6302     155.3224     311.0164      1.745     5.19     827.6291     54.84897     222.2321        22     1.637     0.904 -31.28   0
       450    825.8543    294.7773 307.5832389  +6.5754643      1106.75     1792.578      1883.78     77.50608      155.632     310.9854      1.729     6.03     828.5143     54.84897     141.3541        15     1.396     0.759 -41.71   0
       451    455.0768    294.8810 307.7373039  +6.5629625     667.9865     1104.019      1762.18     78.24779     155.8792     311.2949      1.792     6.12     826.4185     54.84897     90.56964        11     1.440     0.731 -41.98   0
       452    435.0087    291.8573 307.7457439  +6.5635353     1069.053     1921.547     2283.319     77.38177     155.5701     310.8926      1.850     5.28     826.8378     54.84897     150.5797        17     1.503     0.822 -41.25   0
       453    181.3905    291.2891 307.8511437  +6.5552190     2010.455     3610.554     3667.503      77.6302     155.3224     310.9854      1.896     4.47     831.8822     54.84897     257.8605        23     1.502     0.973 -37.59   0
       454    744.9570    289.7314 307.6170233  +6.5748336      5417.72     8996.358     9304.753     78.00134     155.5701     311.2639      1.773     4.73     828.2419     54.84897     678.0163        32     1.661     0.951 -37.70   0
       455    334.7002    289.8655 307.7874904  +6.5609784     589.7708      796.942     361.5573     78.00134     155.7556     311.1402      1.386     4.72     828.2228     54.84897     111.1501         5     0.876     0.722 -17.62   0
       456    216.7565    290.0193 307.8364918  +6.5569370     454.7959     714.5397     395.1225     77.50608     155.5082     310.9545      1.476     3.88     831.1361     54.84897     82.32538         5     0.858     0.504 -42.02   0
       457    761.5163    287.5449 307.6102154  +6.5762923     2334.835     3899.075     4214.933     78.00134      155.632     311.2639      1.844     5.06     828.2464     54.84897     329.3737        22     1.572     0.822 -37.51   0
       458     77.5922    288.8226 307.8943545  +6.5527315     976.9097     1627.848     1507.963     77.50608     155.4463     310.9854      1.763     4.01     833.6953     54.84897      151.509         9     1.078     0.589 -43.66   0
       459    463.7982    286.7901 307.7339512  +6.5665971     468.8343     634.1017     243.1064     77.50608     155.3224     310.9854      1.287     3.38     825.8478     54.84897     86.90869         5     0.957     0.346 -42.89   0
       460     64.4249    283.0967 307.9000182  +6.5546508     1130.539     1675.324      1588.12     78.12466     155.3843     311.0474      1.703     5.14     833.6464     54.84897     160.3253        14     1.406     0.665 -42.81   0
       461    351.0255    282.2104 307.7809639  +6.5646897     1592.902     3212.448     3787.164      77.6302     155.4463     311.0474      2.159     6.95     827.8524     54.84897     165.6896        26     1.852     1.013 -19.42   0
       462    999.6675    278.5499 307.5115534  +6.5879896     5503.022     9025.768     9919.298     77.87782     155.5082     311.1093      1.820     4.31     823.8417     54.84897     701.2205        34     1.646     1.030 -39.55   0
       463    477.7864    278.4068 307.7284198  +6.5705297     1871.824     3290.694     3247.327      77.6302     155.3843     311.0164      1.859     4.48     825.1666     54.84897     251.0334        19     1.471     0.835 -44.35   0
       464    240.3327    273.8683 307.8272383  +6.5644018     5215.385     8830.482     9629.179     78.00134     155.6938     311.2021      1.842     4.43     830.1456     54.84897     657.1145        36     1.705     1.019 -32.45   0
       465    907.8234    273.5583 307.5498857  +6.5869745     569.4159     805.3914     701.3223      77.6302     155.4463     310.9545      1.594     5.16     826.6684     54.84897     75.92975         8     1.074     0.702 -38.20   0
       466    805.0428    272.4453 307.5926329  +6.5839881     522.2296      712.468     923.3572     78.00134      155.632     311.1093      1.851     3.76     827.6882     54.84897     89.16431         6     1.166     0.348 -48.22   0
       467    760.2842    267.3975 307.6114007  +6.5845707     579.0675     992.7894     663.3785     77.38177     155.2604     310.8616      1.508     5.44     827.2947     54.84897      97.4046         6     1.272     0.656 -72.13   0
       468    111.7641    268.1894 307.8808503  +6.5624060     428.6089     503.9495     126.9467     77.50608     155.4463     310.9545      1.176     3.05     832.8661     54.84897     85.31287         5     0.815     0.639 -55.72   0
       469    374.3452    265.0247 307.7718508  +6.5725721     1501.493     2796.131     2706.147     77.63019     155.6938     310.9854      1.996     4.66     827.0524     54.84897     194.7053        19     1.440     0.936 -44.94   0
       470    961.3948    263.6136 307.5279558  +6.5928759     982.0406     1516.494      1872.75      77.6302     155.3843     311.0474      1.641     4.29     824.7161     54.84897     142.1723        10     1.057     0.727 -39.47   0
       471    296.7079    260.8147 307.8042520  +6.5716935     1126.089     1910.946     1470.788      77.7541     155.4463     310.9854      1.761     4.94     828.2623     54.84897      167.414        14     1.376     0.690 -40.95   0
       472    144.2345    260.4595 307.8676186  +6.5666947     1464.353     2646.139     2575.665     77.87782      155.632     311.1402      1.906     5.81     832.0206     54.84897     191.2209        19     1.641     0.854 -37.43   0
       473    897.4309    255.5843 307.5548041  +6.5940485     1461.248     2735.448     2916.327      77.6302     155.3843     311.1093      1.991     5.52     826.2112     54.84897     204.9253        16     1.544     0.861 -35.01   0
       474    553.9156    256.1922 307.6975300  +6.5822643     1887.276      3516.49     3836.244     77.63019     155.3224     311.0164      1.933     5.10     824.4691     54.84897     238.8162        21     1.616     0.905 -30.94   0
       475    717.4588    253.8738 307.6296486  +6.5887175     4612.986      7598.36     7981.138     78.12466      155.632     311.1711      1.773     4.23     826.3732     54.84897     596.0271        30     1.598     0.962 -39.79   0
       476    658.2804    253.7552 307.6542439  +6.5867789     1890.644         3522     4160.019     78.00134      155.632     311.1711      1.990     4.61     825.5439     54.84897     266.8002        22     1.675     0.891 -44.06   0
       477    955.3751    253.9677 307.5307790  +6.5966575      698.365     1297.994     1011.529     77.50608     155.4463     310.9854      1.770     5.61     824.5734     54.84897     119.9142        10     1.519     0.584 -39.49   0
       478    373.3018    247.9225 307.7728581  +6.5795989     702.7947       1064.4     837.4677      77.6302     155.8792     311.1711      1.523     5.18     826.5705     54.84897     113.0414         8     1.213     0.626 -44.02   0
       479    914.0849    245.4098 307.5482230  +6.5988082     891.7277     1450.353      1665.27     77.63019     155.3224     311.0164      1.860     4.08     825.4603     54.84897     144.6987        10     1.084     0.618 -39.39   0
       480    216.8521    239.1463 307.8381614  +6.5779471     2071.453     3714.072     4088.255     78.12466     155.5701     311.2021      1.942     5.86     830.0497     54.84897     235.7853        21     1.619     0.877 -38.38   0
       481    859.5443    238.0478 307.5711335  +6.6000201      1617.17     2740.067     3355.027     78.00134      155.632     311.2639      1.894     5.19     826.1312     54.84897     201.2934        18     1.556     0.752 -45.76   0
       482    750.0149    237.7206 307.6166600  +6.5964808     1381.033     2255.605      2293.18     77.63019     155.3843     310.9854      1.701     5.13     825.9458     54.84897     199.8179        14     1.466     0.706 -33.05   0
       483    450.8875    228.9308 307.7412555  +6.5900545     20592.49     34997.13     37512.66     78.00134     155.8792     311.2021      1.828     4.50     824.2289     54.84897     2616.195        56     1.800     1.122 -38.23   2
       484    456.5305    223.3345 307.7390983  +6.5925554     1327.577     2446.568     3239.571     78.00134     155.6938     311.1711      2.182     5.30     823.9097     54.84897     204.3425        17     1.570     0.796 -36.18   3
       485    312.1489    230.1447 307.7988655  +6.5848787     594.3873     1136.511     1110.637     78.00134      155.632     311.2021      1.927     6.82     827.5009     54.84897     90.78491         9     1.251     1.041 -46.40   0
       486    776.9085    228.0902 307.6058061  +6.6013602     11800.85     19988.61     21870.85     78.00134      156.126     311.2639      1.835     4.58     825.6234     54.84897     1493.082        51     1.830     1.125 -32.46   0
       487    139.1070    222.1785 307.8710365  +6.5823286     2156.745     3687.454     4127.026     77.87782     155.4463     310.9854      1.903     4.72     831.3213     54.84897     272.0862        23     1.544     0.928 -34.69   0
       488    113.8619    221.2759 307.8815567  +6.5818485     1000.194     1750.781     2358.394     78.24779      155.632     311.1711      2.132     4.13     831.8154     54.84897     176.1446        12     1.316     0.638 -47.39   0
       489    165.5481    220.5164 307.8601055  +6.5839079     593.1961     1027.975      342.282     78.00134     155.5701     311.2639      1.823     5.12     830.7336     54.84897     104.1938         6     1.707     0.435 -32.55   0
       490    913.4583    218.4565 307.5493828  +6.6099174     1213.102     2050.753       1653.8     78.12466      155.632     311.2021      1.732     5.49     824.4564     54.84897     169.9668        15     1.518     0.770 -42.04   0
       491    715.6862    223.9738 307.6313850  +6.6010050     752.2632     1180.625     993.3267     78.12466     155.3843     311.0474      1.721     5.43     824.9771     54.84897     85.57294         9     0.922     0.903  15.14   0
       492    574.9557    214.6548 307.6901779  +6.6001242     4062.718     6735.252     6801.979     78.00134      155.632     311.2021      1.735     4.43     823.5153     54.84897      563.582        30     1.676     0.939 -41.65   0
       493    537.4867    214.8255 307.7057424  +6.5987935     1918.025     3243.247     3254.188     78.12466     155.4463     311.0783      1.787     4.79     823.3348     54.84897     257.4123        19     1.484     0.809 -33.47   0
       494    295.2488    215.4892 307.8063801  +6.5903605     879.6729      1572.32     2018.795     78.00134     155.5082     311.2639      2.127     6.12     827.6201     54.84897     108.3488        14     1.423     0.740 -38.64   0
       495    379.3235    213.8089 307.7715003  +6.5938884     1249.011     2152.282     2246.654      77.6302     155.1363     310.9854      1.762     5.84     825.6277     54.84897     166.7422        19     1.593     0.859 -50.59   0
       496    935.8210    211.9206 307.5403077  +6.6133657     2315.918     3995.288     4177.986     77.63019     155.3224     311.1711      1.788     4.91     823.7766     54.84897     327.9518        25     1.588     0.972 -37.57   0
       497    881.9272    211.3622 307.5627229  +6.6117902     10168.78      16750.9      17498.9     77.87782      155.632      311.233      1.749     4.51     824.6461     54.84897     1258.321        38     1.640     1.012 -37.54   0
       498    557.2802    211.3855 307.6976325  +6.6008798     825.6072     1570.996      1470.04      77.6302     155.3843     310.9854      2.015     6.42     823.3313     54.84897     124.1989        14     1.616     0.715 -40.19   0
       499    309.5085    211.3567 307.8005935  +6.5925478     822.2132      1344.17     1286.208     78.00134      155.632     311.2639      1.677     6.46     827.2217     54.84897     111.9791        11     1.254     0.936 -71.45   0
       500    968.6573    209.2354 307.5267515  +6.6155744     8835.108      14563.7     15341.11     77.87782      155.632     311.2021      1.769     4.53     822.7926     54.84897     1101.229        37     1.682     0.993 -39.30   0
       501    201.1422    211.4408 307.8456203  +6.5888572     598.2797     1014.567     1134.167     78.00134      155.632      311.233      1.808     4.30     829.8154     54.84897     87.83496         5     0.935     0.563 -45.92   0
       502      8.0960    207.7789 307.9259584  +6.5838465     22719.45     38884.55     41601.61     77.87782     155.4463     309.9001      1.818     4.42     834.0773     54.84897     2873.254        59     1.774     1.169 -38.77  16
       503    680.0181    209.0781 307.6467053  +6.6059581     2594.763     4235.671     4908.722     77.50608     155.3224     311.1093      1.736     4.59     824.2188     54.84897     324.9286        21     1.526     0.797 -37.32   0
       504    254.1919    208.8395 307.8236640  +6.5917215      1022.38     2016.352     2109.719     77.38177     155.3843     310.9235      2.169     6.77     828.5629     54.84897     135.3267        16     1.587     0.810 -35.55   0
       505    488.7560    204.0747 307.7263527  +6.6015932     1858.719     3025.394     2916.756     77.87782     155.6938     311.2021      1.756     4.70     822.9254     54.84897     257.8999        21     1.577     0.833 -38.85   0
       506    820.4397    200.7610 307.5886292  +6.6141061      1799.78     2817.221       2986.4      77.7541     155.6938     311.0474      1.691     4.68     824.5466     54.84897     224.7723        21     1.544     0.804 -33.95   0
       507    872.8610    199.7468 307.5668783  +6.6162828     1880.845     3160.021     3595.452     78.00134     155.5701     311.1402      1.794     4.59     824.2502     54.84897     236.0688        23     1.574     0.930 -44.30   0
       508    732.1600    197.2619 307.6254322  +6.6125885     36066.22     59497.79      63066.2     78.00134      155.632      311.233      1.764     4.40      824.412     54.84897     4424.976        64     1.753     1.120 -39.92   0
       509    500.7358    199.8517 307.7215160  +6.6037402      2247.71     3966.473     4376.462     78.00134     155.5701     311.1402      1.926     5.00     822.8548     54.84897     266.6307        23     1.565     0.948 -45.42   0
       510    335.2448    196.6393 307.7903930  +6.5994928     5416.914     11367.41     12773.38      77.7541      155.632     311.0783      2.233     6.21     826.5915     54.84897     599.9106        49     2.136     1.198 -61.01   0
       511    965.9722    196.0643 307.5283066  +6.6209234     2572.012     4194.188     4263.075      77.6302      155.632     311.1093      1.682     4.61     822.6453     54.84897     363.4335        24     1.603     0.887 -32.23   0
       512    900.0172    194.4193 307.5557708  +6.6193930     6818.853     11152.82     11926.94      77.7541     155.3843     311.1093      1.758     4.37     823.6552     54.84897     894.7964        35     1.638     1.009 -38.75   0
       513   1004.2124    194.7444 307.5124589  +6.6227490     1579.404     2624.438     2418.553     77.38177     155.5701     310.8616      1.655     5.42     821.8724     54.84897     212.5438        18     1.512     0.765 -35.43   0
       514    443.5106    193.3479 307.7455140  +6.6044995      4473.14     7479.017     7747.174     78.00134     155.4463     311.2949      1.805     4.33     823.4483     54.84897     580.8864        34     1.666     1.020 -39.35   0
       515    218.6074    189.8578 307.8390883  +6.5983589     614.2603     1013.755      840.057     77.38177     155.5082     310.9235      1.358     3.95     829.1793     54.84897     98.88947         6     1.094     0.409 -74.77   0
       516    100.9693    184.6236 307.8881468  +6.5965475     4145.207     7157.291     7309.901     77.50608     155.5082     310.9545      1.837     4.58     831.3848     54.84897     533.1744        29     1.619     0.999 -35.83   0
       517    271.2444    181.3650 307.8175008  +6.6036418     30240.68     52081.52     55375.55      77.7541     155.5701     311.0474      1.834     4.35     827.4764     54.84897     3722.707        64     1.815     1.160 -38.44   0
       518    920.4977    183.2878 307.5476311  +6.6246760       654.66     1145.355     1738.281     78.00134     156.0644     311.2021      1.681     4.51     823.0115     54.84897      90.4635         6     1.220     0.474 -46.95   0
       519    597.2054    183.0243 307.6819909  +6.6139337     633.3453     1237.961     978.3739     77.50608     155.3843     311.0164      2.087     5.25     823.3331     54.84897     102.0998         9     1.462     0.532 -45.26   0
       520    246.5766    182.3583 307.8277180  +6.6023994     5966.214     10274.64     10941.62      77.6302     155.4463     310.9545      1.847     4.32     828.2819     54.84897     730.4941        35     1.635     1.073 -41.52   0
       521    700.5801    180.9303 307.6391019  +6.6182721       842.08      1340.53     1817.076     77.63019     155.5082     311.1093      1.940     5.23     823.8221     54.84897     129.5151         9     1.075     0.727 -41.38   0
       522    395.3336    176.8540 307.7660872  +6.6096877     45634.12      76669.7     81326.59     78.00134     155.5701     311.1402      1.818     4.35     824.5514     54.84897     5745.283        77     1.806     1.192 -37.39   0
       523    151.2470    178.0920 307.8674745  +6.6009430     3654.794     6214.864     6240.876     78.00134     155.5701     311.2949      1.730     4.40      829.793     54.84897     441.9916        30     1.712     0.936 -45.72   0
       524    412.8422    177.3177 307.7587959  +6.6100860     1339.363     2266.593     2505.951     78.00134      155.632     311.1093      1.860     5.15     823.8128     54.84897     172.5094        19     1.591     0.877 -33.57   0
       525    299.3436    174.5220 307.8060542  +6.6074151     16636.92     28037.82     30014.55     78.00134      155.632     311.1402      1.840     4.40     826.6605     54.84897     2058.139        59     1.945     1.129 -38.82   2
       526    306.9271    174.5962 307.8029004  +6.6076402     1826.224     3422.615     4435.751     77.50608     155.1984     311.0164      2.149     8.41     826.6027     54.84897     235.5402        29     2.164     1.065 -58.66   3
       527    734.6130    173.1630 307.6252186  +6.6226223     30091.56      49904.6     52459.78     77.50608     155.4463     310.8926      1.770     4.46     823.7182     54.84897      3897.72        64     1.776     1.117 -37.68   0
       528    683.0583    174.5208 307.6465978  +6.6203303     941.2427     1401.926     1390.284     78.12466      155.632     311.1402      1.838     5.26     823.6436     54.84897      106.702        13     1.287     0.801 -40.19   0
       529    783.2306    173.3661 307.6050075  +6.6241702     1120.082     1636.469     2403.606     77.50608     155.3843     310.9235      1.817     3.89     823.5247     54.84897     189.0098        10     1.254     0.552 -48.97   0
       530     22.4962    173.0353 307.9211447  +6.5986798     592.4103     1178.917     955.8236     78.12466     155.5082     311.3258      2.028     4.51     834.1496     54.84897     80.73706         5     1.023     0.566 -11.27   0
       531     51.4140    170.2491 307.9092223  +6.6008080     8047.596     13782.06     14422.33     77.38177     155.5701     310.8926      1.833     4.34     833.0365     54.84897     990.7649        42     1.719     1.078 -38.02   0
       532     85.4596    168.3102 307.8951405  +6.6027595     1401.482     2309.236     2306.405     77.87782      155.632     311.2639      1.795     5.56     831.6626     54.84897     172.9623        18     1.576     0.787 -39.99   0
       533    992.9235    167.6749 307.5180530  +6.6335492     980.0186     1648.428     1619.468     78.24779     155.8792      311.233      1.729     5.29     821.9814     54.84897     137.1937        10     1.405     0.563 -33.32   0
       534    719.1888    161.0704 307.6320328  +6.6270979     559.4108     622.4476     248.5753     77.50608     155.3843     310.9854      1.453     4.23     823.3702     54.84897     97.63184         7     1.216     0.419 -34.75   0
       535    568.8295    157.1265 307.6946502  +6.6236737     768.6323     1162.646      1185.72     77.87782      155.632     311.1402      1.765     4.35     822.3609     54.84897     132.3817         8     1.072     0.515 -35.38   0
       536    994.1105    153.9013 307.5180190  +6.6392767     2026.015     3432.892     3964.943     78.00134     156.0644     311.1402      1.871     4.53     821.5298     54.84897     241.6985        21     1.385     0.985 -35.13   0
       537    577.1589    151.2524 307.6913854  +6.6263795     966.0021     1585.347     1876.349     78.00134     155.6938     311.1711      1.838     5.45     822.3306     54.84897     136.3268        12     1.357     0.684 -30.07   0
       538    270.0540    147.6705 307.8191272  +6.6175150     27224.64     47191.42     51296.13     77.87782     155.5701     311.1093      1.864     4.43     827.2405     54.84897     3435.658        75     2.013     1.204 -33.66   0
       539    585.2909    149.5691 307.6880623  +6.6273480     1839.767      2996.25     2829.147     78.12466     155.4463     311.1402      1.747     4.53     822.4618     54.84897     245.5778        20     1.532     0.800 -47.67   0
       540    329.7743    149.4542 307.7942502  +6.6187924     1048.305     1655.222     2264.709      77.6302     155.6938     311.0164      1.854     4.69      826.348     54.84897     156.2488        14     1.398     0.665 -30.83   0
       541     15.4013    146.1836 307.9249970  +6.6095274     3923.403     6838.515     7049.653      77.6302     155.1984     310.9235      1.862     4.50     834.2709     54.84897     483.3293        32     1.691     1.051 -43.83   0
       542    701.8697    144.2679 307.6397922  +6.6334547     7317.411     12005.11     12736.69     78.00134     155.7556     311.1402      1.755     4.38     822.7543     54.84897     952.5699        37     1.682     0.999 -42.59   0
       543    179.6391    145.6407 307.8567675  +6.6153017     766.8419     1125.015     934.5286      77.7541     155.6938     311.0474      1.651     5.54     828.6651     54.84897     115.7923        11     1.184     0.990  83.52   0
       544    255.7400    142.8920 307.8252360  +6.6190052     766.1832     1322.294     1356.975     77.87782     155.5701     311.2639      1.735     4.59     827.6959     54.84897      118.765         7     0.997     0.601 -37.40   0
       545    112.5750    141.3428 307.8847803  +6.6148111     4403.589     7505.275     7403.349      77.6302      155.632     311.0164      1.821     4.67     829.6817     54.84897     516.4084        32     1.679     1.013 -39.42   0
       546    640.1099    138.5671 307.6656491  +6.6337339     747.5153     1133.394     873.4958     78.12466     155.5082     311.1711      1.575     5.34     822.5657     54.84897     104.0288        10     1.153     0.699 -48.86   0
       547    574.6416    139.2746 307.6928327  +6.6312409     595.7227     760.6061     1002.881     77.87782     155.6938     311.2021      1.273     2.59     821.8812     54.84897     115.9749         5     0.726     0.439 -70.58   0
       548    451.7483    138.4855 307.7439302  +6.6274313      1201.39     2072.294      1797.79     78.00134     155.5701     311.2949      1.800     5.19     822.0771     54.84897     145.2435        17     1.423     0.863 -40.56   0
       549    383.2664    137.3672 307.7724266  +6.6255864     3313.278      6427.16     6510.815     77.87782     155.6938     311.1402      2.031     4.56     824.6142     54.84897     388.9764        37     1.690     1.236 -52.78   0
       550    347.7201    136.3027 307.7872341  +6.6248280     2956.287     4834.522     4996.196      77.7541     155.9409      311.233      1.724     4.53     826.1833     54.84897     373.6729        23     1.538     0.874 -39.80   0
       551    559.7205    136.3686 307.6991308  +6.6319390     663.9734     1015.338     865.2317     77.87782      155.632     311.1402      1.651     5.50     821.5073     54.84897     96.05157         9     1.045     0.815 -42.84   0
       552    102.0402    136.2116 307.8893307  +6.6165739     1579.294     2677.655     2486.591     77.38177     155.4463     310.9235      1.733     4.74     829.6891     54.84897     215.8047        19     1.456     0.868 -37.66   0
       553    664.2952    133.3551 307.6557725  +6.6366988     661.8433     1238.511     1388.568     78.00134     155.5701     311.2949      2.064     3.92     822.3866     54.84897     109.0936         6     0.889     0.496 -40.94   0
       554    994.6492    130.4054 307.5185787  +6.6489972     1478.057     2181.431     1939.022     77.38177     155.4463     310.8306      1.590     5.26     820.0804     54.84897      190.346        15     1.310     0.739 -41.35   0
       555    199.5593    125.1497 307.8491784  +6.6244354      5192.24     8751.461     8572.711     78.00134      155.632     311.1402      1.817     4.33      828.367     54.84897     644.7874        31     1.606     1.009 -39.43   0
       556     82.3313    125.0533 307.8978961  +6.6205154     2031.436      3412.75     3510.528     77.87782     155.5701     311.0783      1.834     4.98     830.0738     54.84897     250.0856        24     1.635     0.893 -43.53   0
       557    661.3380    124.1138 307.6573108  +6.6404155     5671.178     9480.715     9948.641     78.12466     155.8174     311.1711      1.765     4.67     822.0527     54.84897     698.6505        35     1.694     1.002 -37.68   0
       558    809.1182    124.2031 307.5958918  +6.6453402     952.4693     1535.426     1398.952     77.38177     155.2604     310.8926      1.872     5.90     821.6477     54.84897     152.6409        12     1.457     0.672 -29.79   0
       559    613.5507    121.3349 307.6772635  +6.6399570      8686.87     14427.31      15088.8     77.87782     155.5082     311.1711      1.799     4.48     821.8076     54.84897      1059.24        42     1.749     1.057 -38.88   3
       560    617.0809    112.8254 307.6760812  +6.6435896     48042.84     80557.31     84957.41      77.7541     155.4463     311.1711      1.770     4.43     821.4995     54.84897     6347.049        69     1.773     1.126 -38.37   2
       561    248.2766    121.3854 307.8290601  +6.6276340     760.9968     1039.813     1172.046      77.6302     155.3843     311.0164      1.630     6.17     827.9707     54.84897     109.8398        10     1.300     0.824 -23.26   0
       562    552.1918    120.4252 307.7027936  +6.6382694     577.6423     978.7754     1316.952      77.6302     155.4463     311.0164      1.882     5.89     820.8859     54.84897     79.52264        10     1.535     0.637 -40.50   0
       563     12.3362    120.2675 307.9271434  +6.6201249     841.3681     1541.262     1602.437     78.00134      155.632      311.233      1.874     5.19     833.8854     54.84897     139.3329        11     1.246     0.769 -32.99   0
       564    340.6796    117.0281 307.7908069  +6.6325497     3415.484      6273.42     6890.146     77.87782     155.5701     311.1711      1.997     4.92     826.2762     54.84897     408.7355        32     1.830     0.968 -39.28   0
       565    522.2297    116.6477 307.7153719  +6.6388212     1531.606      2677.89     2887.088      77.6302     155.6938     311.0783      1.857     5.20     820.7947     54.84897     201.5848        21     1.551     0.929 -36.98   0
       566    986.6819    116.0983 307.5223671  +6.6546385     707.1843     1179.275       1194.1     78.00134     156.0027     311.2639      1.752     5.36     819.3252     54.84897     101.3536         8     1.431     0.567 -21.47   0
       567    296.1889    106.5232 307.8096485  +6.6353873     3126.751      5635.17     6187.125      77.6302     155.2604     311.0164      1.952     4.55     827.3996     54.84897     423.0245        29     1.682     1.005 -39.66   0
       568    695.5797    100.8294 307.6438592  +6.6511808     834.8373     1470.162     1160.261     77.50608     155.4463     311.0474      1.862     6.33     821.1885     54.84897     106.2001        11     1.356     0.831 -35.28   0
       569    667.4340     99.9077 307.6555872  +6.6506159     1226.018     1947.042     2096.586     78.12466     155.5082      311.233      1.609     5.86      821.205     54.84897     163.4985        14     1.426     0.679 -41.44   0
       570      2.9138     89.1360 307.9321073  +6.6326608     2571.642     7810.917     15101.77     78.12466     144.3352     258.2915      5.584    12.72     833.2896     54.84897     488.4843       118     4.647     1.983 -88.05  24
       571    681.6472     96.7993 307.6497843  +6.6523770     3110.405     5082.477     5049.421     77.38177     155.2604     310.7377      1.728     4.27     821.0924     54.84897     419.9667        26     1.600     0.883 -36.76   0
       572    423.2816     87.6699 307.7574645  +6.6474559     3814.801     6035.092     6106.989     78.24779     155.8792     311.2021      1.697     4.17     822.1328     54.84897     510.1099        28     1.553     0.932 -38.81   0
       573    895.8334     83.0884 307.5612259  +6.6652260     3600.896     5921.954      6069.16     78.12466     155.5701     311.1711      1.723     4.44     818.8648     54.84897     462.4633        27     1.614     0.911 -43.40   0
       574    386.7330     79.6361 307.7729230  +6.6495420     1808.703     3013.339     2917.544     77.87782     155.7556      311.233      1.803     4.70     824.0129     54.84897     235.6426        19     1.484     0.861 -44.81   0
       575    234.0446     80.5769 307.8363456  +6.6440046     659.2175     1265.697     942.3499     77.50608      155.632     311.0164      2.013     4.39     828.0286     54.84897     117.9548         8     1.258     0.595 -31.77   0
       576    134.5366     76.4330 307.8778376  +6.6423557     3005.245     5101.072     5220.026     77.87782     155.6938     311.1402      1.872     4.54     827.5069     54.84897     368.8107        27     1.528     1.009 -35.83   0
       577     16.4093     74.3050 307.9269987  +6.6392413     11402.89     19316.26      22091.5      77.6302     155.2604     310.9545      1.852     4.19     831.3277     54.84897     1417.944        48     1.757     1.128 -37.99   0
       578    282.8946     74.9902 307.8162324  +6.6479596     1120.908     1850.725     2168.749      77.6302     155.2604     310.9545      1.863     5.65      827.818     54.84897     137.9294        12     1.550     0.581 -34.30   0
       579    556.5576     73.8559 307.7025392  +6.6576462     745.4448     827.1519     792.8337     77.87782     155.5701     311.2021      1.297     4.17     819.4458     54.84897     114.7241         6     0.751     0.660 -34.76   0
       580    974.5732     72.1936 307.5288641  +6.6723631     476.5468     881.5956     812.3721     77.50608     155.4463     310.9854      1.975     3.44     816.6634     54.84897     82.86676         5     0.751     0.454 -70.94   0
       581    818.0917     68.9478 307.5940085  +6.6684583     5510.791     9032.173     9725.225     77.87782     155.4463     311.3567      1.722     4.25     819.0319     54.84897     749.7606        35     1.690     0.977 -37.48   0
       582    763.1959     69.3341 307.6168109  +6.6664567     2983.032     4837.153     4902.801     77.38177     155.3843     310.9235      1.710     4.17     819.3384     54.84897     397.1494        23     1.560     0.845 -40.11   0
       583    408.1089     70.0219 307.7643621  +6.6542322     890.7648       1467.7     1479.252     78.00134     155.4463     311.0474      1.914     5.74     822.8283     54.84897     115.0621        12     1.430     0.649 -43.04   0
       584    877.6915     84.1839 307.5687293  +6.6641655     1980.506     3301.133     3652.313      77.7541     155.4463     311.0474      1.746     4.26     819.0542     54.84897     230.1372        22     1.386     0.994 -34.90   0
       585    587.7773     81.6826 307.6893023  +6.6554643     1612.564     2837.036     2589.163      77.7541     155.3224     311.0783      1.821     6.05     820.0836     54.84897      203.422        22     1.712     0.905 -33.58   0
       586    525.5366     67.0961 307.7156580  +6.6593939     1049.502     2008.517     2403.414     77.87782     155.7556     311.2021      1.972     4.73     819.2446     54.84897     154.8273        12     1.364     0.619 -47.26   0
       587     56.8667     66.1175 307.9104618  +6.6439902     2899.361     4747.602     4890.749     78.24779     155.8792      311.233      1.768     4.42     829.0124     54.84897     353.1852        25     1.519     0.945 -42.05   0
       588     41.6169     67.2821 307.9167599  +6.6429936     808.8161     1231.975     1205.077      77.6302     155.3224     311.1093      1.862     5.64     829.6858     54.84897      113.821         9     1.196     0.784 -14.77   0
       589    645.4847     66.2403 307.6658361  +6.6637808     558.3203     996.1425      907.808     78.00134     155.5701     311.1402      1.753     5.24     819.5599     54.84897     78.99371         7     1.385     0.559 -33.72   0
       590    418.3185     65.5284 307.7602698  +6.6564316     821.8528     1352.756     1544.072     78.24779     155.9409     311.2021      1.754     4.49      822.279     54.84897     144.5524         9     1.244     0.489 -50.62   0
       591    580.4121     63.0228 307.6929882  +6.6629219      1259.72     1970.889      1964.31     77.63019     155.4463     311.0783      1.651     4.68     819.3359     54.84897     198.9393        17     1.459     0.873 -33.14   0
       592      1.2107     60.8446 307.9337680  +6.6442851     649.8505      876.517     787.5569     65.96487     121.8388     231.9794      0.995     2.97     830.8512     54.84897     222.7471         7     1.077     0.403 -86.40  24
       593    757.7888     56.6356 307.6194827  +6.6715189     1780.092     3328.958     3480.159     77.50608     155.4463     310.9545      1.966     5.11     818.6946     54.84897     266.1963        22     1.662     0.882 -36.24   0
       594    398.4834     57.0554 307.7687974  +6.6592621     947.8587     1448.571     1046.291     78.00134      155.632     311.2639      1.602     5.09     823.3924     54.84897      128.861        12     1.260     0.835 -53.27   0
       595     72.1472     57.1884 307.9044123  +6.6481937     838.3754     1349.537     1028.857     77.38177     155.5701     310.8926      1.817     4.48     828.0861     54.84897     108.2998         8     0.856     0.667 -39.41   0
       596     95.7831     55.3838 307.8946506  +6.6497378     915.2424     1339.352     1518.288      77.7541     155.3224     311.1093      1.608     5.15     827.2441     54.84897     112.2274        10     1.159     0.646 -41.07   0
       597     84.4913     50.4096 307.8995106  +6.6514101     8620.223     14647.65     15590.02      77.6302     155.3224     310.9235      1.833     4.30     827.5054     54.84897     1037.875        43     1.766     1.079 -38.48   0
       598    413.6082     50.1289 307.7627440  +6.6626318     2335.734     3859.656     3577.933     77.50608     155.1984     311.0474      1.750     4.62     822.4898     54.84897     270.8083        24     1.524     0.971 -36.63   0
       599    627.2463     42.5344 307.6742096  +6.6729568     16903.88     27690.04     29796.12     78.00134     155.5701     311.1711      1.788     4.41     818.7544     54.84897     2181.047        55     1.783     1.098 -40.07   0
       600    251.3294     44.3470 307.8303799  +6.6595480     1386.998      2526.58     3760.893     77.87782     155.5701     311.1093      2.421     5.91     827.8326     54.84897     173.4417        18     1.445     0.920 -48.57   0
       601    656.5623     43.9036 307.6619797  +6.6733767     445.1065     575.9528    -45.31979     78.00134     155.5082     311.3258      1.417     4.18     818.3723     54.84897     80.21814         5     0.927     0.539 -44.02   0
       602    936.7475     41.8132 307.5455990  +6.6836413     424.7791     752.9512     787.0284     77.38177     155.5701     310.9235      1.733     3.47      816.809     54.84897     75.02063         5     0.997     0.350 -46.83   0
       603    526.9767     38.5789 307.7160151  +6.6712180     4735.816     8095.476     8695.683      77.7541     155.4463     311.1402      1.837     4.33     818.2832     54.84897     590.9098        31     1.615     1.016 -37.11   0
       604    245.2409     38.8623 307.8330944  +6.6616073     1771.181     3093.981      4212.02     78.00134     155.5701     311.2021      2.043     4.98      827.819     54.84897     215.6632        24     1.561     0.974 -46.51   0
       605    684.1651     36.7583 307.6507466  +6.6772546     485.6983     753.1228     1397.756      77.7541      155.632     311.0164      1.595     3.59     817.7514     54.84897     81.59338         5     1.156     0.321  80.29   0
       606    613.6790     32.9382 307.6801696  +6.6764633     2833.205     5543.849     6693.279     78.12466     155.6938     311.1711      2.140     5.42     818.5881     54.84897     390.7861        37     1.800     1.468  83.44   0
       607    432.5912     34.1830 307.7553895  +6.6698557      20646.3     34979.55     36934.84      77.7541     155.3843     311.0164      1.821     4.43     821.4174     54.84897     2578.591        53     1.756     1.120 -37.46   0
       608    253.1868     34.5421 307.8299374  +6.6636593     8269.156     13867.84     15307.26     77.38177     155.5082     310.8926      1.823     4.33     827.8021     54.84897      1086.24        39     1.695     1.042 -38.24   0
       609    910.3751     34.2203 307.5568135  +6.6858929     1730.853     2960.507     2892.423      77.6302     155.4463     311.1093      1.749     4.73     817.0194     54.84897     231.2757        20     1.483     0.859 -40.35   0
       610    312.8915     34.7206 307.8051186  +6.6655996     975.0026     1663.666     1694.659      77.7541     155.8792      311.233      1.714     5.38     827.0965     54.84897     127.6351        11     1.200     0.681 -53.26   0
       611     18.4739     34.1138 307.9274943  +6.6559066     2047.707     3560.874     4055.291     78.12466     155.9409     311.1711      1.796     4.37     828.1232     54.84897      271.485        21     1.507     0.865 -35.40   0
       612    546.4405     33.3783 307.7081000  +6.6740204     667.2299     880.0803     748.1794      77.6302     155.4463     310.9854      1.634     4.19     817.8581     54.84897      98.6203         7     1.036     0.484 -83.03   0
       613    241.0945     31.2316 307.8350741  +6.6646182     2821.329     4430.363     5095.142     78.12466     155.4463      311.233      1.692     4.16     827.7873     54.84897     346.1163        23     1.445     0.931 -39.67   0
       614    293.8962     29.6322 307.8131838  +6.6670601     756.7656     1331.954     1849.474     78.12466     155.5082     311.2639      2.299     5.87     827.6501     54.84897     113.6871        10     1.436     0.675 -47.82   0
       615    931.4523     23.9863 307.5483948  +6.6908253     998.6724     1555.667     1533.434     77.38177     155.5701     310.9235      1.510     4.05       816.55     54.84897     167.7545        10     1.129     0.683 -69.68   0
       616    682.5607     23.6484 307.6518521  +6.6826143     1709.893     2702.331      3024.95     77.87782     155.6938     311.0164      1.662     4.33     817.0286     54.84897     211.6942        20     1.480     0.830 -44.72   0
       617     87.8678     23.9741 307.8989971  +6.6624398     419.9369     643.4462     343.6317      77.6302     155.5082     311.0783      1.585     3.91     826.8254     54.84897     70.17719         5     1.290     0.339 -26.00   0
       618    740.9122   1018.5161 307.5943585  +6.2737484     1050.734     1897.357     2497.016      77.7541     155.8174     299.6662      2.157     6.92     850.2351     54.84897     139.2968        17     1.727     0.819 -28.19  16
       619    248.2176     18.5249 307.8325408  +6.6701055     743.5009     1271.577     1496.882     77.50608     155.3843     311.0783      1.917     4.98     827.7452     54.84897     100.0168         9     1.261     0.558 -28.05   0
       620    948.5668   1013.0139 307.5083035  +6.2829806       5395.4     10173.39     10903.43     77.63019     155.3843     311.0783      2.003     4.64     846.3516     54.84897      628.217        41     1.739     1.213 -36.82  16
       621    707.1471   1011.6147 307.6086113  +6.2754653     2168.294     4498.222      5727.79     77.38177     155.5701     310.8926      2.518     9.67     850.9658     54.84897     274.1003        40     2.770     0.982 -27.19  16
       622    232.8954   1012.8275 307.8055179  +6.2590107      1253.06     2045.689     2212.915     78.12466     155.3843     311.0783      1.822     5.38     850.4802     54.84897     186.2697        14     1.499     0.641 -39.64   0
       623    431.4399   1011.8492 307.7231008  +6.2661026     973.6642     1681.268     1388.019     78.00134      155.632     311.1093      1.865     5.87     851.6968     54.84897     144.3104        12     1.207     0.803 -44.38   0
       624    723.8218   1010.4924 307.6017239  +6.2764883     902.1912     1471.935     1049.216     78.00134     155.4463     310.9854      1.800     5.16     850.4807     54.84897      132.167        12     1.390     0.791 -40.51   0
       625    354.6126   1008.5724 307.7551151  +6.2648693     1750.502     3203.409     3365.348     77.50609     155.4463     311.0783      1.904     5.01     851.7692     54.84897     233.7915        23     1.686     0.889 -42.27   0
       626    606.1742   1002.4932 307.6508493  +6.2758414     435.0957     674.4178     952.7598     78.12466     155.3843     311.0164      1.596     4.63     852.3781     54.84897     78.36914         6     1.183     0.515 -46.50   0
       627    741.7882    998.1413 307.5946749  +6.2821915     6936.524     12216.46     13269.51     77.38177     155.5701     310.8926      1.904     4.41     849.7047     54.84897      817.369        44     1.758     1.150 -44.48   0
       628    507.7321    999.8784 307.6918187  +6.2736123     1050.192      1819.66     1540.726     78.12466     155.6938     311.1711      1.778     4.42     851.8178     54.84897     172.9238        12     1.465     0.660 -43.77   0
       629    287.5969    997.2164 307.7833257  +6.2673009     13466.86     23218.59     26071.11      77.6302     155.2604     311.0164      1.908     4.91      851.575     54.84897     1665.666        65     2.243     1.094 -39.51   0
       630    537.1530    998.6399 307.6796420  +6.2751130      3716.84     6445.371     6969.949     77.87782      155.632     310.9854      1.845     4.59     852.1638     54.84897     458.8719        30     1.624     1.013 -36.20   0
       631    803.3353    997.5292 307.5691348  +6.2845087     1026.272     1823.847     1864.312     78.00134     155.6938     311.1711      1.968     5.92     848.0352     54.84897     153.1722        13     1.485     0.665 -48.88   0
