#   1 NUMBER                 Running object number                                     
#   2 X_IMAGE                Object position along x                                    [pixel]
#   3 Y_IMAGE                Object position along y                                    [pixel]
#   4 ALPHA_J2000            Right ascension of barycenter (J2000)                      [deg]
#   5 DELTA_J2000            Declination of barycenter (J2000)                          [deg]
#   6 FLUX_APER              Flux vector within fixed circular aperture(s)              [count]
#   9 FLUXERR_APER           RMS error vector for aperture flux(es)                     [count]
#  12 FLUX_RADIUS            Fraction-of-light radii                                    [pixel]
#  13 FWHM_IMAGE             FWHM assuming a gaussian core                              [pixel]
#  14 BACKGROUND             Background at centroid position                            [count]
#  15 THRESHOLD              Detection threshold above background                       [count]
#  16 FLUX_MAX               Peak flux above background                                 [count]
#  17 ISOAREA_IMAGE          Isophotal area above Analysis threshold                    [pixel**2]
#  18 A_IMAGE                Profile RMS along major axis                               [pixel]
#  19 B_IMAGE                Profile RMS along minor axis                               [pixel]
#  20 THETA_IMAGE            Position angle (CCW/x)                                     [deg]
#  21 FLAGS                  Extraction flags                                          
         1     12.4678     80.1745 307.9363114  +6.6321272     746497.5      1964308      2256831     85.71635     171.7063      343.481      2.506     6.39     1054.376     60.56218      60894.5       445     2.431     1.915 -39.68  28
         2    271.9796     25.1330 307.8303009  +6.6635658     6313.226      12897.2     14246.21     85.71635      171.843      343.481      2.155     5.08     1045.917     60.56218     770.5902        51     1.911     1.394 -35.15   2
         3    451.3456     24.7120 307.7557491  +6.6697460     15849.99     32156.53     35600.29     86.12616     171.7063     343.7543      2.176     4.87     1032.134     60.56218      1821.55        68     2.044     1.427 -31.63   0
         4    260.2470     21.6414 307.8352967  +6.6646143     2265.126     4445.949     5429.161     85.98978      171.843     343.4469      2.203     4.60     1045.955     60.56218     269.3185        32     1.569     1.267 -50.27   0
         5    701.1682     14.3656 307.6522386  +6.6823656     1323.288     2563.353     2735.274     85.71635     171.5696     343.3102      2.147     5.36     1024.021     60.56218      191.611        19     1.567     0.905 -40.41   0
         6    949.8062     14.4970 307.5488629  +6.6905973     881.7155     1376.252     810.7914     85.85317     171.5012     343.3443      1.629     5.37     1016.701     60.56218     140.6375         8     0.975     0.835   3.91   0
         7    213.0204     10.4920 307.8553075  +6.6676349     557.1033     876.4787     228.0873     85.98977      171.638     343.4127      1.736     3.79      1045.87     60.56218     90.47742         6     1.447     0.285 -16.84   0
         8    189.5047      7.2564 307.8651930  +6.6681823     7523.396     15354.58     16937.11     85.98978      171.843     337.5178      2.177     4.97     1045.774     60.56218     878.6897        52     1.899     1.387 -35.09  16
         9    533.5258      5.4979 307.7222339  +6.6804287     2049.909     4155.345     4995.502     85.71635     171.9113     320.4283      2.322     5.74     1027.513     60.56218     245.3655        30     1.733     1.204 -31.19  16
        10      2.9334      7.8538 307.9427317  +6.6616707     725.7718     1153.924     641.7131     86.12616     159.4431     282.7573      1.588     6.62     1051.327     60.56218     95.51062        11     1.357     0.906  -3.73  24
        11    934.9797      4.7684 307.5553546  +6.6941214     3313.734     5733.884     5563.376     85.57932      171.638     311.5511      1.796     4.87     1017.731     60.56218     434.8117        26     1.630     0.934 -32.08  16
        12    735.8076      3.3329 307.6382096  +6.6880774     1505.115     2956.933     3446.489     85.57932     163.4416     291.5451      2.117     5.53     1022.199     60.56218     172.7468        22     1.580     1.071 -29.20  24
        13    471.6602      3.6855 307.7480149  +6.6791085     1038.489     2547.435     2580.271     86.26233     167.1341     296.9697      2.298     7.35     1030.458     60.56218     132.2546        21     1.672     1.316  55.67  24
        14    999.0884      1.7276 307.5288031  +6.6975104      1432.91     2023.185     1830.929     79.90537     143.2344     265.5471      1.426     5.19     1010.983     60.56218     212.5174        11     1.125     0.676 -20.91  24
        15    984.5584    996.5951 307.5013932  +6.2861723     684.0252     739.5165     1150.209     85.44206     171.5012     343.2759      1.638     3.53     1060.732     60.56218     100.6252         5     1.082     0.332 -20.58   0
        16    976.3646   1023.0664 307.5039078  +6.2749678     532.4852     752.4238     1252.461     82.07908     146.0742     269.1033      1.052     3.43     1062.575     60.56218     113.4878         5     0.778     0.436  71.63  24
        17    803.9301   1021.2418 307.5756013  +6.2699824     6414.771     10261.54     10266.96     85.98977     167.6949     297.8773      1.692     4.54      1066.97     60.56218     857.6511        33     1.621     0.953 -33.75  24
        18    593.5617   1023.4626 307.6629152  +6.2620506     104421.2     133120.8     136298.1      77.5196     139.8344     262.1216      1.292     3.76     1069.873     60.56218     18826.08        41     1.554     0.735  -7.78  27
        19    594.8115   1017.2203 307.6626066  +6.2646702      67173.3     112193.2     120998.5     85.71635     171.5012     340.7364      1.804     4.39     1069.655     60.56218     8874.867        83     1.881     1.207 -33.65  19
        20    556.1542    988.9130 307.6796200  +6.2750696     3811.544     6344.116     7217.492     86.12615     171.7063     343.5835      1.764     4.23     1069.208     60.56218     489.3162        30     1.562     1.076 -39.70   0
        21    526.5018    990.0107 307.6919009  +6.2736260     1084.877      1539.31     1686.975     85.85317     171.4327     343.3785      1.524     4.86     1069.475     60.56218     136.8059        11     1.084     0.788 -31.24   0
        22    306.5106    987.7025 307.7833641  +6.2672232     13236.97     23164.92     25935.04     86.12616     172.3204     343.5835      1.949     5.03     1070.902     60.56218     1606.383        57     2.082     1.193 -29.41   0
        23    760.6352    988.3201 307.5946951  +6.2821357      7737.17     12315.04     12777.55     85.98978     171.9113     343.6177      1.729     4.35     1065.253     60.56218      984.877        34     1.656     0.958 -27.36   0
        24    821.7147    987.8740 307.5693362  +6.2843547     1103.917     1791.172     2142.041     86.26232     172.1842     343.6177      1.789     4.83     1064.428     60.56218     163.6909        15     1.549     0.711 -33.29   0
        25    430.9576    987.9476 307.7316604  +6.2712851     855.4814     1214.914       372.33     86.12616     171.9113     343.6177      1.675     5.57     1070.589     60.56218      148.939         9     1.143     0.764 -30.60   0
        26    277.1459    985.7582 307.7956279  +6.2670430     760.2494     1595.873     1383.591     85.98978     171.9113     343.6177      1.745     6.40     1070.737     60.56218     106.8492        12     1.750     0.656 -38.26   0
        27    921.9977    981.7393 307.5278821  +6.2902265      8695.77     13747.53      14677.5     85.44206     171.5012     343.2759      1.659     4.13     1062.429     60.56218     1180.303        35     1.611     0.959 -30.31   0
        28    553.3525    981.0886 307.6810479  +6.2782073     7569.505     12410.44     13383.07     86.12616     171.7063     343.7202      1.713     4.19     1068.951     60.56218     1028.286        37     1.590     1.079 -29.67   0
        29    895.5615    977.9230 307.5389929  +6.2909228     12485.35     19645.17     20413.11     85.98977     171.9113     343.5835      1.706     4.16     1062.471     60.56218     1643.232        46     1.685     1.050 -29.81   0
        30   1017.2642    977.3619 307.4884522  +6.2952025     4860.383     7656.538     7801.578     86.12616     171.7747     340.5986      1.702     4.38     1058.356     60.56218     735.6027        28     1.585     0.911 -31.23  16
        31    608.3759    978.0190 307.6582938  +6.2813118     1237.977     2068.104     2277.855     85.85317      171.638     343.5152      1.961     6.15     1068.179     60.56218     166.4723        13     1.216     0.873 -28.31   0
        32    539.8868    976.9092 307.6867828  +6.2794835     3713.145     6262.464     6645.753     85.85317     172.3204     343.7201      1.880     4.10     1068.934     60.56218     465.2294        31     1.616     1.116 -15.21   0
        33    649.3360    976.4260 307.6413319  +6.2833365     1319.553     2008.605     2212.535     85.71635      171.843     343.5152      1.686     4.89     1067.161     60.56218     196.9481        16     1.509     0.749 -37.80   0
        34     74.6268    975.7373 307.8800918  +6.2643935      927.478     1449.094     1551.542     85.71635     171.7747     343.5152      1.867     6.41     1068.416     60.56218     129.8695        12     1.458     0.791 -16.09   0
        35    804.2720    974.8118 307.5770219  +6.2891681     564.1543     722.1053     588.2905     85.57932     171.4327     343.3785      1.501     4.49     1064.094     60.56218     104.0112         5     1.197     0.479 -28.68   0
        36    492.8347    973.6038 307.7064405  +6.2792767     1990.374     3486.628     3324.163     85.30459     171.7063     343.3443      1.793     5.52     1069.186     60.56218      226.792        21     1.590     0.898 -31.60   0
        37    927.3394    965.4606 307.5262103  +6.2971270     43869.04     68513.14     71950.78     86.12616      171.843     343.6177      1.711     4.42     1061.244     60.56218     6277.677        64     1.709     1.082 -29.86   0
        38      1.5923    964.8897 307.9107971  +6.2664218     1848.578     2276.136     2265.232     78.12287     140.6712     262.8817      1.201     2.88     1068.416     60.56218     345.4326        11     1.014     0.666 -77.02  24
        39    234.7312    963.7368 307.8139921  +6.2747164     1521.526     2289.482     2436.613     86.12616      171.843     343.6519      1.582     4.65     1070.223     60.56218     218.7537        16     1.360     0.870 -43.26   0
        40    633.4178    961.6976 307.6484412  +6.2888878     655.9379     1150.779     1196.263     85.98978      171.638     343.3102      2.085     6.90     1067.033     60.56218     103.7933         9     1.419     0.941 -29.66   0
        41    773.4121    957.2577 307.5904331  +6.2953894     6243.158     10313.49     11441.92     85.44206     171.7747     343.2759      1.787     4.45     1063.602     60.56218     801.1852        37     1.841     1.066 -50.05   0
        42    825.3660    959.1558 307.5687857  +6.2963362     2246.383     3351.389     3435.147     85.71635      171.843     343.4469      1.687     4.79     1062.704     60.56218     342.3813        20     1.577     0.750 -22.95   0
        43    242.8234    956.5095 307.8108752  +6.2779720     1351.202      2325.15     2398.651     86.12616      171.638     343.4127      1.987     4.54     1070.242     60.56218     173.6602        14     1.262     0.755 -27.61   0
        44    207.9160    955.5637 307.8254078  +6.2771932     765.4816     1492.453     1254.213     86.12615      171.843     343.5494      1.905     6.63     1069.936     60.56218     96.27026         9     1.559     0.791 -50.38   0
        45    560.3460    956.3420 307.6789776  +6.2886603     940.2396     1420.341      1585.63     86.26233      171.843     343.5835      1.608     3.94     1067.953     60.56218     167.0063         7     1.002     0.443 -10.86   0
        46     68.0610    954.4583 307.8835406  +6.2729604     2349.518     4188.679     4441.945     86.26232     171.7747     343.6177      1.863     4.76     1068.416     60.56218     294.7186        26     1.667     0.919 -30.47   0
        47    961.6554    952.2254 307.5123988  +6.3037343     6910.926      10959.7     11309.35     85.71635      171.843     343.3785      1.678     4.39     1059.186     60.56218     924.1388        31     1.577     0.943 -34.52   0
        48    218.4669    948.3896 307.8212678  +6.2805093      643.114     812.0583     488.4184     85.57932      171.638     343.4127      1.573     4.77     1070.019     60.56218     89.79749         7     1.395     0.462 -46.38   0
        49    935.6146    943.9126 307.5234968  +6.3063011     2022.023     3070.418     3286.622     85.71635      171.638     343.4127      1.652     3.92     1059.569     60.56218     256.4144        19     1.332     0.874 -29.48   0
        50    268.5642    940.2106 307.8007339  +6.2855649     3717.292     6496.674     7496.943     85.57932      171.638     343.3443      1.885     4.56     1070.236     60.56218     418.2871        28     1.583     1.024 -37.15   0
        51    794.8834    940.5864 307.5820743  +6.3029895     1225.898     2065.495      2403.09     85.71635     171.5696     343.4127      1.704     5.16     1062.176     60.56218     204.7175        15     1.462     0.714 -27.34   0
        52    656.2874    939.8809 307.6396760  +6.2986604     4308.626     7091.456     7280.087     85.85317      172.116     343.7202      1.731     4.03     1065.589     60.56218     593.9778        25     1.525     0.919 -27.25   0
        53    478.3618    938.2261 307.7136473  +6.2934028     1085.153     1719.083     1531.138     85.71635      171.638     343.4127      1.759     4.52     1068.409     60.56218     148.7208        11     1.161     0.637 -36.87   0
        54     37.2641    937.6328 307.8969040  +6.2788750     1844.531     3243.613     3466.982     85.98978     171.9113     343.5494      1.899     4.45     1068.416     60.56218     237.6096        23     1.431     1.103 -43.22   0
        55    887.9869    935.9609 307.5435508  +6.3080001     821.1388     1262.768     897.6957     85.57932      171.638     343.3443      1.499     5.11      1060.32     60.56218     127.9208        10     1.580     0.467 -48.62   0
        56    581.1088    932.3478 307.6711617  +6.2992624     1338.088     2656.559     2403.288     85.98978      171.638     343.7884      2.063     5.67     1066.898     60.56218     201.9673        20     1.628     1.007 -45.31   0
        57    959.3283    933.3124 307.5140012  +6.3114676     750.2961     1387.547     1365.834     86.26233      172.116     343.5835      1.870     6.24     1058.166     60.56218     118.7394        10     1.483     0.739 -47.30   0
        58    304.6012    933.4072 307.7859938  +6.2895810     769.5551     1332.015     1713.163     85.44206     171.5012     343.3785      1.899     4.71     1070.226     60.56218     121.4586         8     1.355     0.464 -41.91   0
        59   1012.3391    932.2734 307.4920128  +6.3136593     983.7454     1570.205      1291.07     86.26233      171.843     343.6177      1.707     5.02     1056.545     60.56218     142.0947         9     1.129     0.632 -23.39   0
        60     70.5399    930.4449 307.8833250  +6.2829599     641.7257       1000.6     846.9781     85.98978     171.7747      343.686      1.823     4.94     1068.416     60.56218     91.88147         6     0.954     0.723 -14.99   0
        61    620.2990    928.8568 307.6549985  +6.3020122     1033.526     1476.989     1126.894     85.85317      171.843     343.7884      1.587     4.32     1066.232     60.56218     139.9442         9     1.137     0.579 -14.88   0
        62    300.2223    926.2921 307.7880536  +6.2923727     1224.122     2062.938     2633.841     86.12616      171.638     343.4127      1.934     6.18     1070.151     60.56218     157.2655        15     1.475     0.727 -27.38   0
        63    766.8301    922.6595 307.5943324  +6.3094581     921.3192     1175.293     653.5803     85.85317      171.843     343.5494      1.401     5.12     1062.197     60.56218     156.5094        10     1.118     0.663 -48.63   0
        64    904.3690    919.1229 307.5373112  +6.3154990     6803.339     10853.94     11493.52     85.98978     171.9113     343.5494      1.700     4.21     1059.118     60.56218     884.2308        33     1.631     0.962 -35.48   0
        65    440.3682    916.3015 307.7301714  +6.3011870     1934.307     3412.684     3571.243     86.12616     171.7063     343.7202      1.863     5.18     1068.811     60.56218     236.8779        25     1.595     1.006 -37.75   0
        66    342.0191    914.7278 307.7710814  +6.2985472      7981.44     14344.82     15264.27     85.71635     171.7747     343.5152      1.899     4.28     1069.901     60.56218     941.8809        46     1.760     1.239 -38.30   0
        67    262.0897    913.7486 307.8043189  +6.2962758     6098.678     10611.28     11334.23     86.12616      171.638     343.7202      1.849     4.46     1069.969     60.56218     723.7766        35     1.616     1.109 -34.10   0
        68    589.9703    908.4032 307.6682880  +6.3094466     1017.186     1549.161     1494.558     85.57932      171.638     343.3785      1.542     4.21     1065.942     60.56218     146.8888        10     1.032     0.665 -56.55   0
        69    920.1478    904.1759 307.5312584  +6.3221968      968.002     1764.734      1728.64     85.57932      171.843      343.481      2.130     5.50     1058.021     60.56218     151.7593        12     1.331     0.642 -33.04   0
        70    987.0231    900.0399 307.5036134  +6.3261294     845.1912     1392.828      1842.12     85.71635      171.638     343.3443      1.917     4.88     1055.357     60.56218     105.5344         9     0.869     0.776 -42.83   0
        71    756.2108    897.5282 307.5995905  +6.3194828     1552.976     2484.905     2763.626     85.57932     171.4327     343.4127      1.816     5.08     1061.729     60.56218     212.6233        16     1.428     0.733 -39.62   0
        72    580.7573    896.8746 307.6725044  +6.3139000     645.9739     853.8815     873.1147     85.98977     171.9113     343.6177      1.539     4.26     1065.658     60.56218     97.64368         6     0.915     0.601 -25.62   0
        73      6.9155    894.3788 307.9109780  +6.2957180     927.3085      1549.68     2041.575     85.85317     171.5012     334.4788      1.977     5.03      1067.75     60.56218       131.39        12     1.309     0.811 -39.90  16
        74    620.4013    893.7357 307.6561404  +6.3165195     758.8512     1091.455     1189.917     85.44206     171.5696     343.3443      1.686     5.65     1064.888     60.56218     126.0161         9     1.301     0.691 -30.87   0
        75    541.7196    892.9996 307.6888531  +6.3141966     1029.884     1595.453     1135.464     85.30458     171.1586     343.2759      1.623     5.61     1066.085     60.56218     140.6565        11     1.362     0.651 -36.94   0
        76    987.7870    892.9391 307.5035346  +6.3290872      1193.12     1723.498     2279.649     85.57932      171.638     343.2418      1.486     4.95      1054.89     60.56218     183.0148        10     1.272     0.544 -24.22   0
        77    675.0002    890.6254 307.6335622  +6.3196257     2310.621     3652.448     4041.421     85.71635     171.5012     343.3785      1.719     4.36     1063.456     60.56218      316.434        21     1.416     0.938 -24.16   0
        78    965.6848    888.2763 307.5128740  +6.3302779     632.2337     977.8663     1682.032     86.26233     172.1842     343.6518      1.510     4.17     1055.499     60.56218     129.2793         7     1.133     0.437 -29.14   0
        79     71.7462    886.9313 307.8842992  +6.3009694     2685.529     4812.045      5382.89     85.98978     171.7747      343.481      2.006     4.39     1067.922     60.56218     318.8014        28     1.570     1.046 -28.18   0
        80    835.8754    886.7184 307.5668573  +6.3266010      804.217     1256.783     646.0349     86.39828      172.116     343.6518      1.658     6.25      1059.72     60.56218     129.3823        11     1.274     0.862 -36.23   0
        81    215.0078    885.8094 307.8248235  +6.3062363     1796.072     3297.716     3548.474     85.57932      171.638     343.4469      1.880     5.14      1069.08     60.56218     223.6235        21     1.454     0.951 -31.06   0
        82     89.1369    886.1443 307.8771015  +6.3018779      1829.91     3116.349     2844.376     86.26232      171.843     343.5835      1.849     6.27     1067.993     60.56218     196.1345        18     1.388     0.908 -44.36   0
        83    952.8420    885.6608 307.5182976  +6.3309308     756.2433     1107.782      929.209     86.12616      171.843      343.686      1.435     2.37     1055.939     60.56218     139.1453         5     0.730     0.431  19.42   0
        84    249.0216    882.3126 307.8108117  +6.3088199     708.7504      1137.31     1163.302     86.12615      171.638     343.4469      1.929     5.08     1069.464     60.56218      116.903         8     1.256     0.582 -43.50   0
        85    354.9953    881.5916 307.7668112  +6.3126654     711.9375     1412.484     1990.147     85.44206     171.5696     343.4127      2.227     6.56     1068.991     60.56218     106.0712         8     1.451     0.833 -37.72   0
        86    669.6631    879.7515 307.6361460  +6.3239383     6117.328     10275.07     11003.17     85.98978     171.7747     343.6518      1.794     4.19     1063.236     60.56218     738.1667        35     1.585     1.093 -24.45   0
        87     29.9903    877.9560 307.9019496  +6.3032744     1098.305     1639.204     1232.482     85.57932     171.7063     343.2759      1.511     5.56     1067.577     60.56218     157.5845        12     1.327     0.657 -40.68   0
        88    907.4548    876.0157 307.5374787  +6.3334039     2591.362     4122.663     3920.413     85.44206      171.843     343.2759      1.666     4.21     1057.385     60.56218     398.1691        18     1.438     0.799 -30.19   0
        89     43.0991    876.5737 307.8965509  +6.3042852     1007.922     1762.931     1604.036     86.26232     171.5696      343.481      1.864     5.75     1067.636     60.56218     144.0881        11     1.398     0.789 -11.74   0
        90    352.6752    873.0051 307.7680654  +6.3161337     13817.74     24712.86     27032.92     85.71635     171.2957      343.481      1.916     4.43      1068.78     60.56218     1578.216        52     1.806     1.194 -32.81   0
        91     87.6071    874.3348 307.8781374  +6.3067033     1042.819     1931.995     2074.884     85.57932     171.5696     343.4127      1.962     5.76     1067.869     60.56218     159.9642        14     1.624     0.872 -23.68   0
        92    223.5765    872.4268 307.8217170  +6.3120499     1060.869     1825.314     2242.227     85.57932     171.7063     343.4469      1.805     4.46     1068.936     60.56218     145.4749        12     1.176     0.800 -43.18   0
        93    115.8757    863.3110 307.8667677  +6.3122039     1488.717     2801.598     2903.287     86.12616     172.1842      343.686      1.934     6.39     1067.884     60.56218     186.2821        21     1.439     1.132 -77.20   0
        94    430.6746    864.0948 307.7359623  +6.3224224     730.4365     1444.962     1155.687     85.85317     172.0478     343.5835      2.042     5.71     1067.535     60.56218     116.2307         8     1.268     0.725   1.62   0
        95    684.0262    859.6495 307.6308563  +6.3327189      867.134     1260.215     1790.553     85.71635     171.9113      343.481      1.576     4.58      1062.22     60.56218     142.6625         9     1.229     0.613 -36.04   0
        96    511.8357    859.3926 307.7024027  +6.3270769      517.254      991.948     1293.844     85.44206      171.638     343.3443      2.031     4.53     1065.494     60.56218     86.34253         5     1.340     0.435 -30.83   0
        97     99.4079    857.2928 307.8738128  +6.3141367     1961.797     3878.893     4544.645     85.71635     171.5012     343.3785      2.173     6.14      1067.76     60.56218     251.2732        21     1.674     0.888 -34.20   0
        98    897.7486    857.6085 307.5421304  +6.3406826     1895.158     2887.645     3207.927     85.57932     171.7063     343.2418      1.621     4.61     1056.898     60.56218     267.1752        15     1.440     0.652 -34.60   0
        99    868.5038    857.1172 307.5542973  +6.3399120     1908.381     2873.113     2873.566     85.98977     172.2523      343.686      1.600     4.86     1057.931     60.56218      260.132        17     1.424     0.823 -30.67   0
       100    831.8640    856.6801 307.5695348  +6.3388725     2868.323     4347.805     4350.543     86.39828     171.9113     343.5494      1.621     4.11     1058.727     60.56218     367.8112        23     1.442     0.908 -34.52   0
       101    567.7391    848.1911 307.6795554  +6.3335700     281390.9     494018.6     530911.6     85.44206     171.7063     343.3102      1.882     4.32     1063.851     60.56218     34640.56       174     1.938     1.396 -31.19   0
       102    411.9825    850.8221 307.7441764  +6.3272785     6168.612     11194.34     12501.23     85.85317     171.7063     343.5152      1.992     4.50     1067.448     60.56218     759.2113        42     1.771     1.160 -34.60   0
       103    655.3586    851.2490 307.6430498  +6.3352317      999.064     1539.558     1385.855     86.12616     171.7747     343.5152      1.609     4.47     1062.447     60.56218     149.4031        10     1.183     0.614 -36.09   0
       104    355.2511    849.2433 307.7677987  +6.3260326     10484.37     19003.56     20953.22     86.26233     171.7747     343.6177      1.946     4.59     1068.273     60.56218     1227.549        46     1.793     1.180 -34.14   0
       105    673.6295    845.5743 307.6356502  +6.3381848     3058.118     4929.542     5083.906     85.57932      171.638     343.4127      1.742     4.24     1061.826     60.56218     394.8956        24     1.473     0.971 -34.26   0
       106    905.7120    844.2933 307.5392696  +6.3464465     4939.541     8112.179     9468.243     86.12616     172.3204     343.6518      1.817     5.18     1055.767     60.56218     681.3184        36     1.901     1.043 -18.98   0
       107    745.7453    842.1901 307.6058024  +6.3419871      502.389     565.9733     270.2235     85.44206     171.7747     343.2759      1.186     3.86     1060.199     60.56218     85.61548         5     0.970     0.440 -43.62   0
       108    648.3594    839.5251 307.6463530  +6.3398399     2802.645     4933.137      4968.93     85.98978      171.843     343.6177      1.867     4.68     1062.101     60.56218     353.4211        25     1.652     0.955 -32.29   0
       109    837.0769    838.3495 307.5679858  +6.3466162     1463.526     2660.341     2265.392     85.98978     171.9113     343.5835      1.841     4.82     1057.529     60.56218     206.5222        17     1.506     0.740 -33.02   0
       110    640.6755    835.3135 307.6496874  +6.3413227     1540.606     3576.594     5337.896     86.12616     172.1842     343.6518      2.730     9.24     1062.028     60.56218     247.3903        33     2.448     1.090 -56.48   0
       111    963.8001    837.4932 307.5153639  +6.3511874     832.1106     1240.555     1406.074     85.57932     171.4327     343.2076      1.702     4.93     1053.137     60.56218     124.4321         9     1.112     0.619 -35.09   0
       112    924.9679    832.2122 307.5316755  +6.3520765     3200.986      5091.78     5521.358     85.57932     171.5696      343.481      1.649     4.29     1054.551     60.56218     418.2712        24     1.594     0.836 -35.71   0
       113    335.2906    832.6961 307.7766508  +6.3321980     881.8817     1563.068     1499.741     86.12616     172.3885     343.5835      1.931     6.05     1068.377     60.56218     111.1505        12     1.340     0.768 -30.84   0
       114    383.3021    828.1492 307.7568581  +6.3356822     2090.467     4025.982     4648.543     85.98978      171.843     343.7884      2.089     4.95     1067.293     60.56218     244.9218        26     1.553     1.085 -44.17   0
       115    863.4797    823.1168 307.5575286  +6.3537861     600.8083     647.9461     1098.908     86.12615      172.116      343.686      1.218     4.71     1055.547     60.56218     87.95605         6     0.905     0.694   3.57   0
       116    519.3488    817.9597 307.7006802  +6.3444384      2475.28     4381.618      4578.31     86.12615      171.843     343.5494      1.885     4.71     1062.723     60.56218     311.7625        25     1.580     0.968 -29.52   0
       117    864.0858    817.1066 307.5574790  +6.3562884     935.2256     1475.297     934.0272     85.98978     172.3204      343.686      1.456     5.53     1055.047     60.56218      149.069        11     1.529     0.564 -29.52   0
       118    566.1410    813.9653 307.6813743  +6.3476509     5043.321     9251.726     12218.77     85.98978      171.843     343.5494      2.332     4.83     1062.026     60.56218     605.2998        45     2.070     1.247 -18.23   2
       119    901.6868    812.3728 307.5420156  +6.3594949     1292.712     2199.045     2900.356     86.26233     171.5696     343.4469      1.996     6.19     1053.951     60.56218     181.8026        16     1.605     0.734 -32.05   0
       120    483.9921    812.8623 307.7155418  +6.3453620     1203.439     2362.379     2401.095     85.44206      171.638     343.3785      2.039     6.86      1062.85     60.56218     168.7572        18     1.527     0.891 -47.00   0
       121    125.6342    812.0705 307.8644503  +6.3336911     978.7766     1690.363     1909.215     85.98977      171.843     343.6518      1.733     4.29     1067.526     60.56218     138.2421        11     1.077     0.797 -32.15   0
       122    536.8427    807.8568 307.6937531  +6.3491949     16005.65     28790.93     31053.85     85.98977     171.7747     343.5835      1.904     4.44     1061.864     60.56218     1952.144        56     1.827     1.219 -30.02   0
       123    950.4095    806.1584 307.5219808  +6.3636826     3719.718     5578.556      5694.98     85.44206      171.638     343.3102      1.651     4.13     1052.348     60.56218     501.1392        25     1.518     0.896 -30.43   0
       124     70.8169    804.8738 307.8874677  +6.3348240     520.1273     971.6661     1377.384     85.57932      171.638     343.4469      1.494     3.90     1066.942     60.56218     87.53821         6     1.631     0.267 -38.29   0
       125     47.1710    798.5599 307.8975053  +6.3366378     1170.882     2248.651     2774.785     85.71635     171.5696     343.4469      2.030     6.07     1066.692     60.56218     146.9854        14     1.466     0.706 -45.16   0
       126    329.4974    796.6047 307.7802784  +6.3469085     2684.906     4830.323     4626.265     85.85317     171.5012     343.2418      1.933     4.56     1067.615     60.56218     332.8975        27     1.578     1.034 -34.35   0
       127     29.3841    795.0392 307.9050142  +6.3374945     1845.777     3344.678      3202.36     85.71635      171.638     343.3443      1.838     5.08     1066.555     60.56218     253.0472        23     1.661     0.889 -31.99   0
       128    794.9409    792.3882 307.5870398  +6.3641934     48176.88     80991.19        85864     85.44206     171.7063     343.2759      1.796     4.34      1057.04     60.56218     6055.461        72     1.783     1.182 -31.50   0
       129    733.2496    793.7928 307.6126245  +6.3615573     565.2778     929.9968     1040.383     85.57932     171.5696     343.1734      1.770     3.72     1058.686     60.56218     98.51489         5     0.952     0.418 -44.10   0
       130    252.2396    790.3868 307.8125864  +6.3468892     4204.053     8664.613     11891.64     85.57932      171.638     343.3102      2.807     4.78     1067.822     60.56218     465.7859        45     1.803     1.392 -27.46   0
       131    920.2354    787.5998 307.5351419  +6.3703429     7939.561     12989.14     13767.26     85.02896      171.638     343.3785      1.733     4.51     1052.564     60.56218     1087.967        35     1.643     0.986 -33.47   0
       132    723.3208    786.9819 307.6169792  +6.3640390     18091.38     31601.02     34704.06     85.71635     171.5012     343.5152      1.883     4.31     1058.248     60.56218      2191.19        54     1.874     1.168 -29.12   3
       133    716.8994    783.4987 307.6197646  +6.3652633     74867.66     129332.3     138953.5     86.12616     172.2523     343.4127      1.890     4.32     1058.036     60.56218     8906.689        89     1.863     1.277 -33.11   3
       134    361.8698    784.4481 307.7672399  +6.3530121     16217.09     29712.62     32021.81     86.12616     171.7747     343.6177      1.973     4.43      1065.85     60.56218     1889.777        62     1.830     1.309 -31.79   0
       135    423.7278    782.2862 307.7416128  +6.3559741     17806.37      32071.3      34578.9     86.26233      172.116     343.5835      1.939     4.44      1064.11     60.56218     2039.964        56     1.812     1.254 -29.21   0
       136    411.0609    784.5209 307.7468001  +6.3546277     1120.538     1875.778     1813.995     86.26232      171.843     343.5835      1.831     5.82     1064.746     60.56218     155.7435        13     1.220     0.969 -31.18   0
       137    251.7712    768.8330 307.8135106  +6.3557743     767337.3      2129780      2445929     85.57932     171.5696     343.3443      2.545     7.35     1066.973     60.56218     63872.28       600     2.580     2.150 -47.30   4
       138    960.9692    780.8983 307.5184425  +6.3744657     1847.559      2992.51     2800.419     86.12616     171.5696     343.6518      1.667     4.07     1051.221     60.56218     306.4525        18     1.438     0.744 -31.94   0
       139    657.8393    778.1116 307.6444850  +6.3655181     5417.862     9440.813     10467.03     86.12615     171.7747     343.6177      1.894     4.51     1058.794     60.56218      639.746        38     1.791     1.107 -37.40   0
       140    917.1861    779.0492 307.5366965  +6.3737726     6176.958     10197.25     11301.59     85.44206     171.7747     343.2759      1.712     4.22     1052.279     60.56218     819.2172        33     1.575     1.020 -33.85   0
       141    890.2292    779.5676 307.5478796  +6.3726614     529.2944     964.9754     598.4373     85.57932     171.5696     343.2759      1.572     3.44     1052.754     60.56218     111.3912         5     0.809     0.423 -22.02   0
       142    446.6310    776.1365 307.7323049  +6.3592796     1440.935     2392.228     2424.724     85.85317     171.9113     343.5494      1.705     5.01     1062.842     60.56218     181.9695        16     1.427     0.848 -21.15   0
       143    172.2236    775.2914 307.8463410  +6.3504415     683.0092     1295.035     744.3645     86.12616      171.638     343.4127      1.924     5.51     1067.214     60.56218     93.39661         7     1.330     0.645 -64.64   0
       144    692.9712    768.2206 307.6302215  +6.3707748     1849.358     3205.917       3230.1     85.57932      171.638      343.481      1.926     4.91     1057.516     60.56218     240.2936        25     1.615     0.987 -41.26   0
       145    610.3168    770.5274 307.6644858  +6.3670643     562.9844     1012.561     1352.721     86.39828     172.1842     343.6177      1.499     3.41     1058.971     60.56218     118.6487         5     0.785     0.429 -22.79   0
       146    136.9063    769.2974 307.8612169  +6.3517325     771.6044     1469.486     1367.188     86.12616     172.4566      343.481      2.022     5.40     1066.944     60.56218     95.64868         9     1.124     0.732 -40.57   0
       147    426.6627    764.9361 307.7409798  +6.3632373     41757.79     77674.37     84741.91     86.12616      171.843     343.6177      2.000     4.60     1063.036     60.56218     4852.199        80     1.902     1.361 -31.84   0
       148    162.9501    768.9756 307.8504077  +6.3527387     555.6214     1085.274     1104.563     85.71635      171.843      343.481      2.444     5.02     1067.078     60.56218     103.6597         7     1.226     0.582 -28.08   0
       149    969.1825    766.2264 307.5155230  +6.3807981     660.7093     823.9241     945.4654     85.71635      171.638      343.481      1.427     5.60     1050.683     60.56218     98.17725         9     1.305     0.678 -19.04   0
       150    544.4257    763.9574 307.6920844  +6.3675773     5753.506     10322.97     10662.37     85.71635      171.843     343.3785      1.906     4.42     1059.457     60.56218     677.2587        41     1.772     1.154 -28.78   0
       151    461.2355    762.6185 307.7266938  +6.3653503     3681.132     6910.554     7977.766     85.57932      171.638     343.3443      2.090     4.73     1061.825     60.56218      405.149        34     1.778     1.110 -35.66   0
       152    789.5430    760.5177 307.5903558  +6.3771753     10289.76      17234.1     18155.85     86.12616      171.843     343.6518      1.820     4.41     1055.051     60.56218     1241.299        44     1.688     1.145 -27.41   0
       153    457.9373    755.9987 307.7282878  +6.3679738     1784.495     3516.026     4072.843     85.44206      171.638     343.3101      2.092     5.21     1061.665     60.56218     203.6897        21     1.446     0.970 -41.22   0
       154     19.4613    756.6119 307.9104403  +6.3530300     985.8856     1430.299     1486.337     85.57932      171.638     343.3102      1.677     4.19     1066.587     60.56218     168.1812         9     1.115     0.609 -27.74   0
       155    811.5563    754.5743 307.5814093  +6.3803631     1108.973     1623.635      1276.16     85.71635     171.9113     343.4469      1.566     4.20     1054.165     60.56218     168.9565        11     1.208     0.625 -39.53   0
       156    139.6060    750.0606 307.8607473  +6.3597670      2080.55     4325.593     5313.255     85.44206     171.7063     343.3443      2.334     6.05     1066.581     60.56218      227.924        28     1.741     1.082 -33.48   3
       157    147.4254    752.6274 307.8574116  +6.3589692     9251.254     17252.44     19596.36     85.57932      171.638     343.4469      2.027     4.62     1066.661     60.56218     1085.819        53     1.864     1.296 -26.15   3
       158    155.6392    752.9570 307.8539879  +6.3591086     2392.793     4458.929     4382.753     85.85317      171.843     343.4469      1.872     4.76     1066.687     60.56218     289.9377        28     1.583     1.099 -33.66   3
       159    934.9355    749.1010 307.5303286  +6.3867312     5969.895     9875.002     11071.23     86.12616     171.9113     343.6177      1.747     4.68      1050.84     60.56218     754.0283        35     1.680     1.024 -34.07   0
       160    984.2638    748.9901 307.5098360  +6.3884178     1408.687     2076.085     2993.994     85.57932      171.638     343.4127      1.481     5.09     1050.119     60.56218      201.068        11     1.241     0.596 -24.67   0
       161    690.7709    746.9570 307.6318524  +6.3794826     1372.977     2730.619     3164.051     85.71635      171.843     343.4469      2.333     7.38     1056.252     60.56218     158.8687        20     1.668     0.914 -23.06   0
       162    577.6262    745.9931 307.6788962  +6.3761048     1959.666     3531.001     4013.016     85.57932     171.7063     343.3785      1.914     6.02     1057.769     60.56218     243.4537        21     1.674     0.825 -34.23   0
       163    425.6312    745.4981 307.7420653  +6.3712299     1079.989     2068.882     1901.576     86.12616      171.638      343.686      2.053     6.19     1061.948     60.56218     113.6034        15     1.273     0.847 -34.84   0
       164    139.6909    743.6697 307.8609286  +6.3624090     1574.258     2930.098     3082.688     86.12616     171.9795     343.5835      1.991     4.68      1066.46     60.56218     184.2589        18     1.406     0.859  -9.85   0
       165    929.2242    741.0521 307.5329724  +6.3898651     2744.132     4230.345     5072.188     85.57932      171.843      343.481      1.674     4.23     1050.621     60.56218     391.5955        23     1.559     0.824 -34.30   0
       166    958.7054    740.5762 307.5207386  +6.3910425     2920.212     4829.777     5203.818     86.26233     171.5696     343.4469      1.803     4.36     1050.289     60.56218     414.7424        24     1.551     0.896 -35.35   0
       167    681.6813    740.4574 307.6358483  +6.3818636     1298.271     2440.171     2720.288     86.26233      171.843     343.6177      2.010     6.81     1056.187     60.56218     152.2935        18     1.486     0.876 -35.65   0
       168    989.4984    740.2356 307.5079552  +6.3922073     1791.085     2912.047     3195.756     86.12616     171.7063     343.7543      1.736     5.03     1049.946     60.56218      234.672        19     1.526     0.824 -28.83   0
       169    828.8636    738.1746 307.5747701  +6.3877123       781.79     1422.073     1028.906     85.71635      171.843     343.5152      1.682     5.27     1052.783     60.56218     120.7235         8     1.425     0.551 -36.24   0
       170    904.5754    736.3917 307.5433711  +6.3909695      707.175      924.342     1223.238     85.71635      171.638     343.4127      1.470     3.34     1050.979     60.56218     140.1105         6     0.932     0.406 -18.82   0
       171    254.3059    735.5624 307.8135838  +6.3695986     1501.005     2710.387     4581.007     86.26233     171.7063     343.7202      2.959     6.27     1065.622     60.56218      159.123        19     1.555     0.912  -6.75   0
       172    947.3187    730.6263 307.5258045  +6.3947728     888.6265      1461.07     1399.584     85.98978      171.638     343.5835      1.753     5.17      1050.07     60.56218     143.7391        11     1.471     0.514 -38.43   0
       173    275.0045    731.1610 307.8051330  +6.3721095     593.5552     1219.312     654.3305     85.16689     171.5696     343.3101      1.788     3.83     1065.222     60.56218     79.60522         5     0.827     0.509  57.17   0
       174    973.5666    728.4075 307.5149726  +6.3965622     2332.408     3817.754     4239.204     85.57932      171.638     343.3785      1.798     4.27     1049.606     60.56218     278.2344        21     1.384     0.988 -35.97   0
       175    920.8218    729.5264 307.5368513  +6.3943454     966.3301     1607.453     1748.024     85.71635      171.638     343.5152      1.816     5.61     1050.428     60.56218     128.5089        11     1.520     0.584 -40.86   0
       176    693.4396    727.4142 307.6314023  +6.3876423     772.9294     1637.885     2639.273     85.57932      171.638     343.3102      2.875     6.08     1055.055     60.56218       118.95         9     1.363     0.763 -66.05   0
       177   1015.3279    721.6342 307.4978476  +6.4007481     1581.031      2199.25     1856.712     85.98978     171.7747     343.5835      1.629     4.66     1048.678     60.56218     216.0332        15     1.443     0.650 -26.54  16
       178    641.8201    721.2912 307.6530570  +6.3884488     621.8475     1109.561      1245.17     85.98978     171.5696     343.4469      2.055     4.74     1055.651     60.56218     114.0737         7     1.200     0.811 -15.70   0
       179    816.8974    720.2925 307.5803442  +6.3946986     923.1424     1592.214     1681.221     86.12616     172.3885     343.5152      1.712     6.05     1052.421     60.56218     119.0033        13     1.433     0.719 -42.35   0
       180    903.0894    717.5294 307.5446230  +6.3987097     1282.718     2421.718     2773.243     85.98977      172.116     343.5835      1.903     4.88     1050.437     60.56218      184.208        14     1.440     0.706 -40.96   0
       181    877.2706    712.8898 307.5555073  +6.3997663     751.3121     1308.517       2236.2     85.98978      172.116     343.5835      2.371     5.07     1050.824     60.56218     97.07983         9     0.999     0.727   3.58   0
       182     59.2514    707.9513 307.8955598  +6.3744602      1988.79     3751.461     4564.283     86.26232     171.7063     343.5494      2.105     4.84     1064.869     60.56218      234.704        25     1.494     1.132 -51.24   0
       183    859.9980    708.7651 307.5628232  +6.4008946     1410.738     2036.188     1778.553     85.16689      171.638     343.3785      1.582     5.08     1051.052     60.56218     201.9064        14     1.252     0.763 -33.13   0
       184    671.8200    696.3884 307.6414314  +6.3997339     5048.588     8993.973     9430.126     85.71635     171.5012      343.481      1.873     4.51      1053.93     60.56218     599.4879        34     1.698     1.062 -29.91   0
       185    618.2968    695.6652 307.6636955  +6.3982464      1168.07     2270.861     2371.695     86.12616     171.9795     343.6177      2.154     6.55     1054.915     60.56218     135.3809        15     1.387     0.970 -36.48   0
       186   1008.6824    691.6251 307.5016174  +6.4129203     2341.578      3926.85     3975.274     85.85317     171.5696     343.5835      1.831     5.17     1046.855     60.56218     321.1293        21     1.709     0.786 -35.58   0
       187    645.6192    691.8620 307.6524709  +6.4007289     1795.203      3128.86     3562.998     85.71635     171.7747     343.4469      1.895     5.13     1054.209     60.56218     197.6429        22     1.491     1.060 -28.76   0
       188    134.9363    692.4270 307.8646408  +6.3834104     2972.833     5455.099     6131.168     85.71635      171.843      343.481      1.958     4.65     1064.913     60.56218     321.7084        31     1.669     1.102 -36.08   0
       189    788.5128    688.5672 307.5932069  +6.4068546     17351.04     29663.08     32011.82     86.12616      171.638     343.5835      1.863     4.46     1051.894     60.56218     2072.114        53     1.773     1.175 -32.33   0
       190    918.5360    688.2549 307.5391893  +6.4113135     3305.353     5212.479     5720.756     86.26233     171.7747     343.5494      1.780     4.31     1049.145     60.56218     449.5953        25     1.581     0.970 -25.04   0
       191    487.8266    688.7021 307.7181423  +6.3967641     997.3724     1858.934     2021.273     86.26232     171.5696     343.5494      1.840     6.11     1058.249     60.56218     138.2714        14     1.632     0.644 -33.10   0
       192    516.6229    687.4814 307.7062184  +6.3982305     650.1794     1135.383     1349.104     85.85317     171.5012     343.5152      1.641     3.48     1057.368     60.56218     98.25903         5     1.139     0.307 -70.00   0
       193    262.1972    682.2314 307.8121106  +6.3918865     4424.696     8854.742     9520.882     85.44206      171.638     343.3443      2.096     4.82     1063.166     60.56218     495.9825        43     1.774     1.355 -31.66   0
       194    669.0530    681.3757 307.6430874  +6.4058414     5611.713     10291.15        11284     85.57932      171.843     343.4127      1.948     4.53       1053.1     60.56218     613.8135        38     1.774     1.086 -29.25   0
       195    364.2832    681.5405 307.7697173  +6.3955898     568.8065     840.2947     826.5179     86.26233     171.9113     343.6177      1.376     3.39     1060.922     60.56218     101.9886         5     0.755     0.441 -22.17   0
       196    928.8940    674.2140 307.5353574  +6.4174567     1086.433     1633.978     1791.644     85.85317     171.5696     343.4127      1.730     4.63     1048.515     60.56218     174.3682        10     1.272     0.559 -34.99   0
       197    740.8343    669.7927 307.6136510  +6.4130188     2833.915      5519.89     6296.368     85.57932      171.638     343.3443      2.062     4.73      1052.09     60.56218     351.4064        32     1.675     1.148 -33.78   0
       198    696.1002    669.9876 307.6322326  +6.4114466     747.0673     1376.681     703.4036     85.85317     171.5696     343.3443      1.773     6.03     1052.308     60.56218     103.3915        10     1.616     0.632 -35.19   0
       199   1007.0259    666.3438 307.5031553  +6.4233058     8237.346     13280.58     13836.83     85.71635      171.843     343.3785      1.704     4.61     1045.526     60.56218     1105.931        33     1.646     0.930 -32.29   0
       200    945.6814    666.8660 307.5286288  +6.4210499     2082.781     3341.074     3949.036     86.39828      172.116     343.6177      1.764     4.73     1047.678     60.56218     279.1438        19     1.519     0.815 -29.86   0
       201     26.4650    666.4157 307.9105910  +6.3905117     1404.521      2951.38     3751.687     85.57932     171.7063      343.481      2.342     6.57     1062.904     60.56218     168.0219        19     1.349     1.085 -17.15   0
       202     84.6445    661.3506 307.8865900  +6.3945563     19409.86     37365.02     40517.99     86.12616     171.7063     343.5835      2.059     4.56      1062.79     60.56218      2121.52        67     1.880     1.410 -33.80   0
       203    546.0248    662.2002 307.6948551  +6.4096531     1443.114     2677.444     3118.972     85.71635     171.5012     343.3785      2.078     5.72     1055.696     60.56218     169.0374        20     1.528     0.918 -32.76   0
       204    515.2301    659.3619 307.7077467  +6.4097964     1002.235     1874.194     2256.878     85.71635     171.5696     343.4469      2.116     5.16     1056.369     60.56218     121.5432        13     1.318     0.752 -15.44   0
       205    935.8403    658.1165 307.5330124  +6.4243358     860.0369     1239.183     1444.387     86.12615     171.7747     343.5494      1.808     4.61     1047.714     60.56218     148.4108         8     1.166     0.591 -31.99   0
       206    554.7977    655.9733 307.6914200  +6.4125176     853.7999     1716.487     2147.173     85.57932     171.5012     343.3785      2.192     7.48     1055.175     60.56218     100.4764        13     1.481     1.058 -87.07   0
       207    730.4705    653.5322 307.6185054  +6.4193884     2825.493     4969.429     5650.593     86.12616     171.9795     343.5494      1.896     4.37     1051.429     60.56218     335.5946        27     1.533     1.031 -34.63   0
       208    752.4670    651.6667 307.6094279  +6.4208921     3371.771     6023.685     6386.703     86.12616      171.843     343.6177      1.900     4.44     1051.048     60.56218     404.9598        29     1.622     1.062 -26.23   0
       209    584.1902    649.4921 307.6794254  +6.4161758     2378.976     4459.208     4553.977     85.71635     171.4327     343.3443      1.970     4.98     1054.027     60.56218     290.1562        29     1.655     1.072 -31.66   0
       210    419.5138    650.5074 307.7478177  +6.4102531     835.6863     1702.574     2120.668     85.98978     172.3204      343.686      2.577     4.86     1059.003     60.56218      98.0592         8     0.912     0.733  36.07   2
       211    244.6839    649.1131 307.8205087  +6.4049762     1349.672     2749.121     3050.469     85.85317     172.0478     343.6177      2.102     7.01     1062.116     60.56218     163.3279        19     1.671     0.973 -33.58   0
       212   1023.6575    648.4151 307.4968466  +6.4312630     1943.754      2496.04      2744.55     74.27206     136.5217     258.4693      1.061     2.48      1044.49     60.56218     464.3123         9     1.016     0.467 -84.52  24
       213    990.7209    646.7087 307.5105907  +6.4308725     7309.692     12279.44     12882.26     85.85317     172.0478     343.6518      1.777     4.47     1045.541     60.56218      895.808        39     1.724     1.018 -31.04   0
       214    328.5321    648.2828 307.7856971  +6.4081273     1068.399     2070.034     2096.374     86.26233      172.116     343.6177      2.004     5.52     1060.377     60.56218     137.7402        15     1.293     1.044 -10.33   0
       215    710.5807    645.7112 307.6270339  +6.4219550      820.513     1381.072     1313.988     85.85317     171.5696      343.481      1.755     4.65      1051.17     60.56218     94.10364         8     1.059     0.580 -19.34   0
       216    149.3284    640.2908 307.8604281  +6.4054230     17705.25     34552.59     36962.46     85.98978     172.0478     343.5835      2.068     4.67     1063.411     60.56218     1965.611        63     1.878     1.388 -32.84   0
       217    102.3485    643.2776 307.8798470  +6.4026136     717.3145     1323.294     1816.608     86.12616     171.9113     343.5835      2.056     5.01     1062.628     60.56218     93.15784         6     1.075     0.717  85.80   0
       218    816.9683    641.4764 307.5829685  +6.4272500     874.3025     1535.808     896.1375     85.98977     171.9113     343.5494      1.807     3.71     1049.542     60.56218     129.4464         6     1.211     0.327 -51.31   0
       219    436.2585    641.1749 307.7411754  +6.4146671     2196.754     4185.329     4761.672     85.71635      171.843     343.4127      1.972     4.93     1058.135     60.56218     251.1461        26     1.606     1.030 -24.75   0
       220    985.5814    629.5563 307.5133030  +6.4377851     6070.154     11034.83     12220.36     85.57932     171.7063     343.3443      1.962     4.41     1045.209     60.56218     739.0929        41     1.673     1.302 -24.93   0
       221     29.8013    630.2564 307.9104318  +6.4055557     835.2581     1769.003     1933.603     85.44206     171.5012     343.2759      2.444     5.01     1062.748     60.56218     125.5656         9     1.407     0.505 -25.19   2
       222    579.2615    624.9541 307.6823016  +6.4261446     36130.44     69295.16     75629.34     85.98978     171.7063     343.6177      2.053     4.67     1053.136     60.56218     4238.189        80     1.953     1.374 -32.52   0
       223    186.8147    621.8665 307.8454767  +6.4142883     2070.888     4283.537     4659.961     85.57932     171.7063     343.5152      2.085     5.67     1062.222     60.56218     238.9238        30     1.670     1.203 -39.18   0
       224     79.5426    615.9923 307.8902482  +6.4131158     855.4359     1735.438     1716.654     85.44206     171.7063     343.3443      1.960     6.23     1062.303     60.56218     101.6558        11     1.505     0.725 -42.55   0
       225    476.5118    608.7759 307.7255439  +6.4293926     46254.68     90227.03     99614.18     86.12616      171.638     343.4469      2.101     4.81     1055.641     60.56218     5101.131        93     1.990     1.472 -31.28   0
       226     20.3258    610.5046 307.9150391  +6.4133940      1266.13      2637.98     2926.734     85.85317     172.0478     343.5835      2.343     7.10     1062.752     60.56218      192.712        22     1.866     0.981 -33.21   0
       227    662.8118    606.0602 307.6482206  +6.4367362     757.3975     1413.115      1460.72     85.44206     171.7063     343.2759      1.699     4.72     1050.019     60.56218     117.1449         7     0.987     0.641 -85.96   0
       228    151.1880    603.9518 307.8608871  +6.4204917     1109.793     2367.744     2793.825     85.44206     171.7063     343.2418      2.272     6.33     1061.914     60.56218      143.285        21     1.587     1.073 -40.18   0
       229    430.1484    601.6007 307.7450520  +6.4308055     678.3891     1260.574     1099.709     85.44206     171.3642     343.1049      1.821     3.43     1056.894     60.56218     115.7031         5     0.975     0.661 -59.29   0
       230    946.8248    600.5240 307.5303847  +6.4484856      548.345      938.252     1240.301     85.71635     171.7747     343.5494      1.922     4.58     1045.277     60.56218     79.51135         6     0.999     0.597 -66.00   0
       231    322.1865    597.9012 307.7900386  +6.4287204     1352.977     3080.232     3346.919     85.98977     171.5696     343.3101      2.319     5.99     1058.349     60.56218     196.9924        22     1.591     1.146 -48.91   0
       232    748.4663    592.3062 307.6130906  +6.4452730     4224.114     7611.457     7863.383     85.98978     172.0478     343.5835      1.922     4.76     1048.517     60.56218     470.0608        36     1.772     1.102 -32.09   0
       233    802.0472    587.5746 307.5909841  +6.4490128     11123.99     20041.14     21349.47     85.71635     171.9113     343.4469      1.917     4.42     1047.782     60.56218     1313.888        52     1.857     1.211 -30.25   0
       234   1019.7464    587.9304 307.5005045  +6.4561118     828.1672     1407.097     1139.323     85.98978     171.7747     317.6693      1.713     6.46     1042.732     60.56218     127.3579        11     1.510     0.777 -34.34  16
       235    544.5482    587.0309 307.6980066  +6.4406462      866.884     2006.123     2251.581     85.98977     171.9795     343.5152      2.353     6.33     1052.514     60.56218     105.1115        14     1.639     0.686 -79.80   0
       236    625.8487    585.6780 307.6642680  +6.4439198     2237.328      4386.42     4837.521     86.12616     171.9113     343.5494      2.082     5.68      1050.11     60.56218     268.3245        31     1.739     1.187 -29.79   0
       237    942.8355    581.7986 307.5326722  +6.4560860     945.7634     1899.373     2399.106     85.16689      171.638     343.3785      1.918     5.79     1044.366     60.56218     136.4188        12     1.520     0.620 -35.05   0
       238    238.6601    579.1172 307.8253820  +6.4336797     970.4612     1897.662     2057.486     86.26232     171.9113     343.6177      2.120     6.50     1059.208     60.56218     128.7172        13     1.197     1.001  52.55   0
       239    172.4912    572.3179 307.8531073  +6.4342695     404.5566     1110.913     1739.283     85.85317      172.116     343.6518      3.577     6.00     1060.522     60.56218     91.31421         8     1.961     0.517 -62.96   0
       240    878.1862    570.6654 307.5599129  +6.4585319     2270.537     3876.683     4343.637     85.57932      171.638     343.5152      1.816     4.49     1045.527     60.56218     304.2256        25     1.575     0.966 -38.78   0
       241    837.1082    568.0672 307.5770710  +6.4582369     1991.047     3673.305     4154.391     85.98978     171.9795     343.6177      1.924     4.51     1046.405     60.56218      261.347        24     1.494     1.028 -27.97   0
       242    807.6848    563.9964 307.5894354  +6.4589379     2139.075      4059.59     5335.181     85.57932     171.4327     343.2759      2.317     4.92     1047.009     60.56218     253.2997        24     1.604     1.024 -31.35   3
       243    817.4535    559.3940 307.5855309  +6.4611640     126651.8       227907     246560.5     85.57932     171.5696     343.2759      1.943     4.50     1046.597     60.56218     14559.73       126     1.950     1.377 -33.49   2
       244    264.9734    563.2982 307.8149837  +6.4410939     5505.679     10932.67     11300.54     86.26232     171.5696     343.5494      2.125     4.80     1057.686     60.56218     626.1635        46     1.834     1.333 -31.31   0
       245    199.1749    557.8215 307.8425107  +6.4411505      40826.1      83527.8     94019.98     85.71635      171.638     343.5152      2.175     4.87     1059.358     60.56218     4806.318        97     2.029     1.553 -32.90   0
       246    123.1157    554.0941 307.8742419  +6.4401390     4360.032     9198.148        10357     85.98978     172.2523     343.7202      2.171     5.11     1060.633     60.56218     514.8126        43     1.768     1.372 -27.68   0
       247    988.1872    550.8198 307.5148670  +6.4703882     1174.029     1716.344     1389.861     85.85317     171.5012      343.481      1.625     6.21     1041.788     60.56218     159.8208        14     1.337     0.812 -37.73   0
       248   1009.5829    549.7675 307.5060108  +6.4715342     700.2711     1090.538     895.1434     85.71635      171.638     343.4469      1.470     3.49     1041.297     60.56218     110.3007         5     0.738     0.476  76.96   0
       249    854.0869    546.6909 307.5707348  +6.4676303     3749.062     6502.935     7124.843     85.85317     172.3204     343.7202      1.886     4.53     1044.843     60.56218     483.6652        32     1.642     1.088 -32.41   0
       250    372.5544    544.9680 307.7708996  +6.4522658     11691.92     24156.75     26647.25     85.85317      171.843     343.4469      2.164     4.99     1055.141     60.56218     1229.414        60     1.948     1.409 -34.07   0
       251    174.7861    543.9856 307.8531139  +6.4460464     1318.895     2679.464     2814.349     85.98978     171.5012     343.5152      2.185     6.27     1059.395     60.56218     164.4365        18     1.426     1.091 -40.88   0
       252    807.9739    540.0025 307.5901234  +6.4688563     4659.222     8212.298     8847.207     85.57932     171.5012     343.3785      1.882     4.56     1046.146     60.56218     521.6321        33     1.726     1.027 -32.09   0
       253    538.8497    539.8604 307.7019675  +6.4599357     4768.161     9265.919     10014.78     86.12616     171.7747     343.6518      2.066     4.90     1050.649     60.56218     536.7749        38     1.780     1.190 -40.01   0
       254    112.6038    540.8403 307.8790594  +6.4452594     674.7471     1081.651     1088.793     85.30459     171.5696     343.3102      1.766     4.60     1060.388     60.56218     95.32166         5     1.340     0.448  59.32   0
       255    397.5461    536.6093 307.7607970  +6.4565539     996.2487     2251.019     2782.513     85.44206     171.7747     343.2759      2.505     8.37     1053.912     60.56218     126.6466        15     1.674     1.216 -38.57   0
       256    281.1665    529.4733 307.8094000  +6.4556046     59332.77     122557.8       137125     85.98978     171.7747     343.5835      2.200     4.99     1055.045     60.56218     6696.615       112     2.064     1.573 -32.69   0
       257    186.0505    532.9755 307.8488062  +6.4509707     4522.274     9235.563     9418.023     85.71635      171.843      343.481      2.111     4.98     1058.454     60.56218     530.1711        42     1.761     1.323 -35.34   0
       258    583.5197    533.0117 307.6836355  +6.4642561     1559.419     3277.702     3995.142     85.71635     171.5012     343.4127      2.260     6.35     1049.001     60.56218     218.7701        24     1.729     0.964 -38.05   0
       259     57.6129    531.7023 307.9022198  +6.4471874     3637.641     7379.925     7864.803     85.98978     171.5696     343.3102      2.129     4.93     1060.591     60.56218     441.0029        37     1.771     1.229 -33.82   0
       260    824.6083    532.1793 307.5834740  +6.4726413     1148.866     1594.871     2192.253     85.71635     171.5696     343.3443      1.575     5.10     1045.089     60.56218     135.9487        13     1.068     0.881 -22.74   0
       261    570.6709    527.0394 307.6891766  +6.4662933     666.2182     1070.778     1776.454     85.98977      171.843     343.6518      1.750     4.58     1049.052     60.56218     106.2169         5     1.307     0.457 -55.78   0
       262    980.4599    523.2515 307.5190053  +6.4815162     1549.154     2481.604     2577.563     86.12616     171.7747     343.5835      1.703     5.02      1040.02     60.56218     218.6737        19     1.500     0.938 -37.99   0
       263    265.1349    524.7125 307.8162231  +6.4570336     1052.455     1840.272     2160.575     86.12616     172.0478     343.6177      1.836     5.75     1055.343     60.56218     135.7668        12     1.024     0.947 -80.65   0
       264    804.2223    521.8034 307.5922954  +6.4762471     12459.98     22870.88     24890.28     85.71635     171.5012     343.3785      1.941     4.48     1045.125     60.56218     1550.394        49     1.827     1.183 -33.78   0
       265    507.8670    520.2264 307.7155059  +6.4670085     28559.25     61080.14     69730.59     85.71635     171.7063      343.481      2.268     5.00     1050.418     60.56218      3031.19        90     2.096     1.572 -25.11   0
       266    220.6423    516.7710 307.8349809  +6.4588221     1260.114     2549.979     2785.561     85.71635     171.7063     343.4469      2.211     5.47     1056.511     60.56218     178.6202        20     1.483     1.005 -28.72   0
       267     55.9696    517.4294 307.9033869  +6.4530262     865.6313      1624.44     1584.407     85.57932     171.5696     343.3102      1.890     5.56     1060.381     60.56218     116.2799        11     1.366     0.639 -25.15   0
       268    667.6226    515.3606 307.6492804  +6.4743529     2153.767     4302.208     4849.529     85.71635      171.638     343.3785      2.372     6.04     1045.999     60.56218     267.4287        29     1.801     1.063 -30.58   0
       269    678.4709    515.1472 307.6447793  +6.4748030     988.1785     1769.796     2280.963     85.98978     171.7747     343.5152      1.988     7.30     1045.838     60.56218      129.374        15     1.677     0.889 -42.64   0
       270    729.7872    514.1348 307.6234875  +6.4769328      1006.43     1981.763     2704.553     85.57932      171.638      343.481      2.152     5.60     1045.599     60.56218     158.6455        12     1.588     0.619 -27.79   0
       271    405.5415    510.7552 307.7583487  +6.4674981     1242.004     2165.879     2074.332     85.98978      171.843      343.686      1.909     6.10      1051.88     60.56218     135.0426        16     1.367     0.901 -38.80   0
       272    337.3679    509.3020 307.7867281  +6.4658166     2512.402     5341.446     5752.599     86.12616     171.7063     343.7202      2.217     5.28     1052.821     60.56218     291.1722        37     1.765     1.313 -35.37   0
       273    152.2622    507.8833 307.8636972  +6.4601996     17949.15     36448.67     40204.19     86.26232      171.843     343.5835      2.140     4.89     1057.942     60.56218     1952.196        65     1.922     1.452 -35.71   0
       274    517.2034    508.4111 307.7120251  +6.4721999     1344.458     2882.336     3032.786     85.71635     171.5012     343.4469      2.124     7.04     1049.415     60.56218     154.1035        24     1.909     0.959 -25.51   0
       275    879.8258    508.0091 307.5613403  +6.4844620     1280.062     2530.368     2642.896     85.71635      171.638     343.4469      2.118     5.89      1042.31     60.56218     157.4159        18     1.408     0.991 -32.79   0
       276    117.2816    506.1118 307.8782933  +6.4597576     1828.123     3661.755     4019.465     85.85317     172.0478      343.686      2.203     5.71     1058.855     60.56218     219.2732        28     1.696     1.223 -40.42   0
       277    354.8604    504.5847 307.7796185  +6.4683503     754.2338      1318.05       1669.5     85.57932     171.7747     343.3102      1.963     4.70     1052.381     60.56218     93.41101         8     1.104     0.567 -54.18   0
       278    977.8139    502.1732 307.5208137  +6.4901330     4406.722     7527.982     8327.438     85.85317      171.638     343.5152      1.826     4.39     1038.531     60.56218     571.2606        33     1.695     0.987 -27.65   0
       279     16.5800    492.3106 307.9206073  +6.4620762     18121.32     36161.79     39974.33     85.98978     171.5696     343.4127      2.113     4.83      1061.02     60.56218     1954.608        66     1.961     1.396 -36.29   0
       280    551.1592    494.9037 307.6983702  +6.4789125     985.1163     2099.337     2210.614     86.12615     171.7063     343.7543      2.264     7.51     1047.741     60.56218     124.0251        15     1.473     1.071 -32.97   0
       281    449.2520    488.9470 307.7409214  +6.4779662      28937.1     59042.51     65838.19     86.39828     171.7063     343.6177      2.182     5.02     1049.718     60.56218     3107.388        81     2.021     1.487 -35.03   0
       282      1.5936    485.9562 307.9270505  +6.4641969     56176.88     70862.97     73895.82     77.97249     140.5043     262.9264      1.225     3.45     1061.478     60.56218     12288.81        52     1.513     0.849 -87.94  24
       283    657.2452    488.5868 307.6544961  +6.4850634     8642.892     17061.72     19222.23     85.44206      171.638     343.3102      2.120     4.87     1045.312     60.56218      1005.59        56     1.952     1.320 -34.43   0
       284    296.7162    489.6550 307.8042863  +6.4725688     751.8821     1486.202      1822.37     86.12616      171.843     343.7543      2.219     6.75     1051.423     60.56218     91.18262        11     1.261     1.015 -63.00   0
       285    214.4762    486.5874 307.8385658  +6.4710799     12917.27     27828.29     30661.01     85.71635     171.5012     343.3785      2.258     5.07     1054.837     60.56218     1373.104        67     1.953     1.550 -30.53   0
       286    990.8020    486.8012 307.5159327  +6.4969133     1138.066     1765.964     1774.075     85.44206     171.3642     343.2418      1.541     4.93     1036.855     60.56218     188.0563        11     1.333     0.696 -26.68   0
       287    919.4968    486.6494 307.5455721  +6.4946036     623.6993     892.0202     1215.225     85.98978     171.7747     343.7543      1.817     6.05     1039.945     60.56218      100.837         7     1.306     0.787 -62.63   0
       288    180.3395    487.3740 307.8527249  +6.4696106     1059.662     2098.861     2615.245     85.71635      171.843     343.4469      2.338     7.15     1055.891     60.56218     132.3756        14     1.288     1.112 -25.94   0
       289    831.3696    486.6624 307.5821969  +6.4916638     641.8411     1289.268      1144.46     85.85317     171.9113     343.5494      1.994     5.18     1042.458     60.56218     78.84717         5     1.049     0.722 -28.96   0
       290    579.1485    485.6654 307.6870503  +6.4836625     1936.465     4084.884     4295.254     86.12616     171.7747     343.5835      2.153     6.07     1046.932     60.56218     220.7637        27     1.674     1.079 -37.82   0
       291    952.7020    482.4503 307.5319134  +6.4974427      3937.35     6552.421     6842.318     86.12616     171.7747     343.7543      1.795     4.78     1038.206     60.56218     500.4236        28     1.709     0.962 -30.80   0
       292    626.0444    481.0204 307.6677180  +6.4871466     4506.484      9085.25     9814.525     85.57932     171.7063     343.4127      2.103     4.96     1045.922     60.56218     535.8374        42     1.799     1.298 -37.40   0
       293    112.2534    482.2501 307.8811919  +6.4694426      649.764     1443.576     1536.165     86.26233     171.7747     343.6177      2.751     5.66     1058.037     60.56218     92.79102         7     1.390     0.649 -14.83   2
       294    975.3422    474.7701 307.5227624  +6.5013676     3030.577     4917.834     5135.771     85.85317     171.9113      343.481      1.756     4.37     1036.988     60.56218     384.6135        23     1.513     0.881 -27.61   0
       295    538.2551    472.1849 307.7045001  +6.4878635     4979.495     10397.04     11741.72     85.44206      171.843     343.2759      2.206     4.99     1046.531     60.56218     540.4286        47     1.895     1.339 -31.75   0
       296    413.7639    474.9812 307.7561414  +6.4825465     536.6202     801.0928     1218.568     85.57932      171.638     343.3443      1.863     4.56     1049.194     60.56218     91.24353         5     1.215     0.486  15.63   0
       297    384.3342    472.2338 307.7684646  +6.4826964     1750.189     3705.245     3798.751     85.98978      171.843     343.5835      2.140     6.15     1049.363     60.56218     207.3785        27     1.622     1.279 -19.40   0
       298    894.7928    467.8967 307.5564701  +6.5015257     2490.883     4495.376      5347.97     85.85317     171.4327     343.3102      1.940     4.70     1040.026     60.56218     283.1667        26     1.651     0.925 -31.05   0
       299    902.0385    462.4816 307.5536410  +6.5040032     1666.412     3212.472     3260.017     86.12616     171.9113     343.5152      2.016     5.55      1039.53     60.56218     232.4551        19     1.497     0.880 -39.56   0
       300    941.2358    461.6465 307.5373785  +6.5056527     1144.978     1951.981     2208.848     85.71635      171.843      343.481      1.839     6.40     1038.071     60.56218     156.9839        15     1.525     0.768 -42.67   0
       301    121.8478    461.4852 307.8779092  +6.4783395     618.5161     1107.572     1322.329     86.12616     171.7747     343.5835      2.020     3.92     1056.469     60.56218     134.9263         5     0.915     0.482  -9.74   0
       302    726.0787    458.5051 307.6269040  +6.4997825     2109.956     4087.322     4781.811     85.85317      172.116     343.6177      2.071     5.38     1043.123     60.56218     252.6763        27     1.659     1.087 -32.31   0
       303    397.0315    456.7746 307.7637108  +6.4895053     2418.307     5439.702     6615.597     85.57932      171.638     343.4127      2.412     5.65     1048.037     60.56218     262.1589        37     1.890     1.220 -39.11   0
       304     88.0365    457.5339 307.8920937  +6.4788365     1474.104     2754.827     2765.015     85.98977      171.843     343.6518      1.967     6.02     1057.453     60.56218     164.6537        22     1.603     1.055 -29.32   0
       305    437.7206    456.6071 307.7468068  +6.4909357     685.6166      1267.86     1490.546     85.71635     171.3642     343.3443      2.013     4.67     1047.322     60.56218     104.7134         6     1.172     0.529 -47.61   0
       306    624.6816    453.2036 307.6692230  +6.4985886     6842.555     13746.35     15251.54     85.57932     171.4327     343.2759      2.122     4.94     1044.362     60.56218     781.6508        48     1.849     1.345 -30.06   0
       307    787.6630    449.4562 307.6016145  +6.5055726     12364.23     23225.77     26810.59     86.26233      171.843     343.5835      2.116     5.06     1041.577     60.56218     1424.245        71     2.351     1.299 -41.64   0
       308    307.2676    450.1262 307.8012396  +6.4892459     1810.909     3834.534     4295.619     86.26232     171.9795     343.5494      2.272     7.21     1048.711     60.56218     202.3212        29     1.934     1.156 -41.41   0
       309    390.3213    446.6680 307.7668412  +6.4934544     950.8254       1939.9     2008.516     86.26233     171.9795     343.5835      2.007     6.53      1047.36     60.56218     99.14868        13     1.414     0.846 -47.25   0
       310    816.1235    446.4209 307.5898884  +6.5077745      940.564     1707.882     1784.463     85.71635     171.5696     343.5152      1.959     5.70     1040.977     60.56218     124.8849        13     1.695     0.540 -30.02   0
       311    972.5303    444.6333 307.5249445  +6.5137199     1599.019     2469.812       2338.9     85.98978      171.843     343.6177      1.746     5.21     1036.385     60.56218     212.1053        18     1.419     0.913 -31.34   0
       312    125.0221    441.6670 307.8772621  +6.4866299     2877.611     6316.083     7250.129     85.71635      171.843     343.5152      2.247     5.68     1055.262     60.56218      301.379        37     1.756     1.318 -35.91   0
       313    762.9697    440.6002 307.6121756  +6.5084068     1540.141     3094.049     3083.234     85.30458      171.638     343.3785      2.018     5.97     1041.694     60.56218     182.6205        22     1.672     0.928 -41.41   0
       314   1023.8478    439.6603 307.5037834  +6.5174803     784.2313     994.2309     1090.572      72.1885     133.3909     255.0869      1.039     2.61     1034.559     60.56218     199.3035         5     0.882     0.353 -85.44  24
       315    283.4546    438.9625 307.8115137  +6.4930584      992.592     1742.904     1804.094     85.98977     171.9113     343.6177      2.087     6.08     1048.616     60.56218     116.9058        14     1.397     0.743  -7.93   0
       316    360.7473    436.6299 307.7794713  +6.4966099     2248.112     4559.125     5170.292     85.85317     171.9795     343.5152      2.200     5.76     1046.969     60.56218     264.4937        28     1.679     1.149 -23.90   0
       317    716.4982    434.2513 307.6317034  +6.5094791     1119.491     2244.954     2097.518     85.98978      171.843     343.8226      2.003     7.92     1042.174     60.56218     123.4073        18     1.407     1.246 -14.70   0
       318    250.4594    432.1111 307.8254578  +6.4947822     619.7915     1093.697     1115.512     85.98977     171.9113      343.686      1.999     4.23     1049.676     60.56218     97.31531         5     0.924     0.553 -44.77   0
       319    558.2629    425.7288 307.6977539  +6.5077167     642.8779     1373.404     1719.763     86.12616      171.843     343.6519      2.380     7.06     1043.055     60.56218     80.11499         7     1.379     1.012 -86.19   0
       320    479.2709    426.5744 307.7305542  +6.5047275     822.3444     1861.602     2497.665     85.71635     171.7063     343.5152      2.852     8.11     1043.506     60.56218     100.2489        11     2.076     0.885 -22.75   2
       321    842.9446    424.1862 307.5794902  +6.5178503     1196.852     2006.408     2007.688     85.44206     171.7747     343.3101      1.809     5.16     1039.612     60.56218      178.423        15     1.367     0.757 -28.01   0
       322    828.3339    423.5451 307.5855842  +6.5176284     1549.082     2774.224     2710.821     86.12616     171.7747     343.5835      1.843     4.56       1039.9     60.56218     203.9592        19     1.338     1.009 -36.89   0
       323    725.8310    421.4155 307.6282573  +6.5150911     10715.08     20690.24     22955.78     85.71635     171.5696     343.5152      2.032     4.77     1041.417     60.56218     1218.207        49     1.814     1.302 -32.19   0
       324    646.9200    417.4962 307.6611856  +6.5140769     1865.458     3833.882     4759.812     85.85317      172.116      343.686      2.348     5.50     1042.326     60.56218     225.3523        28     1.766     1.034 -28.20   0
       325    619.3523    412.5788 307.6728089  +6.5151874     9257.369     23500.83     30103.82     85.71635      171.843     343.4127      2.754     6.36      1042.06     60.56218     1138.276        83     2.502     1.754  20.27   0
       326    950.9513    411.1640 307.5350388  +6.5268239     3083.799     5429.308     5783.446     85.85317     171.7747      343.481      1.842     4.62     1036.083     60.56218     358.5773        27     1.619     0.977 -29.93   0
       327    390.3367    407.3676 307.7681642  +6.5096844        19058     40383.59     45577.11     85.85317     171.9113     343.5494      2.234     5.07     1044.473     60.56218     2030.634        77     2.031     1.545 -31.25   0
       328    906.3865    406.6017 307.5537145  +6.5272248     1062.236     2493.044     3316.297     85.71635     171.5012     343.3443      2.829     8.19     1037.266     60.56218     151.3171        18     1.797     1.358   0.17   0
       329    136.7021    406.8168 307.8735901  +6.5014132     1552.824     3119.467     3511.062     86.12616      171.638     343.3785      2.204     6.51     1052.957     60.56218     184.6035        23     1.612     1.090 -34.30   0
       330    919.9825    401.6865 307.5482291  +6.5297073      4053.13      7366.99     6536.086     85.71635     171.5696      343.481      1.910     4.61     1036.641     60.56218     526.2482        34     1.645     1.169 -34.42   0
       331     70.2948    402.5291 307.9013328  +6.5009551     1173.593     2356.051     2981.637     85.98978     171.9113     343.5835      2.467     6.47     1054.731     60.56218     138.7135        15     1.101     1.094  28.64   0
       332    247.8882    397.9164 307.8276846  +6.5088169     9118.254     19477.36     21739.66     85.85317     172.0478     343.6177      2.246     5.25     1047.804     60.56218     1027.109        57     1.975     1.441 -31.34   0
       333    976.7657    399.0095 307.5247185  +6.5327022     498.8023     977.5046     513.5434     85.57932      171.638     343.4127      1.795     4.34     1034.865     60.56218     81.74902         5     0.841     0.637   0.91   2
       334    971.4902    389.9006 307.5272175  +6.5362885     912.1104     1622.018     1119.013     86.12616     172.3204     343.5494      1.775     3.99     1034.658     60.56218     171.9419        10     1.170     0.670 -56.63   0
       335    148.2423    386.5513 307.8694813  +6.5101691     3559.546     7228.952      8417.27     86.12616     171.7747     343.5152      2.204     5.33     1051.704     60.56218     431.9108        42     1.860     1.390 -38.06   0
       336    361.4583    387.6186 307.7808341  +6.5168734      923.849     1695.693     2127.232     85.71635     171.7063     343.3443      2.284     5.56     1043.786     60.56218     108.8391        12     1.099     1.059  79.88   0
       337    253.8566    385.4868 307.8256252  +6.5141498     806.8272     1526.355     1486.037     86.12616      171.843     343.7202      1.902     6.26     1046.925     60.56218     116.6506        10     1.502     0.734 -11.82   0
       338    170.2765    382.7424 307.8604533  +6.5124811     1617.112     3402.635     4313.116     86.26233     171.7747     343.5152      2.257     6.33     1050.554     60.56218     205.8573        28     1.874     1.150 -44.97   0
       339    981.6111    376.6897 307.5234553  +6.5420809     859.4976      1790.75     1926.369     85.85317     171.5012     343.3785      2.122     7.55     1033.766     60.56218     148.3934        14     2.148     0.743 -63.16   0
       340     11.8893    378.6948 307.9264137  +6.5088360     532.5012     765.7736     1162.853     86.12616     172.3204     343.6518      1.463     3.29     1055.587     60.56218     124.4485         5     0.730     0.688 -55.64   0
       341    393.6459    377.1591 307.7678107  +6.5222701     1326.244     2739.719     2663.772     85.98978      171.843     343.4127      2.133     7.51     1042.676     60.56218     151.7679        21     1.695     0.930 -35.65   0
       342    447.4592    370.7105 307.7456635  +6.5267334     4930.264     10457.65     11724.62     85.98978      171.843      343.686      2.245     5.35     1041.185     60.56218     571.8337        43     1.848     1.371 -32.30   0
       343     43.9682    371.7977 307.9133165  +6.5127616     2321.267     4880.662      5540.33     85.44206      171.638     343.3443      2.251     5.33      1054.69     60.56218     262.0392        32     1.743     1.197 -28.79   0
       344    788.0172    367.9821 307.6042125  +6.5392308     9398.765     18010.39     19538.25     85.85317     171.5012     343.5152      2.042     4.79     1037.881     60.56218     1112.921        48     1.869     1.217 -30.99   0
       345    780.1077    369.4774 307.6074495  +6.5383497     1412.945     2646.455     2946.735     85.85317     172.0478     343.6177      2.225     5.49     1037.979     60.56218     192.4075        16     1.406     0.797 -26.70   1
       346    351.8150    366.5035 307.7855564  +6.5252702     718.5294      1468.15     1406.259     85.85317     171.5696     343.3443      2.167     6.41     1042.758     60.56218     93.85986         9     1.384     0.832 -40.65   0
       347    962.7546    359.7954 307.5318610  +6.5484305     620.4034     1125.842     1725.404     85.44206     171.5012     343.2418      1.803     4.15     1033.667     60.56218      97.0343         7     1.498     0.328 -39.98   0
       348      2.5109    357.1549 307.9310426  +6.5174157     933.6693     1826.675     2631.615     86.12616     154.2042      278.744      2.647     7.87     1055.978     60.56218      133.545        14     1.614     1.074 -32.07  24
       349    467.6661    355.1313 307.7377919  +6.5338428     1457.375     3086.651     3145.711     86.12616     171.9113     343.6177      2.225     8.03     1039.835     60.56218     167.6863        21     1.718     1.049 -33.43   0
       350    495.8513    354.0356 307.7261147  +6.5352377     2086.955     4160.547     4283.764     85.98978      171.843      343.481      2.115     5.30     1039.219     60.56218     239.1598        30     1.633     1.260 -44.87   0
       351    853.3285    350.8713 307.5776432  +6.5484732     25607.45     48419.53     53213.38     86.39828     171.9795      343.481      2.036     4.56     1036.798     60.56218     2886.869        71     1.891     1.390 -36.47   0
       352    346.4169    347.5662 307.7884408  +6.5329098     538.4702     965.0624     828.4796     85.71635      171.638     343.4127      1.677     3.93     1042.059     60.56218     88.06299         5     1.031     0.428 -15.45   0
       353    625.0571    343.6193 307.6727653  +6.5438558     1925.475     4064.991      4637.46     85.71635     171.7747     343.3785      2.260     5.98     1037.682     60.56218      230.371        30     1.801     1.187 -30.12   0
       354    709.8359    336.9248 307.6377542  +6.5494496     56708.92     111852.8     123505.9     85.98977     171.9113     343.6177      2.107     4.85     1036.914     60.56218      6706.09        96     2.004     1.446 -32.41   0
       355     89.3201    336.7715 307.8956574  +6.5287483     981.3356     2023.156      2127.72     85.98978     171.7747     343.5152      2.050     6.76      1052.52     60.56218     124.8016        14     1.344     1.041 -44.52   0
       356    572.4478    333.6735 307.6949671  +6.5462061     1918.114     4007.206     4545.709     86.12616     171.9113     343.5835      2.210     5.58     1037.266     60.56218     219.1061        28     1.615     1.174 -35.31   0
       357    109.6692    332.7383 307.8873371  +6.5310968      4137.06      8729.18     9764.757     86.26233      171.843     343.6177      2.288     5.27     1051.625     60.56218     517.5859        45     1.896     1.384 -37.75   0
       358    951.7469    333.6050 307.5373173  +6.5588802     632.4979     766.8896     526.1296     85.44206     171.5696     343.2076      1.473     5.07     1032.688     60.56218     105.8497         6     0.973     0.747 -64.51   0
       359    555.7318    329.9035 307.7020421  +6.5472046     4955.226     10057.55     11087.64     85.98978     171.9795     343.6177      2.207     4.98     1037.049     60.56218     555.5286        45     1.864     1.348 -38.73   0
       360    418.5450    325.0913 307.7592234  +6.5446051     16965.42     36406.46     40386.55     85.98977     171.7063     343.7202      2.251     5.23     1039.583     60.56218     1820.428        74     2.030     1.517 -33.39   0
       361    284.7635    327.7009 307.8147373  +6.5390484     1641.428     3626.572     3619.708     86.12616     171.7063     343.7884      2.226     7.25     1043.621     60.56218     181.3925        26     1.641     1.199 -31.65   0
       362    525.9729    324.0792 307.7146076  +6.5486154     1007.097     1991.478     1953.031     85.98978     171.7747     343.5835      2.111     6.05     1037.292     60.56218       128.61        11     1.076     0.956 -20.60   0
       363    398.3615    324.2657 307.7676401  +6.5442707     731.1554      1451.12     3128.707     85.98978     171.7747      343.686      5.190     6.15     1040.007     60.56218     123.3203        10     1.424     0.979  -2.98   0
       364    497.7003    320.3864 307.7264833  +6.5491953     936.4727     1767.607     1521.561     85.85317     171.5696     343.3102      1.924     5.90     1037.988     60.56218     115.3168        10     1.108     0.884 -78.99   0
       365    813.6665    317.5515 307.5952508  +6.5609119     606.8294     1285.686     1455.944     85.98978     171.7747     343.5835      2.383     5.36     1035.595     60.56218     75.87964         7     1.213     0.669  38.46   0
       366    507.6005    315.4746 307.7225345  +6.5515547     5791.943     12060.89     13226.05     85.30459     171.1586     343.3785      2.184     5.03     1037.479     60.56218     682.6078        48     1.894     1.344 -37.44   0
       367    776.4800    314.2216 307.6108195  +6.5610477     2237.989     4327.708     5281.712     85.71635     171.5012     343.5835      2.095     5.15     1035.924     60.56218      256.505        26     1.678     1.026 -32.31   0
       368    931.9772    313.5269 307.5462103  +6.5665140     693.1653     1285.501     1669.091     85.71635      171.638     343.5494      2.249     5.08     1032.652     60.56218     115.9679         6     1.419     0.514 -47.19   0
       369    868.1185    338.0963 307.5719261  +6.5542415     996.8797     1878.324     2646.763     85.98978     172.1842     343.6518      2.229     4.60     1035.663     60.56218     156.3838        11     1.238     0.892 -34.52   0
       370    333.4041    312.7520 307.7950275  +6.5468509     697.4615     1557.708     1590.786     85.44206     171.5696     343.2418      2.125     7.08     1041.398     60.56218      103.512         9     1.519     0.925   6.34   0
       371    170.7472    306.0992 307.8628561  +6.5441468     636.5865     1377.839     1448.396     85.98978      171.843     343.8226      2.203     7.29     1048.588     60.56218      86.3302         8     1.342     1.107 -22.10   0
       372    397.5707    299.6345 307.7688020  +6.5544159     4696.861     10292.06      11597.1     85.57932     171.5696     343.3785      2.271     5.27     1039.006     60.56218     532.4784        50     1.953     1.402 -37.83   0
       373    253.5991    300.2446 307.8286198  +6.5493423     1268.611     2869.189      2888.33     85.44206     171.5012     343.1392      2.115     7.32     1043.677     60.56218     145.2091        23     1.627     1.119 -24.26   0
       374    765.3420    295.4776 307.6160808  +6.5684170     40497.44     76511.35     83951.29     86.26233      171.843     343.5152      2.032     4.60     1035.367     60.56218     4606.052        89     1.942     1.441 -32.53   0
       375    751.0898    299.2992 307.6218759  +6.5663637     760.7944     1230.554     1135.948     86.12616     172.3204     343.5494      1.593     4.30     1035.559     60.56218     107.2377         7     0.778     0.679  11.22   0
       376    437.1736    295.1230 307.7524943  +6.5576040     1481.587     3082.464     3028.313     85.98977      171.843     343.5494      2.106     6.05     1038.098     60.56218     202.2559        24     1.574     1.079 -25.28   0
       377    583.1232    292.7087 307.6919133  +6.5634797     778.6504     1379.835     1120.799     85.85317      172.116     343.5835      1.838     6.40     1035.049     60.56218     86.81677        10     1.332     0.864 -55.53   0
       378   1000.2310    292.3396 307.5185526  +6.5775346     1452.425     2696.457     2983.701     85.85317      171.843     343.5494      1.907     5.37     1027.154     60.56218      200.875        18     1.533     0.902 -32.22   0
       379    941.2833    291.6575 307.5430780  +6.5758552     1902.695     3279.571     3118.078     86.12616      171.843     343.6518      1.836     5.08     1031.044     60.56218      251.101        18     1.393     0.928 -27.51   0
       380    474.5430    291.2398 307.7370935  +6.5604575     693.5274     1617.265     1516.878     86.12616     171.9113     343.6177      2.343     6.43     1037.751     60.56218     97.74316        10     1.429     0.813 -38.15   0
       381    423.8015    290.6840 307.7582024  +6.5589898     1148.331     2530.272     2116.548     85.30459     171.3642     343.2759      2.201     5.62     1037.999     60.56218     171.9153        18     1.329     1.166 -58.84   0
       382    844.9772    284.7682 307.5833407  +6.5754936     939.2248     1868.686     2300.322     85.57932      171.638     343.3443      2.169     7.24     1032.808     60.56218     117.4894        15     1.555     0.978 -38.56   0
       383    200.3936    282.2451 307.8513432  +6.5549916     1393.558     3192.262     3799.327     85.57932      171.638     343.2076      2.383     8.34     1046.148     60.56218     162.6355        25     1.797     1.200 -27.82   0
       384    763.9076    280.0665 307.6171965  +6.5747335     4490.612     8548.465     9175.577     85.98978     172.0478     343.5835      2.028     4.82     1034.755     60.56218     522.3673        38     1.722     1.246 -31.84   0
       385    454.3998    281.9641 307.7457794  +6.5636143     802.2977     1271.879     1707.347     85.02896      171.638     343.3785      1.732     4.71     1037.224     60.56218     115.6344         8     1.049     0.599 -65.59   0
       386     96.5348    279.1322 307.8946146  +6.5527925      788.822     1729.909      2149.59     86.12616      171.843     343.6177      2.103     7.10     1051.502     60.56218     99.46826        12     1.588     0.890 -28.91   0
       387    780.3918    277.9344 307.6104165  +6.5761635     1934.069     3782.741     4179.021     85.57932     171.5696     343.4469      2.125     5.03     1034.557     60.56218     237.1903        23     1.491     1.066 -19.41   0
       388    369.6236    272.6882 307.7813296  +6.5646081     1201.656     2730.537     3016.721     86.12616      171.638     343.4469      2.434     7.89     1038.862     60.56218     141.1722        18     1.618     1.075  12.58   0
       389     83.5872    273.8439 307.9001753  +6.5545416     906.8951     1642.221     1692.533     85.57932      171.638     343.3102      1.881     4.52     1051.995     60.56218     134.7012        10     1.000     0.775 -23.49   0
       390   1018.3163    268.7918 307.5118269  +6.5878607     5111.086     8524.604      9122.97     85.71635     171.5012     332.4373      1.785     4.40     1025.772     60.56218     637.4775        30     1.648     0.958 -31.04  16
       391    496.3123    268.9699 307.7287980  +6.5703819     1524.211     2908.801     2832.537     86.26232      171.638      343.481      2.010     5.26       1035.2     60.56218      179.686        18     1.480     0.885 -15.56   0
       392    259.1532    264.5328 307.8275212  +6.5642758     3883.904     8282.942     9630.598     86.12616     171.7747     343.5835      2.291     5.32     1042.891     60.56218      443.575        45     1.960     1.326 -34.40   0
       393    926.9831    262.7634 307.5499945  +6.5873117     569.9626     802.6146     1186.857     85.57932     171.7063     343.3443      1.490     3.79     1029.993     60.56218     89.95166         5     0.823     0.502  60.74   0
       394    393.5597    255.2729 307.7719700  +6.5726011     1016.188     2275.807     2320.053     85.98978     171.9113     343.6518      2.239     7.96     1037.241     60.56218     134.8037        17     1.437     1.234   0.87   0
       395    980.0538    253.8102 307.5282356  +6.5927750     864.8118     1565.021     1822.875     85.44206     171.7747     343.2759      1.992     4.51     1027.328     60.56218     102.1594         7     1.249     0.464 -47.07   0
       396    316.4242    251.5903 307.8041555  +6.5715393     597.3332     1099.412     1484.246     85.71635      171.638     343.4469      1.784     4.25     1040.285     60.56218     79.82666         5     1.240     0.416 -35.74   0
       397    163.1058    251.3689 307.8678879  +6.5664913     1216.514     2318.768     2572.927     86.26232      171.638     343.5835      2.077     5.46     1047.172     60.56218     158.8184        14     1.302     0.791 -29.11   0
       398    916.1306    245.6087 307.5550830  +6.5940348     1410.234     2740.115     3181.448     85.57932     171.5012     343.4469      2.145     5.36     1029.248     60.56218     187.4608        18     1.213     1.151  29.53   0
       399    572.6143    246.4246 307.6978445  +6.5822422     1462.657     3098.179     3159.608     85.85317      171.638     343.5152      2.119     6.17     1032.876     60.56218     168.9542        23     1.540     1.087   3.58   0
       400    736.1472    244.1981 307.6299448  +6.5886203     3619.191      7253.16     8084.539     85.44206     171.5696     343.1392      2.133     4.86     1033.358     60.56218     422.4369        37     1.761     1.208 -30.93   0
       401    677.2068    244.1818 307.6544450  +6.5866607     1552.249     3044.022     3244.775     85.71635     171.5012     343.4127      2.170     5.04     1033.358     60.56218     172.1156        21     1.411     1.015 -41.04   0
       402    973.7483    244.3579 307.5311746  +6.5964688     646.0621     1287.298     1354.741     86.12616      171.843     343.5835      2.136     3.48      1027.25     60.56218     105.6519         5     0.781     0.447 -15.71   0
       403    932.2924    236.5994 307.5486681  +6.5982933     932.4544     1516.881     1630.941     85.57932     171.3642     343.2418      1.746     5.56     1028.115     60.56218     126.7021        10     1.290     0.676 -36.49   0
       404    235.8998    229.5280 307.8383723  +6.5779517     1450.537     3044.302     3552.319     85.85317     172.0478     343.6177      2.349     7.47     1043.675     60.56218     173.8724        25     1.764     1.312 -45.89   0
       405    878.2090    228.3200 307.5714282  +6.5999119     1277.915     2530.832     2553.091     85.71635     171.4327     343.4127      1.960     6.15     1029.979     60.56218     156.0184        20     1.520     1.134 -13.70   0
       406    769.2001    227.7297 307.6167608  +6.5965234     1191.255     2367.171     2366.966     85.57932     171.2957     343.3443      2.060     7.01     1032.223     60.56218      150.895        19     1.643     1.031 -24.85   0
       407    469.9788    219.1632 307.7414273  +6.5900695      14897.3     32021.52     37420.96     85.71635     171.5696     343.3101      2.335     5.44     1031.644     60.56218     1788.212        90     2.548     1.525 -39.50   0
       408    795.6176    218.5166 307.6060902  +6.6012087     10026.61     19346.72     21831.52     85.71635     171.5012     343.5152      2.105     4.69      1031.41     60.56218     1141.445        58     1.954     1.316 -27.79   0
       409    132.4404    212.3159 307.8819580  +6.5815893     705.5197     1472.393     1661.123     86.12616     171.7747     343.5152      2.039     6.20     1048.289     60.56218     103.5345        10     1.691     0.639 -47.67   0
       410    931.6971    209.0689 307.5498421  +6.6096428     1146.015       2295.6     2556.465     85.98978     172.0478     343.5835      2.104     6.48     1027.045     60.56218     156.3666        15     1.365     0.864 -42.39   0
       411    158.2513    212.7141 307.8712164  +6.5822909     1533.429     2994.423     3353.866     86.12616     171.7063     343.6519      2.151     5.66     1046.186     60.56218     184.0363        23     1.407     1.251 -42.24   0
       412    593.6681    205.2750 307.6904828  +6.5999388     3303.028     6593.754     6901.873     86.26233     171.9795     343.5835      2.087     5.13     1031.592     60.56218     346.9905        37     1.757     1.263 -36.76   0
       413    556.2511    205.2952 307.7060354  +6.5986804     1435.454     2932.474     3307.259     85.98978     171.7747     343.8226      2.196     7.28     1031.241     60.56218      150.147        22     1.582     1.082 -39.77   0
       414    398.3788    204.5312 307.7716837  +6.5937165     959.4476     1940.019     2092.795     85.71635     171.7747      343.481      2.153     5.90     1035.348     60.56218     148.7914        13     1.480     0.958 -64.23   0
       415    314.4242    206.2516 307.8065221  +6.5901951     643.0433     1338.409     1038.666     85.57932      171.843      343.481      2.095     4.43     1040.024     60.56218     93.86682         5     0.938     0.595 -41.41   0
       416    900.7037    201.6709 307.5629748  +6.6116662     9096.166     16214.17     16790.51     85.98978     171.9795     343.6177      1.897     4.54     1027.999     60.56218     1100.716        47     1.746     1.217 -32.83   0
       417    954.5666    202.0734 307.5405709  +6.6132928     2257.677     3795.092     3465.261     85.98977     171.7747     343.5835      1.797     4.53     1026.266     60.56218     258.6151        21     1.430     0.944 -36.25   0
       418    328.9032    202.3080 307.8006373  +6.5923085     682.9275     1139.483     1454.268     86.12616     172.3885     343.5494      1.966     5.20     1039.255     60.56218     81.84314         8     1.012     0.755 -75.63   0
       419    987.3597    199.5090 307.5270252  +6.6154429     8187.621     13905.84     14343.74     86.12616     171.7747     343.6177      1.821     4.25     1025.264     60.56218     1059.555        41     1.718     1.112 -29.71   0
       420     27.0192    198.4631 307.9262455  +6.5837700     17951.28     37204.35      42287.6     85.71635      171.843     343.4127      2.206     4.90     1053.499     60.56218     2142.839        74     2.034     1.493 -35.22   0
       421    699.0323    199.2663 307.6468880  +6.6059375     2019.751     3991.949     4765.185     85.98978     171.9113     343.5152      2.160     5.16     1032.122     60.56218     266.0061        27     1.577     1.159 -46.71   0
       422    273.9115    200.0998 307.8235698  +6.5913781     633.6479     1182.098     686.2126     86.12616     172.3204     343.5494      1.547     3.69     1042.123     60.56218     107.8291         5     1.049     0.373 -55.25   0
       423    507.0762    194.6483 307.7268358  +6.6014336     1335.788     3017.996     3160.695     85.98978     171.9113     343.5835      2.248     7.75     1030.784     60.56218     157.7767        27     1.652     1.253 -55.49   0
       424    519.5880    190.5079 307.7217750  +6.6035617     1740.811     3380.022     3052.863     85.85317     171.5696     343.3443      1.990     5.63      1030.71     60.56218     212.7728        24     1.542     1.148 -44.46   0
       425    839.0906    191.1690 307.5889405  +6.6139510     1572.404     2805.499     2944.758     86.26232      171.638     343.5494      1.916     4.62     1029.186     60.56218     191.0741        18     1.264     0.998 -32.27   0
       426    891.7554    190.0246 307.5670867  +6.6161778     1552.195     3033.793     3524.749     85.57932      171.843     343.4469      1.940     6.14     1027.861     60.56218     187.8466        21     1.658     0.840 -38.46   0
       427    750.8953    187.6226 307.6257220  +6.6124759     29573.31     57178.84     62345.16     86.12616      171.638     343.4127      2.064     4.58     1031.449     60.56218     3587.648        77     1.939     1.402 -29.90   0
       428    354.0062    187.0667 307.7907189  +6.5994431     4244.244     10531.87     12774.78     85.57932     171.5696     343.3785      2.619     6.47     1037.874     60.56218     455.0173        61     2.270     1.550 -58.23   0
       429    984.6899    186.3474 307.5285778  +6.6207894     2345.092     3868.813     4165.646     86.12616      171.638     343.7202      1.770     4.45     1024.678     60.56218      311.298        23     1.450     1.008 -30.71   0
       430    918.8389    184.7113 307.5560070  +6.6192737     6014.371     10570.72     10900.23     86.12616     171.7747     343.6177      1.866     4.15      1026.98     60.56218     765.0565        35     1.655     1.092 -31.91   0
       431   1022.6462    185.2470 307.5128364  +6.6225063     1537.205     2220.615     2143.048     85.57932     151.9037     276.1211      1.624     6.23     1023.212     60.56218     228.1494        16     1.322     0.825 -46.72  24
       432    462.3295    183.9723 307.7457968  +6.6043461     3303.001     7316.932     8174.195     85.85317     171.7747     343.5152      2.296     5.24     1031.511     60.56218     373.3571        42     1.822     1.399 -28.96   0
       433    119.7132    175.3177 307.8885032  +6.5964404     3171.148     6616.551     6933.526     85.85317     172.0478     343.6518      2.105     5.49     1048.779     60.56218     350.9094        35     1.792     1.247 -36.35   0
       434    265.2987    173.0587 307.8280659  +6.6022561     4239.034     9313.521     10044.97     85.85317     171.7747     343.7202      2.272     5.27     1042.866     60.56218     460.6552        47     1.971     1.375 -36.28   0
       435    290.0689    171.9359 307.8178078  +6.6035499     22174.13     47638.51     53632.96     86.12616     171.9113     343.6177      2.282     5.12     1042.023     60.56218     2483.628        78     2.050     1.553 -31.93   0
       436    939.5227    174.0622 307.5477672  +6.6243599      687.655     1081.342     1358.318     86.39828     171.9113     343.5835      1.586     4.86     1026.068     60.56218     91.32849         7     1.278     0.524 -50.67   0
       437    719.2164    171.1986 307.6394445  +6.6182018     664.6721     1193.841     1043.156     85.71635     171.3642     343.3443      2.041     5.16     1031.657     60.56218     107.4288         7     1.129     0.667 -32.69   0
       438    414.1176    167.3820 307.7663984  +6.6095842     32993.59     70316.12     78811.82     85.71635     171.5012     343.5494      2.238     5.02     1033.301     60.56218      3862.08        90     2.077     1.554 -32.50   0
       439    170.1914    168.6408 307.8677482  +6.6008914     2803.641     5999.271     6354.919     85.44206      171.638     343.2759      2.245     5.32      1045.48     60.56218     344.1832        38     1.803     1.345 -44.26   0
       440    432.4163    167.5129 307.7587877  +6.6101424     895.7795     1718.963     1775.907     85.85317     171.5696     343.4469      2.186     5.58     1032.483     60.56218     140.2074        10     1.367     0.657 -63.91   2
       441    318.1632    165.1357 307.8063602  +6.6072992     12224.27     26158.75     29615.58     85.98977      171.843     343.6518      2.278     5.00     1040.291     60.56218     1440.204        74     2.158     1.569 -27.29   2
       442    325.6725    165.3368 307.8032320  +6.6074677     1377.037     3219.635     4024.182     86.12616      171.843     343.6518      2.578     6.84     1039.753     60.56218     147.7415        23     1.653     1.235 -25.08   3
       443    753.3506    163.4943 307.6255149  +6.6225219     24342.31     46830.88     51532.35     85.98978     171.7063     343.7202      2.062     4.66     1030.757     60.56218     2809.396        72     1.903     1.417 -33.33   0
       444    701.2060    165.0765 307.6471378  +6.6201292      694.634      1210.65     1243.641     85.71635     171.2957     343.4127      1.885     4.04     1031.581     60.56218     107.8525         6     1.154     0.404 -62.23   0
       445    801.8560    163.9420 307.6053362  +6.6239541     1075.748     1673.408     1749.015     86.26232     171.9113     343.6177      1.789     6.61     1028.542     60.56218     129.6565        13     1.364     0.899 -22.81   0
       446     70.2926    160.9090 307.9095341  +6.6007312     6268.419     12895.46     14025.05     86.12616     172.3885     343.6177      2.196     5.19     1051.404     60.56218     705.8423        47     1.858     1.352 -38.29   0
       447    104.5005    158.9728 307.8953811  +6.6026793     906.8992      1983.45     1899.935     86.12616     171.5696      343.481      2.262     7.79      1049.56     60.56218     122.3761        16     1.846     0.920 -18.40   0
       448   1012.0760    157.7164 307.5181563  +6.6335241     781.0154     1485.048      1980.54     86.26232     172.1842      343.686      1.973     4.75      1022.01     60.56218     134.0016         7     1.085     0.589  17.19   0
       449      3.6356    146.0216 307.9377459  +6.6046395      669.527     1406.597     939.4047     85.57932     166.5713     295.9403      2.122     6.19     1054.658     60.56218     73.12341         9     1.611     0.668 -26.62  24
       450   1012.6464    143.9330 307.5183828  +6.6392352     1959.343     3785.195     4954.821     86.12615     171.7747     343.6177      2.166     5.58     1021.198     60.56218     258.4639        23     1.594     0.985 -27.95   0
       451    595.8168    142.0748 307.6917240  +6.6261097     863.2129     1627.418     2857.977     85.57932     171.5696     343.4469      4.145     6.43     1030.142     60.56218     126.1299        12     1.501     0.774 -33.23   0
       452    288.9178    138.1954 307.8194292  +6.6174445     19915.37      43384.9     49427.23     85.57932     171.4327     343.2759      2.294     5.11     1042.619     60.56218     2353.469        80     2.088     1.562 -33.31   0
       453    604.1082    140.0738 307.6883449  +6.6272130     1437.483     3045.868     3599.342     86.12616     171.9795     343.6177      2.515     5.98     1030.143     60.56218      195.866        24     1.653     1.162 -17.52   0
       454     34.2385    136.9260 307.9253345  +6.6094238     3052.739     6291.723     7030.006     85.98977      171.843     343.6518      2.191     5.42     1052.903     60.56218     388.8121        39     1.896     1.280 -42.76   0
       455    131.5412    132.0930 307.8850533  +6.6146868     3496.827     7091.982     7849.494     85.98977     171.7747     343.7202      2.142     5.21     1046.855     60.56218     407.8308        36     1.811     1.195 -35.58   0
       456    470.5076    129.6637 307.7442337  +6.6270467      850.653     1609.105     1315.221     86.12616     172.0478     343.6518      1.746     6.14     1030.769     60.56218     126.6757        11     1.561     0.678 -34.59   0
       457    402.0680    127.8973 307.7727432  +6.6254863     2577.081     6001.917     6632.545     86.12616     171.9113     343.5494      2.355     5.74     1034.224     60.56218     273.1747        40     1.785     1.467 -44.00   0
       458    366.6242    126.8514 307.7875121  +6.6247317     2229.074      4652.08     5107.583     85.71635      171.843      343.481      2.187     5.27      1037.36     60.56218       314.67        35     1.845     1.227 -48.26   0
       459    120.8648    126.8107 307.8896704  +6.6165098     1095.486     2454.105     2825.887     85.57932      171.638      343.481      2.355     8.43     1047.111     60.56218     172.5277        19     2.004     0.990 -36.86   0
       460   1012.9974    120.8586 307.5190129  +6.6487758     1238.328     2101.439     2416.332     85.44206      171.638     343.3101      1.899     6.16     1019.944     60.56218       144.77        17     1.489     0.828 -30.75   0
       461    218.5283    115.8185 307.8494469  +6.6243255      3822.71     7924.302     8354.727     85.57932     171.7747     343.5152      2.172     4.92     1044.791     60.56218     471.4596        42     1.847     1.322 -37.71   0
       462    101.0113    115.2132 307.8983165  +6.6206324     1497.296     3740.743      4289.14     85.85317     171.5696     343.5152      2.413     9.66     1047.105     60.56218     367.2714        30     1.739     1.496 -71.88   0
       463    827.7054    114.7618 307.5962477  +6.6451253     679.3713     1350.694     1482.234     86.26233     171.7063     343.7202      2.028     5.23      1025.55     60.56218     116.9962         8     1.562     0.495 -46.57   0
       464    680.1519    114.3738 307.6576008  +6.6403649     4566.235     8979.341     9392.885     85.71635     171.9113      343.481      2.065     4.72     1028.892     60.56218     558.3158        41     1.757     1.285 -32.10   0
       465    632.3322    111.7768 307.6775676  +6.6398411     6605.983     13438.72     15169.08     85.71635     171.7747     343.5494      2.196     4.83     1029.123     60.56218     777.7578        51     1.926     1.367 -33.84   3
       466    635.8325    103.2353 307.6764008  +6.6434852     37691.54     75538.76     83262.61     85.71635     171.5696     343.3102      2.127     4.77     1028.717     60.56218     4306.251        91     2.012     1.491 -31.33   3
       467    720.5584    134.7824 307.6401150  +6.6332852     5775.415     10850.72     12006.91     85.57932      171.638     343.3443      1.996     4.55     1029.953     60.56218     672.5117        40     1.771     1.219 -35.56   0
       468    359.4641    107.6104 307.7911399  +6.6324376     2615.796     5557.479     6677.236     85.57932      171.638      343.481      2.381     5.46     1038.416     60.56218     312.3306        37     1.895     1.249 -35.33   0
       469    541.3672    106.8420 307.7155489  +6.6388402     1262.881     2480.607      2325.47     85.85317      171.843     343.4127      1.965     6.02     1029.757     60.56218     176.8788        20     1.633     1.033 -22.23   0
       470   1005.2883    106.6096 307.5226971  +6.6544039     704.6302     1271.679     1319.003     85.71635     171.5012     343.3443      1.965     6.01     1019.521     60.56218     83.89813        10     1.528     0.666 -27.16   0
       471    314.9482     96.9767 307.8100049  +6.6353379     2343.671     5351.877     6289.451     85.57932      171.843     343.4469      2.408     5.82     1041.546     60.56218     256.3324        35     1.804     1.287 -34.03   0
       472    901.6984   1018.3552 307.5350839  +6.2744296     1563.642     2440.805     2233.829     86.12616     171.7747     332.5079      1.690     6.03     1064.728     60.56218     196.1495        15     1.468     0.697 -34.47  16
       473    685.9937     92.0000 307.6559273  +6.6497994     666.1058     1203.923      1028.71     85.30459     171.4327     343.3443      1.624     3.97     1027.697     60.56218     102.0424         5     1.131     0.400  10.09   3
       474    687.2339     89.5758 307.6554936  +6.6508419     909.8835     1583.364     1320.779     85.57932      171.638     343.3443      1.975     5.58     1027.608     60.56218     108.5227         9     0.998     0.881 -14.55   2
       475    700.2532     87.2216 307.6501606  +6.6522485     2201.962       4428.1       4343.6     85.57932      171.843     343.3785      2.143     5.22     1027.368     60.56218     270.6733        30     1.724     1.178 -26.06   0
       476    442.2238     78.3264 307.7577276  +6.6473006     2804.841     5841.527     6541.088     85.71635      171.638     343.5152      2.233     5.20     1032.149     60.56218     331.4313        38     1.809     1.340 -37.43   0
       477    914.3588     73.6504 307.5616085  +6.6649891     3135.629     5604.616     6028.171     86.26233      171.843     343.5835      1.919     4.67     1021.201     60.56218     387.7068        31     1.723     1.058 -35.54   0
       478    896.5114     74.4471 307.5690014  +6.6640658     1891.594     3445.951     3493.128     86.12616     171.7063     343.7543      1.892     5.75     1021.254     60.56218     224.4715        24     1.802     0.985 -19.29   0
       479    606.8490     71.9493 307.6895061  +6.6554372     1240.069     2411.338     2649.152     86.12616     171.7063     343.5152      2.067     7.03     1027.952     60.56218     158.0959        17     1.368     1.108 -24.33   0
       480    405.3049     70.7466 307.7733315  +6.6491952     1323.288     2506.747     2671.053     85.98978     171.7747     343.8567      2.015     6.09     1034.724     60.56218     161.5712        17     1.479     0.876 -45.17   0
       481    253.2980     72.3408 307.8364672  +6.6434453     654.2186     1301.804     2382.987     85.85317     171.7747     343.7202      2.203     4.53     1044.736     60.56218     78.53345         6     1.068     0.546  32.91   0
       482    153.4342     67.1520 307.8781560  +6.6422386     2385.088     4793.405     4630.946     85.85317      171.843     343.5152      2.069     5.01     1045.644     60.56218     269.5186        31     1.582     1.274 -32.85   0
       483     35.1947     64.9885 307.9273801  +6.6391617     8828.979     18052.82     20612.73     85.71635     171.5696      343.481      2.173     4.91     1051.511     60.56218     1022.214        56     1.865     1.430 -38.16   0
       484    302.0668     65.4380 307.8164279  +6.6479302     672.2764     1475.093     2107.701     85.98977     171.7747      343.686      2.112     6.31     1043.491     60.56218     94.45386         7     1.488     0.752 -21.23   0
       485    836.9113     59.3840 307.5942867  +6.6683011     4854.032     8905.454     10230.62     85.85317     171.5696     343.4127      1.999     4.65     1022.107     60.56218     570.3358        38     1.766     1.144 -32.13   0
       486    782.1584     59.6171 307.6170415  +6.6663799     2485.412     4679.752     5239.569     85.57932      171.638     343.3785      2.018     4.88     1024.419     60.56218     319.5129        28     1.712     1.037 -30.26   0
       487    427.1962     60.5226 307.7645770  +6.6541499     885.6158     1746.284     2181.269     85.71635     171.2957     343.3785      2.156     3.92     1033.236     60.56218     141.6737         9     0.998     0.882 -75.66   0
       488     75.5214     56.9536 307.9108897  +6.6438343     2206.405     4540.129     4800.621     86.12616     171.9113     343.5494      2.085     5.50     1047.607     60.56218     264.1625        32     1.787     1.179 -38.98   0
       489    544.4614     57.9356 307.7159153  +6.6591398     846.2419      1586.17     2217.498     86.12616      171.843     343.6177      2.266     5.63     1028.606     60.56218     125.9578         9     1.130     0.790 -67.15   0
       490     60.3282     57.7174 307.9171794  +6.6430086     688.7831     1377.531     975.1285     86.39828     172.1842     343.6177      2.137     5.36     1049.037     60.56218     87.20288         7     1.298     0.625 -14.12   0
       491    437.5690     56.4692 307.7604020  +6.6561708     629.5736      1243.47     1939.249     85.98978      171.843     343.5494      2.299     4.23     1032.672     60.56218     106.5308         5     0.948     0.538  41.84   0
       492    599.7560     53.5538 307.6930762  +6.6627968     833.0186     1652.934     1565.579     86.12616      171.843     343.5152      2.038     6.75     1027.434     60.56218     109.4301        12     1.756     0.728 -20.07   0
       493     18.0719     52.2012 307.9349321  +6.6438668     1792.708     3795.083     5770.151     85.44206     171.3642     343.4127      3.935     6.27     1052.461     60.56218     233.8939        28     1.738     1.176 -31.82   0
       494    776.5441     47.3669 307.6197885  +6.6712516     1543.662     2906.797     3017.706     85.98978      171.843     343.5835      1.891     6.07     1023.737     60.56218        213.2        22     1.771     0.859 -27.65   0
       495    103.2963     41.0864 307.8998825  +6.6513192     6613.107     13694.86     15018.48     86.12616     172.2523     343.6177      2.147     5.02     1045.662     60.56218     774.2128        49     1.901     1.354 -40.73   0
       496    432.5369     40.7702 307.7630251  +6.6624854     1871.292     3765.404     3889.001     85.85317      171.843     343.5152      2.108     5.68     1033.237     60.56218     225.0553        27     1.618     1.202 -22.15   0
       497    270.1220     35.5933 307.8307187  +6.6591840     1122.451     2319.486     3521.956     85.71635     171.2957     343.3443      2.965     7.61     1045.568     60.56218     135.0657        21     1.537     1.227 -26.46   0
       498    645.9991     33.0199 307.6745449  +6.6728208     13077.93     25916.09     29090.59     85.71635     171.3642     343.2759      2.129     4.74     1026.014     60.56218     1544.962        61     1.926     1.379 -31.68   0
       499    545.8171     29.0963 307.7163263  +6.6710945     3516.575     7281.874     8627.363     85.98977      171.638     343.3785      2.251     5.04      1027.73     60.56218     447.9894        41     1.989     1.236 -30.56   0
       500    264.2162     30.0204 307.8333627  +6.6612873      1313.43     2752.057     3869.907     85.85317      171.638      343.481      2.576     7.34     1045.747     60.56218     162.6692        19     1.529     1.058 -23.28   3
       501    224.5644   1016.7866 307.8164197  +6.2524685     1969.109     3322.521      3645.36     85.57932      171.638     342.7969      1.793     5.18     1070.277     60.56218     234.3351        20     1.536     0.839 -30.15  16
       502    727.7537   1013.7286 307.6074990  +6.2705467       6821.6     10900.52     11414.07     86.12616      171.843     343.5835      1.709     4.25     1066.568     60.56218       915.95        32     1.622     0.938 -35.19  16
       503     12.6644     27.8674 307.9380066  +6.6537334     869.7492     2108.641     1955.661     86.12616      171.843     343.6177      2.409     6.39     1051.696     60.56218     105.3792        11     1.277     0.899 -65.94   0
       504    929.0904     24.4802 307.5571394  +6.6857850     1580.788     2831.754     2394.548     85.85317     172.0478     343.6518      1.913     5.03     1019.114     60.56218     213.3719        20     1.568     0.940 -32.23   0
       505    331.5883     26.1607 307.8054858  +6.6651387     688.2242     1283.192     941.0291     85.57932      171.638     343.3102      2.008     4.66     1042.461     60.56218     106.6631         6     0.973     0.633  -6.58   0
       506     37.5551     24.7504 307.9277655  +6.6558569     1638.782      3198.84     3166.615     86.12616     171.7063     343.5835      2.052     5.46     1049.768     60.56218     201.9093        24     1.544     1.083 -35.87   0
       507    632.2698     22.8418 307.6805963  +6.6765655     2440.698     4953.029     6354.571     85.98978      171.843     343.6518      2.392     4.82     1025.835     60.56218     273.7914        29     1.663     1.124 -43.07   0
       508    442.9015   1013.8864 307.7258227  +6.2609727     3528.866     6234.644     6775.128     86.12616     172.3204     343.6518      1.834     4.62     1070.922     60.56218     482.2081        29     1.684     0.958 -31.40  16
       509    313.0096     20.1208 307.8134139  +6.6670105     615.8528     1192.991     1354.917     85.71635     171.4327     343.4127      2.092     4.96     1044.193     60.56218     102.8209         6     1.185     0.588 -21.14   0
       510    583.9005   1012.8530 307.6672864  +6.2661095     3796.666     6509.833     7279.083     85.98977      171.843     343.8226      1.819     4.20     1069.681     60.56218     464.5847        28     1.580     0.996 -38.72   0
       511    719.9546   1012.9094 307.6107664  +6.2706250     1201.871     1910.365      2078.16     86.12616     171.7747     343.7202      1.579     5.89     1066.765     60.56218     176.0465        13     1.319     0.740 -39.64   0
       512    760.0654   1008.7792 307.5942429  +6.2736676     1181.747     1788.616     1974.097     85.71635      171.843     343.4469      1.603     5.89       1066.2     60.56218      141.174        13     1.304     0.750 -23.79   0
       513    967.4132   1003.1443 307.5082958  +6.2828975      6439.63     10173.78     9895.187     85.44206     171.7747     343.2759      1.702     4.27     1061.921     60.56218     907.5306        31     1.585     0.929 -33.87   0
       514    726.3344   1001.6576 307.6084951  +6.2754844     2385.012     4536.008     5828.648     86.26233     171.7747     343.6177      2.233     8.61       1066.2     60.56218     334.2389        30     2.512     0.825 -27.41   0
       515    251.9187   1003.3413 307.8055121  +6.2589371     1139.907     1943.262     2018.013     86.12616     171.9113     343.5835      1.809     5.25     1070.592     60.56218     172.7783        14     1.489     0.659 -32.05   0
       516    450.1178   1002.1782 307.7232205  +6.2660489     694.3801     1190.589     995.1229     85.85317     171.5012     343.5152      1.759     4.57     1070.544     60.56218     92.79517         7     0.993     0.598 -76.34   0
       517    742.7582   1000.5942 307.6017082  +6.2764710     927.3481     1535.575      1019.15     85.44206     171.5012     343.2759      1.649     6.06     1065.855     60.56218     159.4139        10     1.446     0.736 -34.98   0
       518    373.6007    998.8751 307.7551173  +6.2648543     1537.893     2446.392     2702.486     85.30458     171.1586     343.3785      1.672     6.51     1071.074     60.56218     212.0337        17     1.558     0.763 -32.23   0
