#   1 NUMBER                 Running object number                                     
#   2 X_IMAGE                Object position along x                                    [pixel]
#   3 Y_IMAGE                Object position along y                                    [pixel]
#   4 ALPHA_J2000            Right ascension of barycenter (J2000)                      [deg]
#   5 DELTA_J2000            Declination of barycenter (J2000)                          [deg]
#   6 FLUX_APER              Flux vector within fixed circular aperture(s)              [count]
#   9 FLUXERR_APER           RMS error vector for aperture flux(es)                     [count]
#  12 FLUX_RADIUS            Fraction-of-light radii                                    [pixel]
#  13 FWHM_IMAGE             FWHM assuming a gaussian core                              [pixel]
#  14 BACKGROUND             Background at centroid position                            [count]
#  15 THRESHOLD              Detection threshold above background                       [count]
#  16 FLUX_MAX               Peak flux above background                                 [count]
#  17 ISOAREA_IMAGE          Isophotal area above Analysis threshold                    [pixel**2]
#  18 A_IMAGE                Profile RMS along major axis                               [pixel]
#  19 B_IMAGE                Profile RMS along minor axis                               [pixel]
#  20 THETA_IMAGE            Position angle (CCW/x)                                     [deg]
#  21 FLAGS                  Extraction flags                                          
         1    639.0922     22.1015 307.6783903  +6.6875760     3824.165     5847.491     6003.969     80.87726     161.8824      322.612      1.594     4.27     897.2923     56.87126     565.5723        23     1.522     0.821  55.31   0
         2    439.2708     18.3909 307.7615161  +6.6823889     6235.297      9590.34     9728.806     80.36375     160.9205     322.4836      1.643     4.23     903.2217     56.87126      891.001        31     1.594     0.935  54.02   0
         3     40.2452     17.9336 307.9272697  +6.6691184     8431.026     13318.43     13731.82     80.87725      161.306     322.6761      1.675     4.27       914.76     56.87126     1198.294        35     1.624     0.980  52.96   0
         4    430.9946     14.6518 307.7650796  +6.6836541     804.2886     1284.209     1307.746     80.23485     161.1776      322.291      1.725     5.68      903.691     56.87126     119.8335        11     1.300     0.699  55.18   0
         5    335.8183     13.3160 307.8046578  +6.6810000     12597.31     19815.35     21162.14     80.49243     161.0491     322.5799      1.687     4.09     909.7397     56.87126     1690.691        37     1.627     0.966  55.40   0
         6    109.5483     13.6756 307.8986287  +6.6732180     2563.639     3754.067     3539.859     80.87726     161.4343      322.644      1.660     4.25     914.9785     56.87126     397.8997        21     1.491     0.840  54.04   0
         7    804.2119     12.2879 307.6101308  +6.6971699     840.5474     1243.863     975.4282     80.49243     161.0491     322.5157      1.408     4.67     893.3306     56.87126     148.3782         9     1.494     0.414  65.60   0
         8    402.1320     11.3449 307.7771795  +6.6840477     2232.588     3537.987     3839.811     80.87726     161.2418     322.5799      1.725     4.08     905.5206     56.87126     336.6414        20     1.557     0.776  54.61   0
         9    100.8226     12.3961 307.9022961  +6.6734515     1602.631     2235.394     2350.209     80.49243     161.0491     322.4515      1.487     4.40     915.2228     56.87126      255.216        13     1.254     0.673  56.15   0
        10    662.8217      6.8659 307.6690449  +6.6946638     11083.74     16825.22     17818.59     80.49242     161.3701     313.7975      1.589     4.11     896.1415     56.87126     1774.835        36     1.587     0.936  51.14  16
        11     80.8505      8.0250 307.9107390  +6.6745816     647.7935     1052.789     746.9096     80.49243     161.3701     321.2295      1.718     4.53     915.0048     56.87126     92.59241         7     1.346     0.433  68.60  16
        12    540.6472      6.7566 307.7197979  +6.6906032     1307.513     1951.533     1898.795     80.87726      161.306     312.8726      1.533     4.38     899.8451     56.87126     217.9176        14     1.371     0.683  58.52  16
        13    827.3737      6.1657 307.6007147  +6.7004744     1660.215     2222.807     2227.678     80.36375     161.1776     307.5342      1.493     4.76     893.4387     56.87126     320.6844        14     1.463     0.628  51.86  16
        14    262.7831      3.7088 307.8353177  +6.6825047     6449.388     10510.29     11662.92     80.62091     156.8163     279.0195      1.741     4.22     912.7397     56.87126     853.2776        34     1.590     1.066  55.75  26
        15    897.8726      4.4166 307.5714882  +6.7035593     1503.224     2220.616      1894.98     80.36375      161.306     288.4309      1.563     4.05     893.6718     56.87126     232.2859        13     1.233     0.682  43.32  16
        16    654.5484      2.4982 307.6726281  +6.6961894     9542.832      12719.3     13272.62     80.74918     144.6633     261.7561      1.483     3.94     896.2173     56.87126     1527.523        27     1.388     0.891  49.23  24
        17    439.9811      4.7382 307.7616803  +6.6880499     492.0489      807.553     801.3423     80.49243      161.306     292.1744      1.783     3.91     903.3022     56.87126       100.15         5     0.846     0.517  57.51  16
        18    424.3926      2.5465 307.7682291  +6.6884300     8225.006     11326.98     11198.24     80.36375     145.0206     262.0723      1.535     4.22     904.2484     56.87126     1106.176        28     1.398     0.961  48.07  24
        19    685.3853      1.8969 307.6598389  +6.6974732     7067.652     11620.42     12428.94     76.67293      136.491     251.8415      1.761     8.03     895.6179     56.87126     1201.862        27     1.882     0.957  -8.62  24
        20    740.3062      1.7507 307.6370301  +6.6993770     1632.276     1903.772     1972.762     75.44826     134.6589      249.861      1.126     2.43     895.2281     56.87126     319.8406         9     0.796     0.685  47.96  24
        21     73.9503   1000.7357 307.8801174  +6.2644681     738.1494     1069.585     1130.884     80.74918      161.306     322.6761      1.462     4.35     932.8885     56.87126     143.4985         7     1.299     0.415  44.63   0
        22    373.2765   1023.3640 307.7551273  +6.2652127     1285.133     1668.197     1639.331     74.06377     133.1128     248.0735      1.308     2.98     934.3642     56.87126     252.5754        10     1.029     0.653  21.82  24
        23    221.8044   1023.0508 307.8180031  +6.2602408     455.4529     486.0083     155.2229     76.67293     137.0963     252.6211      1.220     3.86     935.2339     56.87126     85.71625         5     0.827     0.517  39.92  24
        24    492.4985    998.9537 307.7064651  +6.2793016     2244.876     3620.939     3630.238     80.87725     161.1776     322.8365      1.735     4.15     932.4045     56.87126     293.2175        20     1.498     0.815  51.70   0
        25    926.8602    991.0382 307.5264436  +6.2971400     41154.77     68301.86     73016.31     80.87726     161.4343     322.6761      1.773     4.22     923.0131     56.87126     5716.502        71     1.837     1.155  49.12   0
        26      1.1957    991.2963 307.9106302  +6.2659092     1149.941     1656.004     1546.925       68.397     125.8385      240.188      1.164     3.30       932.71     56.87126     333.4375         8     1.303     0.396  89.32  24
        27    234.1263    989.2872 307.8140255  +6.2745970     1658.916     2820.971     2264.966     81.00513     161.6905      322.644      1.728     4.78     934.4703     56.87126     254.1057        19     1.595     0.787  57.83   0
        28    122.0509    987.8960 307.8605872  +6.2713926      725.797     1402.329     1255.933     80.74918      161.306     322.8365      1.916     5.10     933.0168     56.87126     111.7035         9     1.333     0.552  64.12   0
        29    772.9996    982.6187 307.5905882  +6.2954626     6407.517     10311.26     11167.32     80.49242     160.9205     322.3231      1.741     4.13     926.5995     56.87126     847.1125        39     1.782     1.154  57.46   0
        30    633.3936    987.7191 307.6483628  +6.2886734     968.0031     1202.562     769.5195     80.49243     160.9205     322.4515      1.350     4.29     930.0592     56.87126     139.9276         8     0.959     0.636  87.67   0
        31    824.7986    984.8165 307.5690145  +6.2962911     2312.927     3812.038     4034.759     80.49242     160.9205     322.4194      1.695     4.48     925.1348     56.87126     355.4354        21     1.526     0.922  49.35   0
        32    559.8863    982.1523 307.6790594  +6.2885035     999.8062     1304.969     1128.788     80.87725      161.306      322.644      1.566     5.23     931.5267     56.87126     163.7791        11     1.446     0.533  59.00   0
        33    242.8628    981.7720 307.8106524  +6.2779944     1446.408     2097.091     1748.232     80.49242     161.3701     322.5799      1.623     5.38     934.3234     56.87126     234.9058        14     1.283     0.793  59.19   0
        34    207.1685    981.2181 307.8254855  +6.2770202     834.8154     1566.864     2016.476     80.49242     161.1776     322.5157      2.183     5.65     933.9421     56.87126     116.7633         9     1.339     0.672  52.99   0
        35    961.2607    977.8027 307.5126070  +6.3037564     6239.362      10588.3     11255.67     80.23485     161.1134     322.3552      1.787     4.40     921.9066     56.87126     784.7349        36     1.727     1.047  49.65   0
        36     67.3019    979.6417 307.8835877  +6.2729533      2764.98     4176.458     3959.532     80.87726     161.2418     322.8685      1.636     4.53     932.8529     56.87126     390.8381        21     1.504     0.848  53.72   0
        37    217.4397    973.4574 307.8214838  +6.2805708     622.1414      757.463     824.1654     80.87726     161.4343     322.6761      1.436     4.21     933.9363     56.87126     133.7947         7     1.127     0.448  60.78   0
        38    643.6760    972.1500 307.6446169  +6.2954472     784.5526     1090.581      549.178     80.74918     161.4343      322.644      1.430     4.72     929.3796     56.87126      122.188         8     1.063     0.594  36.66   0
        39    935.1765    969.3226 307.5237174  +6.3063851     1964.539     3279.504     3567.004     80.49243     161.2418      322.612      1.755     4.26     922.3837     56.87126     291.9155        24     1.514     1.016  58.86   0
        40    794.6806    966.0043 307.5821451  +6.3030497     1236.043      1929.48     2220.919     80.49242     160.9205     322.3873      1.760     4.09     925.4291     56.87126     199.5677        11     1.228     0.596  61.54   0
        41    655.7266    965.3373 307.6398434  +6.2986647     4476.911     6952.267      6927.53     81.00513     161.3701      322.644      1.621     4.28     928.9764     56.87126     668.9744        26     1.520     0.914  49.11   0
        42    267.9269    965.4971 307.8007974  +6.2855588     4555.977     6873.853     7123.053     80.49242     161.4984      322.612      1.609     4.01     934.0856     56.87126     618.7339        25     1.447     0.891  53.55   0
        43   1005.1425    964.8558 307.4948251  +6.3105705     721.0507     1208.088     1405.571     81.00513     161.4343     322.7082      1.494     3.66      920.145     56.87126     129.7416         7     0.986     0.569 -88.82   0
        44    478.3005    964.1520 307.7135264  +6.2931942      1197.84     1606.649     1772.745     80.87726     161.2418     322.8365      1.429     4.73     932.2789     56.87126     174.1796        11     1.342     0.622  56.77   0
        45     36.6964    962.9720 307.8968519  +6.2788029     2250.955     3387.401     3431.225     81.00512     161.1134     322.5799      1.597     4.25     932.7902     56.87126     326.5057        20     1.481     0.839  47.17   0
        46    887.4648    961.8336 307.5437720  +6.3078802     857.2055     1320.554     1423.873     80.74918     161.3701      322.612      1.478     4.87     923.5143     56.87126      127.084         9     1.290     0.520  64.56   0
        47    959.1953    958.7924 307.5140996  +6.3115370      888.683     1250.674     1018.315     80.23485     161.1134     322.4836      1.603     6.17     921.3783     56.87126     116.3004        12     1.264     0.846  72.50   0
        48    303.8432    959.0979 307.7861056  +6.2894108     986.8478     1465.517     1792.673     80.87725      161.306     322.8685      1.566     5.12      934.078     56.87126     143.4539        11     1.331     0.593  56.63   0
        49    580.6510    958.0704 307.6712485  +6.2991447     1535.813     2349.745     2113.594     80.74918      161.306     322.6761      1.585     4.20     930.4589     56.87126     233.0297        15     1.351     0.745  57.41   0
        50   1011.8345    957.2834 307.4923002  +6.3139211     773.1339     1474.441     1954.428     80.87726     161.3701      322.612      2.320     6.64     919.5155     56.87126     103.6695        12     1.263     0.979 -53.05   0
        51     69.6252    954.8416 307.8834595  +6.2832715       727.27     1263.888     1317.056     80.49243      161.306     322.4194      1.249     3.72      932.836     56.87126     133.2345         6     1.265     0.315 -72.55   0
        52    619.6283    953.9871 307.6552072  +6.3021396     1305.461     1994.968     1848.056     80.36374     161.1776     322.5478      1.534     4.98     929.3799     56.87126     228.6108        13     1.492     0.651  50.55   0
        53    299.5894    951.9520 307.7881115  +6.2922182     1311.395     2151.194      2450.86     80.36374     161.2418     322.3231      1.872     5.35     934.0052     56.87126     180.6873        17     1.550     0.801  59.77   0
        54    766.5760    948.3177 307.5944028  +6.3094106      869.712     1269.916     989.6452     80.74918     161.1134     322.5799      1.729     5.36     926.0027     56.87126      134.183        10     1.271     0.638  69.37   0
        55    903.9207    944.7031 307.5375142  +6.3155046     6768.417     10623.15     11005.77     80.62091     161.6265     322.7403      1.654     4.05     922.7882     56.87126     891.3704        34     1.636     0.982  49.22   0
        56    608.7277    942.0527 307.6601319  +6.3067014     468.1282     380.3361     78.37814     80.74918     161.3701     322.6761      1.403     3.94     929.1319     56.87126     111.3806         6     1.423     0.312  76.77   0
        57    439.8417    941.7396 307.7302418  +6.3011552     2398.228     3644.929     3385.613     80.87726     161.3701     322.7082      1.539     4.25     932.5228     56.87126     400.7969        19     1.502     0.768  49.17   0
        58    341.5602    940.1549 307.7710880  +6.2985024     9827.261     15016.28     15667.15     80.62091     161.3701     322.5478      1.637     4.02     933.8096     56.87126     1534.786        39     1.610     0.988  54.75   0
        59    261.6017    939.0737 307.8043117  +6.2962560     7259.261     11257.31      11479.1     80.36374     160.7919     322.5157      1.638     4.16     933.5775     56.87126      1090.96        30     1.585     0.882  51.13   0
        60    589.5363    933.4725 307.6683855  +6.3095998      1240.13     1811.261     1902.608     80.87726     161.3701     322.6761      1.769     5.89     929.4664     56.87126     183.8947        12     1.603     0.609  37.96   0
        61    919.8489    929.6459 307.5314060  +6.3222552      1067.36     1750.451     2442.094     80.87726     161.2418     322.6761      1.720     5.17     922.0893     56.87126     140.9847        14     1.378     0.799  59.06   0
        62    876.3829    929.5455 307.5494517  +6.3208413     733.2397     1173.438      902.206     80.36375      161.306     322.3873      1.444     3.82     923.3148     56.87126     126.7913         9     1.115     0.761 -82.60   0
        63    986.6810    924.6642 307.5038308  +6.3265488     772.1917     1047.666     1411.723     81.13279     161.4343      322.612      1.450     5.02     919.1202     56.87126     106.6583         9     1.205     0.593  43.60   0
        64    849.1026    923.3496 307.5609828  +6.3224860     569.1902     906.1895     772.4577     80.74918      161.306     322.8044      1.546     4.20     923.6855     56.87126     98.12262         7     1.164     0.433  57.40   0
        65    756.2725    922.7039 307.5995372  +6.3196415     1869.657     2832.419     3135.374     80.62091     161.4984      322.612      1.715     4.51      925.764     56.87126     249.9237        17     1.381     0.843  65.38   0
        66    987.5139    918.7938 307.5036812  +6.3290007     1008.602      1607.15     1672.653     80.36375     161.0491     322.3873      1.646     5.57     918.9624     56.87126     140.0059        12     1.293     0.691  54.60   0
        67    632.1185    919.5342 307.6511779  +6.3167849     732.6445     1050.603     1077.768     81.13279     161.6265     322.6761      1.664     4.28     928.2957     56.87126       96.948         7     0.905     0.576  82.40   0
        68    620.2337    919.5583 307.6561103  +6.3163759     865.9645     1479.012     1794.626     80.62091     161.3701     322.4836      1.671     4.25     928.3882     56.87126     121.7281         8     0.991     0.564  70.46   0
        69    541.1416    918.4303 307.6889777  +6.3141852     1136.309     1669.405     1744.449     80.62091     161.3701     322.5799      1.641     4.98     930.6422     56.87126     203.9205        15     1.559     0.740  52.12   0
        70      7.0697    919.8861 307.9106012  +6.2955922     911.7847     1407.775     1470.056     81.00513     161.6265     315.5079      1.624     4.17     932.3636     56.87126     137.6298         7     0.993     0.560  56.55  16
        71    674.5372    916.1361 307.6336845  +6.3196117     2558.757     3837.436     3632.364     80.87726     161.3701     322.6761      1.597     4.71     927.8088     56.87126     457.2059        18     1.402     0.755  51.92   0
        72    966.0677    914.1931 307.5127372  +6.3301829     554.3391     920.1856      1399.97     80.36374     161.1134     322.4515      1.696     4.33     919.7651     56.87126     99.58008         5     1.353     0.395  -0.45   0
        73     71.3513    912.1041 307.8841838  +6.3009758     2773.789     4613.883     4850.481     80.74918     161.2418     322.8044      1.757     4.40     932.4077     56.87126     391.1268        26     1.616     0.933  61.82   0
        74    952.7847    911.7122 307.5183339  +6.3307628     673.0189     1051.373     867.4726     80.62091     161.1134     322.5157      1.629     4.65     920.2368     56.87126     129.1324         9     1.361     0.629  62.33   0
        75    835.4206    912.4434 307.5670270  +6.3265310     929.3742      1458.26     1283.309     80.36375     161.2418     322.4836      1.726     5.61      923.639     56.87126     128.9047        11     1.203     0.738  61.07   0
        76    214.7120    911.1801 307.8247124  +6.3061931     2218.922     3323.893      3670.83     80.62091     161.1134     322.5478      1.553     4.69     932.9194     56.87126     312.0709        17     1.499     0.721  50.85   0
        77     88.6627    911.4472 307.8770209  +6.3018313     1965.478       3120.3     3068.032     80.74918     161.2418     322.6761      1.647     4.85     932.5021     56.87126     272.2817        20     1.581     0.837  51.80   0
        78    971.5895    909.2523 307.5106102  +6.3324078     538.4767     482.4671     1174.214     80.23486     161.2418     322.3873      1.194     4.47      919.402     56.87126     91.05652         5     1.168     0.487 -86.22   0
        79    353.9755    907.6829 307.7670266  +6.3123282     853.6372     1363.233     2029.841     80.74918     161.1134     322.5799      2.026     5.89     933.3098     56.87126     137.7253        12     1.485     0.657  68.59   1
        80    248.7751    908.2786 307.8106717  +6.3085391     903.6507     1365.836     1685.069     80.49243     161.2418      322.612      1.651     5.46     933.2094     56.87126      115.524        10     1.305     0.644  62.56   0
        81    807.2236    906.5421 307.5789289  +6.3280229     696.9055     861.8449     986.1579     80.49243     161.3701     322.4836      1.576     4.92     924.0039     56.87126     100.8632         8     1.097     0.625  81.61   0
        82    669.2256    905.2857 307.6362529  +6.3239138     7208.325     10765.16     10945.26     81.00513     161.1134     322.5157      1.625     4.23     927.5737     56.87126     1077.001        29     1.537     0.895  51.48   0
        83     29.1846    903.4519 307.9019768  +6.3031246     1035.177     1767.028     1793.367     80.23486     161.4343     322.3552      1.792     5.56      931.809     56.87126      172.228        12     1.496     0.583  36.24   0
        84    906.9416    901.6401 307.5377001  +6.3333872     2776.527     4225.599     4105.627     80.87725     161.3701     322.7082      1.647     4.43     921.5355     56.87126     361.3752        21     1.398     0.916  49.67   0
        85     42.7071    902.3159 307.8964026  +6.3040503     1195.505     1584.535     2193.194     80.62091     161.8185     322.7723      1.663     2.94     931.9042     56.87126     222.9893        10     0.991     0.699  33.17   0
        86    352.1823    898.4207 307.7680823  +6.3160922     16712.29     25335.85     26684.64     80.62091     161.2418     322.5478      1.619     4.07      933.147     56.87126     2586.751        42     1.597     0.988  50.31   0
        87     86.8832    899.4279 307.8781646  +6.3067339     1360.709     1855.839     1560.416     80.74918     161.1776     322.5799      1.523     5.72     932.2648     56.87126     187.6543        13     1.509     0.611  51.25   0
        88    223.2429    897.8725 307.8216195  +6.3119753     1276.585     1729.109     1934.948     80.74918     161.4343     322.6761      1.468     5.05     932.9119     56.87126     178.5222        14     1.417     0.724  41.98   0
        89    403.2127    897.5742 307.7469293  +6.3181592     709.6744     1192.551     1236.185     80.49243     161.1776     322.5799      2.040     4.51     932.4789     56.87126     112.5143         7     1.163     0.749  68.30   0
        90    681.8098    890.1033 307.6315381  +6.3306050      588.507     1246.908     1748.677     80.62091     160.9848     322.4515      2.305     6.15     926.8883     56.87126     103.5672        10     1.533     0.694  33.55   0
        91    430.5299    889.6117 307.7358580  +6.3223659      891.233     1165.454     822.5599     80.36375     161.1134     322.4515      1.427     4.61     932.0607     56.87126     159.1582         9     1.138     0.696 -77.00   0
        92    115.6174    889.0905 307.8665866  +6.3119719      1698.45     2545.544     2825.936     80.62091     161.1134     322.5478      1.592     4.01     932.4095     56.87126     251.9571        15     1.279     0.783  74.42   0
        93    683.5561    885.2612 307.6309755  +6.3326630     959.5457      1719.04     2008.467     80.87726     161.3701     322.7723      1.834     4.95     926.7028     56.87126     164.8353         9     1.268     0.546  57.04   0
        94    511.0125    885.7707 307.7025799  +6.3266581     553.3926     1037.841     1376.722     80.36375     161.1134     322.5478      1.608     4.21     930.4614     56.87126     91.20233         7     1.176     0.430  57.14   0
        95    897.4011    883.3428 307.5422722  +6.3406231     1868.339     3001.261     3274.368     80.23486     161.0491     322.3231      1.693     4.54     921.2469     56.87126     241.0061        20     1.510     0.916  56.73   0
        96     99.0453    882.6505 307.8736821  +6.3140717     2607.444     4207.435     4573.107     81.00512     161.2418     322.6761      1.725     4.43      932.145     56.87126     341.2339        24     1.477     0.982  51.23   0
        97    868.1887    882.8879 307.5544136  +6.3398327     1926.204     2862.128     2814.187     80.49242     161.1134     322.5157      1.542     4.28     922.2439     56.87126     288.3738        17     1.457     0.723  52.20   0
        98    831.3381    882.0849 307.5697374  +6.3389297     3156.137     4698.895     5206.159     81.00513     161.4984      322.644      1.632     4.58     923.0144     56.87126     481.5912        20     1.516     0.780  48.98   0
        99    567.2712    873.6310 307.6796348  +6.3335611     340828.9     516089.9     539488.6     80.74918     161.3701     322.5799      1.650     4.85     928.4705     56.87126     52076.92       160     1.764     1.152  52.46   4
       100    346.8704    880.3590 307.7708944  +6.3233711     739.0272     1041.844     1263.667     80.74918     161.3701     322.7082      1.531     6.02     932.8821     56.87126     130.1736        10     1.486     0.686  42.96   0
       101    462.4550    880.3904 307.7229161  +6.3272472     596.6316     843.4067     1131.487     80.23486      161.306     322.3552      1.139     3.38     931.5522     56.87126     140.2396         5     0.764     0.433  66.95   0
       102    468.6067    878.1674 307.7204373  +6.3283719     482.9919     826.0103     1067.301     80.23485     161.1776     322.4515      1.232     2.54     931.4314     56.87126     98.54285         5     0.714     0.453 -70.62   0
       103    411.5603    876.1827 307.7441831  +6.3272726     7930.012     11919.31     12439.44     80.49243     161.1776     322.4194      1.605     3.87     932.1774     56.87126     1298.412        31     1.560     0.910  51.56   0
       104    354.7464    874.5814 307.7678195  +6.3260218     12719.32     19246.91     19993.93     80.36375     161.3701     322.4194      1.633     4.11     932.6923     56.87126     1953.029        38     1.575     0.964  54.30   0
       105    655.1832    876.4875 307.6430471  +6.3353336     1222.689     1649.551     1803.578     80.62091     161.1134     322.5157      1.509     4.49      926.915     56.87126     183.9709        12     1.224     0.693  50.53   0
       106    905.3938    869.8553 307.5394053  +6.3464599     4928.696     8110.188     9123.234     80.36375     161.2418     322.3231      1.781     4.30     920.5428     56.87126     728.0293        35     1.761     1.202  30.39   0
       107    673.1738    870.8829 307.6357670  +6.3382516     3562.952      5313.85     5520.138     80.74918     161.1134     322.5799      1.564     4.60     926.5286     56.87126     578.7767        21     1.544     0.782  53.51   0
       108    744.9496    867.1232 307.6060986  +6.3422119     912.2706     1406.848     704.6545     80.74918     161.4343      322.644      1.503     4.18     924.9418     56.87126     140.2144        10     1.122     0.719  33.66   0
       109    648.0067    864.9503 307.6464128  +6.3398566     3495.366     5416.145     5108.857     80.36375     161.1776     322.2589      1.566     4.30     926.7165     56.87126     505.3264        23     1.484     0.892  52.50   0
       110    836.6818    864.2757 307.5681151  +6.3464625     1660.602     2264.254     2133.904     81.13279     161.6265     322.7403      1.454     3.39     922.4583     56.87126     266.1846        16     1.225     0.821  52.97   0
       111    638.6859    864.1097 307.6503100  +6.3398908     1035.758     1420.521     1936.196     80.62091     161.8185     322.7723      1.345     5.54     926.8113     56.87126     128.7153        12     1.208     0.775  52.38   2
       112    640.9363    859.6550 307.6495252  +6.3418057     2134.587     3109.388     3620.346     81.00512      161.306      322.644      1.575     4.62      926.634     56.87126     299.0422        15     1.404     0.736  54.57   3
       113    963.4329    863.2231 307.5155342  +6.3511412     716.6983     1282.247     1277.502     80.36375     161.1776     322.4515      2.069     5.66     918.5255     56.87126     114.1286        10     1.496     0.603  65.54   0
       114    949.9453    863.1219 307.5211365  +6.3507316     474.6947      631.346      390.119     81.00513     161.3701     322.6761      1.503     4.77     918.8763     56.87126     94.08392         5     1.015     0.635  36.55   0
       115    924.5651    857.7672 307.5318512  +6.3520932     3091.072     4948.732     5133.009     80.49243     161.1134     322.3873      1.712     4.74      919.465     56.87126     458.2375        25     1.674     0.856  48.12   0
       116    334.5737    858.3502 307.7767386  +6.3320446     1086.503     1704.473     1833.365     80.49243     161.4343     322.5478      1.739     5.12     932.7642     56.87126     175.3494        12     1.366     0.662  54.66   0
       117    382.5854    853.4693 307.7569736  +6.3356761     2675.619     4095.729     4405.257     80.36375     161.2418     322.5478      1.656     4.68     932.0645     56.87126     433.1672        20     1.545     0.753  58.32   0
       118    518.9573    843.4152 307.7007038  +6.3444141     3147.381     4736.583      4716.86     80.36374     161.1134     322.4194      1.562     4.07     928.5751     56.87126     446.4756        23     1.518     0.845  56.70   0
       119    863.5065    842.5200 307.5577077  +6.3563444     1075.651     1516.092       1636.7     80.62091     161.5624     322.7082      1.652     6.27     921.1454     56.87126     174.1865        13     1.638     0.719  47.68   0
       120    583.8141    840.6967 307.6738727  +6.3477157     767.7851     1174.627     1121.262     80.74918     161.1134     322.4194      1.648     5.59     926.9766     56.87126     99.35248        11     1.387     0.635  62.13   0
       121    565.7559    839.4350 307.6814111  +6.3476301     6281.729     9375.115     10369.48     80.62091      161.306     322.5157      1.627     4.32     927.2626     56.87126     932.2862        27     1.588     0.818  48.55   0
       122    277.5444    839.8069 307.8010344  +6.3377804     635.2084     821.7508      406.752     80.36375     161.1776     322.3552      1.285     4.64     933.1178     56.87126     107.8173         6     1.350     0.453  63.80   0
       123    572.8170    838.8825 307.6784986  +6.3480954     1277.942     2179.139     2728.612     80.49242     161.0491     322.5799      1.862     4.79     927.1238     56.87126      213.712        14     1.439     0.813  59.87   0
       124    901.5568    837.7775 307.5420708  +6.3595770     1359.618     1991.787     1880.439     80.36375     161.2418     322.4515      1.568     4.45     919.7277     56.87126      203.272        14     1.493     0.680  54.52   0
       125    483.5498    838.4027 307.7155698  +6.3452935     1958.869     2641.232     2526.698     80.23486     160.9848     322.2268      1.495     4.41     929.2611     56.87126     291.9055        16     1.341     0.737  46.13   0
       126    125.3726    837.6914 307.8642696  +6.3335235      1426.62     1763.642     1876.405     81.00513     161.1134     322.5157      1.385     4.55     931.8214     56.87126     209.2646        11     1.210     0.619  59.75   0
       127    233.8354    837.4270 307.8192576  +6.3372902     497.8044     1328.706     2427.804     80.36375     161.1134     322.4194      2.285     4.51     932.6189     56.87126     105.3918         5     1.527     0.379 -12.42   0
       128    536.3865    833.3129 307.6938080  +6.3491711     20013.44     30451.49     31538.51     80.49243     161.1776     322.5478      1.633     4.00     927.6713     56.87126     3284.782        44     1.648     0.960  50.64   0
       129    377.6283    834.7572 307.7596602  +6.3432356     688.9876     951.7916     828.7559     80.49243     161.4343     322.5157      1.550     4.25     931.8083     56.87126     117.6741         7     0.985     0.522  29.72   0
       130    950.1018    831.6389 307.5221238  +6.3637368     3764.145     5817.847     6128.544     80.87726     161.2418     322.8685      1.641     4.22     917.9028     56.87126     523.6134        26     1.549     0.879  58.32   0
       131    329.1255    822.1068 307.7802190  +6.3468262     3319.187     5154.831     4953.849     80.87726     161.4984      322.612      1.655     4.66     932.4914     56.87126     451.7085        26     1.723     0.871  56.59   0
       132     46.4730    823.8831 307.8974846  +6.3365618     1434.956     2456.967     2186.998     81.13279     161.6905     322.6761      1.745     5.56     930.6031     56.87126     221.2208        17     1.641     0.922  55.82   0
       133    591.2703    822.7709 307.6713789  +6.3553679     625.0826     1380.491     1152.073     80.62091     161.3701     322.5799      2.130     6.71     926.2083     56.87126     100.2324         9     1.666     0.759  82.77   0
       134     29.0593    820.1655 307.9048380  +6.3375087     2202.651     3692.193      3789.73     80.74918     161.3701      322.612      1.746     4.19     930.4393     56.87126     323.8123        21     1.469     0.864  57.79   0
       135    794.5565    817.8687 307.5871553  +6.3642130     55816.05     84696.73     87953.44     80.87726      161.306     322.7403      1.627     4.26     922.3148     56.87126     8462.494        64     1.670     1.013  51.72   0
       136    733.3561    819.7446 307.6124981  +6.3613864      592.985     793.3694     808.9296     80.87726     161.3701      322.644      1.382     4.01     923.4443     56.87126     101.7217         6     0.909     0.507  45.35   0
       137    251.8337    815.7032 307.8125179  +6.3468666     5182.971     8704.592     10846.74     81.00513     161.2418     322.7723      1.907     4.20      932.512     56.87126     770.1861        35     1.631     1.043  54.17   0
       138    437.9336    816.5991 307.7352377  +6.3527623     793.6001     1370.669     1440.971     80.10575     160.9848     322.3873      1.581     4.47     929.6234     56.87126     126.9052         8     1.312     0.434  48.92   0
       139    722.9237    812.5762 307.6170690  +6.3639964      21940.1     32369.18     34869.37     80.49242      161.306      322.612      1.604     4.27     923.3517     56.87126     3253.948        46     1.701     0.930  61.07   3
       140    716.5547    808.9941 307.6198329  +6.3652618     88365.72     136106.7       143333     80.23485     161.1134      322.291      1.625     4.19     923.3028     56.87126     13731.44        76     1.718     1.037  51.21   3
       141    919.8519    813.0674 307.5353022  +6.3703927     8660.136     13561.62     14333.83     80.74918      161.306     322.5799      1.627     4.25     918.4911     56.87126     1247.151        34     1.604     0.947  53.28   0
       142    361.4084    809.8378 307.7672308  +6.3529790     20765.26     32098.88     33498.01     80.10575     161.1134     322.3873      1.632     4.13     931.8815     56.87126     3184.024        45     1.613     1.013  54.15   0
       143    220.1454    811.5284 307.8258121  +6.3475223     523.0133     867.5071     1229.753     80.74918     161.2418      322.612      1.689     3.42     932.1866     56.87126     84.35126         5     1.184     0.285  54.60   0
       144    410.8447    810.0198 307.7467035  +6.3545676     1435.197     1969.814     1553.353     80.49243     161.2418     322.4836      1.429     4.27     930.3662     56.87126     240.0917        13     1.318     0.628  60.95   0
       145    650.3801    809.5346 307.6472854  +6.3628181     818.6612      1385.65     1634.007     80.49243     161.3701     322.5157      1.651     5.09     924.6032     56.87126     142.6003         9     1.196     0.614  58.53   0
       146    423.2556    807.6899 307.7416299  +6.3559472     22586.91     34104.67     35313.81     80.74918     161.1776     322.7723      1.625     4.20     929.8627     56.87126       3444.5        42     1.601     0.954  52.01   0
       147    251.1971    794.1383 307.8135080  +6.3557493     731497.9      1680634      1854959     80.23485     161.1776     322.3552      2.275     6.60     932.0807     56.87126     63813.72       550     2.461     1.931  55.62   4
       148    916.7742    804.5651 307.5368642  +6.3738005     6718.429     10301.66      10123.6     80.23486     161.1776     322.4194      1.641     4.07     918.3714     56.87126     1009.185        29     1.558     0.902  51.70   0
       149    889.2365    805.4167 307.5482676  +6.3725267     780.5564      1125.22     1151.193     80.36375     161.2418     322.4194      1.490     6.06     919.1677     56.87126     114.8895         9     1.453     0.712  44.94   0
       150    657.4012    803.5759 307.6445705  +6.3655142     6733.532     9934.684     10395.65     80.49243     161.0491     322.4194      1.626     4.28     924.2299     56.87126     1057.467        29     1.529     0.882  49.63   0
       151    446.0580    801.5842 307.7323696  +6.3592353     1725.674     2746.373     3204.414     80.23485      161.306     322.3552      1.736     5.20     928.6035     56.87126     248.3889        18     1.498     0.794  50.16   0
       152    960.4741    806.6941 307.5186517  +6.3743841     2140.947     3393.853     3532.297     80.74918     161.4984      322.644      1.702     4.47     916.6599     56.87126      299.782        20     1.508     0.802  58.38   0
       153    171.2500    800.9199 307.8464655  +6.3502539     833.0638      959.453     263.3596     80.87726     161.4343      322.644      1.476     4.31     931.8773     56.87126     146.6616        11     1.290     0.754  77.99   0
       154    885.2963    795.4125 307.5502379  +6.3765257     823.0348     1297.358      1353.27     80.74918     161.1134     322.4194      1.677     4.60     919.0097     56.87126     130.2259         8     1.150     0.523  57.42   0
       155    610.4693    795.5575 307.6643219  +6.3672494     1057.855     1634.326     1848.064     80.74918     161.3701     322.7082      1.762     5.01     924.8829     56.87126     181.6552        12     1.378     0.591  52.86   0
       156    692.4066    793.7294 307.6303689  +6.3707547      2484.81     3738.062     3767.021     80.36375     160.9848     322.5157      1.626     4.43     923.2386     56.87126     378.1416        18     1.397     0.794  58.37   0
       157    161.7105    794.4285 307.8506440  +6.3526124      1018.63     1413.832      791.931     81.00513     161.1134     322.5478      1.434     5.17     931.6804     56.87126     148.0551        10     1.271     0.594  53.26   0
       158    136.5704    794.4852 307.8610775  +6.3517410     1022.115     1575.298      1412.15     80.87726     161.1776     322.5157      1.688     4.16        931.3     56.87126     192.2192        13     1.258     0.761  49.41   0
       159    426.1902    790.3638 307.7409939  +6.3632000     54567.25     83514.18      86736.7     80.36375     161.1134     322.4194      1.639     4.04     929.0073     56.87126     8684.354        65     1.649     1.060  49.82   0
       160    969.1302    792.4387 307.5155346  +6.3805601     710.9539     823.1558     708.7885     80.74918     161.3701     322.7082      1.213     4.39     915.9373     56.87126     108.2487         9     1.093     0.574  63.18   0
       161    543.9938    789.3802 307.6921246  +6.3675670     7216.361     10604.02     10872.75     80.49242     161.1134     322.4515      1.581     3.96     925.7861     56.87126     1038.413        29     1.506     0.877  50.81   0
       162    460.8417    788.0424 307.7266875  +6.3653240     4522.015     6855.405     7459.008     80.62091     161.3701     322.5157      1.593     4.13     927.5273     56.87126      669.121        26     1.494     0.914  51.26   0
       163    229.4227    785.6844 307.8228312  +6.3585060     714.6307     2566.274     5524.663     80.74918     161.1134     322.5478      7.570    11.53     931.6847     56.87126     139.0768        27     2.869     1.291  80.57   0
       164    789.1162    785.9885 307.5904810  +6.3771945     11444.35     17670.08     18736.14     80.49243     161.1134     322.4836      1.600     4.27      921.428     56.87126     1762.624        34     1.586     0.935  51.00   0
       165     18.6240    782.3255 307.9104460  +6.3527801     1179.567     2114.995     2014.719     80.49243     161.1776     322.5799      1.801     4.94     930.5839     56.87126     192.5309        12     1.392     0.822  51.98   0
       166    457.3321    781.3665 307.7283687  +6.3679626     2261.913     3499.082     4193.006     80.74918     161.4343     322.7082      1.781     4.25     927.4893     56.87126     353.1981        21     1.530     0.835  45.65   1
       167    810.8647    780.3333 307.5816417  +6.3802585     1319.658     1970.396     1563.501     80.87726     161.3701     322.6761      1.626     5.02     920.7646     56.87126      205.594        14     1.504     0.632  62.07   0
       168    154.9299    778.3234 307.8540011  +6.3590334     2974.927     4809.336     5050.992     81.13279     161.5624      322.644      1.770     4.38     931.2331     56.87126     404.8855        25     1.514     1.008  57.39   0
       169    146.8953    777.9047 307.8573504  +6.3589353      11662.6     17764.91     19179.63     80.87726     162.0102     322.5478      1.607     4.18     931.1479     56.87126     1599.858        37     1.663     0.954  46.00   3
       170    139.1924    775.4428 307.8606308  +6.3596919     2875.327     4456.554     4857.452     80.36375     161.1776     322.3552      1.741     4.30     931.0125     56.87126     412.0587        24     1.671     0.867  53.39   3
       171    139.4129    768.8496 307.8607615  +6.3624217     1923.747     2992.749     3282.071     80.23485      161.306     322.3552      1.631     4.60     930.9117     56.87126     266.7992        21     1.548     0.831  53.76   3
       172    978.9014    779.7825 307.5119012  +6.3861130     515.2436     743.7768     985.7097     80.87725     161.1776     322.4194      1.593     4.82     915.4269     56.87126     104.6451         7     1.218     0.571  48.27   0
       173    934.7087    774.5976 307.5304209  +6.3867750     6341.078     9784.175     10057.48     80.23486     161.0491     322.3873      1.666     4.42     917.0682     56.87126     947.0684        32     1.630     0.896  51.10   0
       174    983.8488    774.6931 307.5100174  +6.3883800     1501.721     2482.203     2479.658     80.74918     161.2418     322.7723      1.664     4.65     915.2095     56.87126     212.2275        16     1.424     0.764  62.37   0
       175    690.1252    772.0739 307.6320418  +6.3796199     1676.675      2492.35     2968.311     81.13279     161.6265     322.7403      1.620     4.26     922.6661     56.87126     299.6298        17     1.450     0.754  55.49   0
       176    576.8550    771.4413 307.6790850  +6.3760782     2171.404     3246.762     3235.276     80.74918     161.3701      322.644      1.634     4.84     924.4223     56.87126     339.5111        20     1.571     0.893  47.77   0
       177    425.0113    771.0895 307.7421310  +6.3711188     1382.316     2222.494     2139.452     80.62091     161.0491     322.4515      1.633     5.32     928.2429     56.87126     176.1876        17     1.483     0.894  44.89   0
       178    928.9644    766.7534 307.5330678  +6.3898217     3027.833     4581.349     5033.783     80.49242     161.3701     322.5478      1.605     4.33     917.0999     56.87126     459.1818        24     1.622     0.831  56.58   1
       179    989.1805    765.8261 307.5081002  +6.3922198     1713.361     2652.162     2439.515     80.36374     161.1134     322.5478      1.619     4.38     915.0041     56.87126     261.7156        16     1.415     0.743  50.95   0
       180    958.4797    766.0818 307.5208371  +6.3910869     3185.836     4725.795     4667.038     81.00513     161.6265     322.7723      1.584     4.21     916.0742     56.87126     518.8412        20     1.456     0.823  48.99   0
       181    681.4576    765.8968 307.6358470  +6.3818797     1531.475     2331.287     3031.586     80.74918      161.306     322.8044      1.789     4.37     922.7141     56.87126     223.3599        17     1.382     0.843  46.97   0
       182    828.9764    764.6503 307.5746478  +6.3873413     1035.282     1419.587     1024.111     80.49242     161.4343     322.5478      1.429     4.08     919.7681     56.87126     164.0805        11     1.121     0.669  70.71   0
       183    904.1176    761.6689 307.5435530  +6.3910893      694.373     1132.003      1388.73     81.13279     161.6265     322.6761      1.656     4.31     917.6653     56.87126      107.698         7     1.191     0.445  69.49   0
       184    253.5441    760.6102 307.8136623  +6.3696721     1838.227     2921.219     3795.843     80.23486      161.306     322.3231      1.822     6.93     931.0864     56.87126     277.5426        21     1.856     0.818  43.51   0
       185    691.2804    758.1910 307.6320275  +6.3853911     651.8648     1303.838     1532.841     80.49243     160.9848     322.4836      1.905     5.73     922.2523     56.87126      99.3457         8     1.426     0.648  43.91   0
       186    947.0139    756.5209 307.5259167  +6.3946510     1127.627     1544.616     1109.903     80.49242     161.1134     322.4194      1.432     3.44     916.2949     56.87126     183.0626        10     1.022     0.629  67.82   0
       187    973.2476    753.8273 307.5151158  +6.3966412     2261.754     3838.574     3803.161     80.49243     161.4343     322.5799      1.697     4.61     915.4626     56.87126     323.5161        22     1.651     0.819  54.72   0
       188    920.7309    755.1357 307.5368744  +6.3943432     1135.578     1740.737     1684.279     80.87726     161.4343     322.6761      1.584     5.95     917.0255     56.87126     154.7332        13     1.286     0.776  54.32   0
       189    169.0815    755.7643 307.8488868  +6.3688254     948.4796      1388.24     1350.676     80.87725     161.3701      322.612      1.600     4.74     930.7839     56.87126     145.6588        12     1.238     0.772  47.28   0
       190    981.1974    753.3471 307.5118314  +6.3971055     488.4668     585.6634     400.8569     80.23485     161.1134     322.1946      1.306     4.46      915.218     56.87126     81.34497         5     1.154     0.491  56.65   0
       191    692.7030    753.0622 307.6316088  +6.3875566     896.7375     1470.054     1588.204     80.62091     161.4343     322.7082      1.751     6.16     922.0605     56.87126     140.1214        12     1.596     0.668  50.56   0
       192    484.1061    748.2358 307.7183669  +6.3825428     645.0759     1002.678     1297.641     81.00513     161.2418     322.7403      1.601     4.79     925.9391     56.87126     139.7759         7     1.266     0.514  61.52   0
       193   1015.0467    747.2504 307.4979824  +6.4007553     1752.344     2590.174      2688.23     80.87726     161.2418     322.6761      1.606     4.50     914.2604     56.87126     236.2213        17     1.413     0.798  46.68  16
       194    816.3055    745.8029 307.5805389  +6.3946990      1237.35     1726.003     1479.846     80.62091     161.0491     322.3552      1.520     3.97     919.4719     56.87126     201.2946        14     1.303     0.703  45.46   0
       195    641.6589    746.7791 307.6530099  +6.3884378     496.0263     950.7798     848.2769     80.49243     161.2418     322.4836      1.981     3.99     922.5525     56.87126      112.543         5     1.009     0.452  80.82   0
       196    902.8105    743.1492 307.5447150  +6.3986927     1590.744     2220.004     1974.108     80.23485     161.2418     322.3552      1.606     4.49     917.2229     56.87126     219.2268        15     1.400     0.700  61.29   0
       197    876.8563    738.1880 307.5556560  +6.3998720     916.6022     1541.799     1973.403     80.23485      161.306     322.3231      1.835     5.51      917.809     56.87126     158.3952        11     1.374     0.623  56.02   0
       198    859.5100    734.5884 307.5629778  +6.4007773     1606.888     2418.078     2054.916     80.62091     161.0491     322.4515      1.681     4.41     918.1655     56.87126      209.785        15     1.297     0.767  46.81   0
       199     58.5287    733.2830 307.8955359  +6.3743770     2420.235     3465.061     3886.777     81.13279     161.6905     322.6761      1.630     4.47     930.6857     56.87126     359.3683        19     1.479     0.791  50.95   0
       200    122.7173    732.1052 307.8689303  +6.3770300     877.5132     1690.292     1665.807     80.62091     161.6905     322.7723      2.100     6.42     930.3115     56.87126     166.4356        14     1.830     0.632  71.73   0
       201    671.2167    721.9333 307.6415721  +6.3996891     6438.744     9778.855     10135.53     80.36374      161.306     322.5478      1.574     4.11     921.6536     56.87126     1076.165        28     1.560     0.878  50.36   0
       202    617.7712    720.9324 307.6637936  +6.3983081     1327.122     2147.755      2490.43     80.62091     161.3701      322.612      1.779     5.76     921.8959     56.87126     228.2772        14     1.513     0.714  49.57   0
       203    540.1879    722.1833 307.6959600  +6.3951853     676.7201     1122.752     1138.267     80.62091     161.0491     322.5478      1.718     4.78     923.5398     56.87126     93.39771         7     0.819     0.797  18.57   0
       204    529.1296    721.3142 307.7005799  +6.3951725     697.2687     1027.728     834.5406     81.00513     161.6265     322.6761      1.575     4.55      923.837     56.87126      113.602         8     1.143     0.515  56.73   0
       205    134.3724    717.6249 307.8645801  +6.3834021     3846.842     6077.787     6075.731     80.36375     161.1776     322.5157      1.703     4.18     929.9589     56.87126     547.3672        27     1.551     0.940  58.12   0
       206   1008.3712    717.1861 307.5017583  +6.4129462     2552.868     4050.514      3760.12     80.49243     161.1776     322.5478      1.652     4.11     913.9012     56.87126     407.5209        22     1.526     0.858  44.83   0
       207    645.2942    717.6658 307.6524770  +6.4005811       2019.7     3208.691     3013.927     80.87726     161.4984     322.6761      1.560     4.89     921.6704     56.87126     315.6584        16     1.437     0.706  56.88   0
       208    256.7049    717.4537 307.8138028  +6.3875980       677.71     952.2475     831.8414     80.74918      161.306     322.9006      1.544     6.11     929.6882     56.87126     109.5834        10     1.359     0.774  70.35   0
       209    321.1033    717.5410 307.7870662  +6.3897315     615.9314     1045.124     1075.252     80.62091     161.3701     322.7723      1.862     5.50     929.2151     56.87126     128.4509         6     1.527     0.559  74.92   0
       210    918.2874    713.7322 307.5392734  +6.4113577      3598.87     5521.812     5361.729     81.00513     161.6265     322.6761      1.572     4.20     916.3129     56.87126     546.0601        24     1.525     0.844  54.74   0
       211    788.1443    713.9993 307.5932949  +6.4068873     20114.25     30841.48     31960.93     80.10575     161.1134     322.3231      1.583     4.17     919.1042     56.87126     3308.521        42     1.611     0.942  49.57   0
       212    470.1569    716.1582 307.7252351  +6.3953188     534.6856     694.4487     535.3155     80.62091     161.3701     322.5157      1.660     3.73     925.2354     56.87126     92.40613         5     0.937     0.427  45.04   0
       213    516.1388    714.0225 307.7062178  +6.3977467     848.4703     1144.581     1284.277     80.49243      161.306     322.5478      1.674     4.47      924.008     56.87126     144.5125         7     1.304     0.435  65.21   0
       214    487.4999    714.3920 307.7180947  +6.3966313      1526.46     2208.419     2461.726     80.62091     160.9848     322.4836      1.598     5.32     924.8213     56.87126      220.953        15     1.397     0.775  46.92   0
       215    288.8748    713.5696 307.8005789  +6.3902857     652.5105     959.3029     755.3443     80.74918     161.4343      322.644      1.749     5.34     929.5897     56.87126     100.1843        10     1.485     0.542  33.63   0
       216    241.8988    711.9933 307.8201331  +6.3893536     701.1265     1416.957     1538.765     80.62091     160.9848     322.4194      2.063     5.61     929.5239     56.87126     117.1432         7     1.119     0.793 -20.76   0
       217    668.7321    706.7873 307.6431114  +6.4058597     7220.812     11315.05     11937.37     80.36375     161.2418     322.5478      1.652     4.22     921.1411     56.87126     1145.728        34     1.605     0.928  53.80   0
       218    651.7392    708.2493 307.6501171  +6.4046856     877.6608     1289.827     1239.647     80.87726      161.306     322.7082      1.382     4.99     921.3278     56.87126     136.5841         9     1.291     0.545  41.32   0
       219    261.6482    707.5919 307.8120827  +6.3918365     6116.453     9331.507     9827.402     80.36375     161.2418      322.291      1.648     4.13     929.3925     56.87126     933.4309        28     1.501     0.947  54.75   0
       220    364.2936    706.8966 307.7694944  +6.3955809     687.9928     1025.885     503.9503     80.87726     161.9464     322.5478      1.362     5.21     927.6296     56.87126     99.67017         9     1.302     0.589  43.13   0
       221    928.5301    699.3219 307.5355029  +6.4176509     1391.835     2202.837     2177.956     81.13279     161.6265      322.612      1.707     4.97     915.8763     56.87126     205.7773        15     1.463     0.712  49.05   0
       222    740.4196    695.3588 307.6137327  +6.4129840     3761.504     5783.859     6483.625     80.49243     161.1776     322.4515      1.677     4.08      919.277     56.87126     558.5105        25     1.613     0.885  58.70   0
       223    695.4337    695.5502 307.6324027  +6.4113957     1007.292     1523.695     1434.198     80.74918     161.3701     322.5799      1.567     5.73     920.2386     56.87126     155.5759        11     1.493     0.619  52.05   0
       224   1006.7474    691.8386 307.5032793  +6.4233583     8970.437     13521.74      14149.8     80.62091     161.4343      322.644      1.602     4.06     913.1785     56.87126      1403.29        29     1.547     0.867  49.54   0
       225    945.2300    692.3375 307.5288031  +6.4210939     2506.899     3690.792      1899.51     80.62091     161.3701     322.5799      1.616     4.69     915.2514     56.87126     336.5845        19     1.444     0.798  51.56   0
       226     25.8135    691.6498 307.9105208  +6.3904622     1976.898     3556.376      3988.78     80.23485      161.306     322.3552      1.922     5.02     930.9869     56.87126      314.901        24     1.682     0.958  31.31   0
       227    545.4464    687.8186 307.6949304  +6.4095515     2010.579     3382.248     3612.496     80.36375      161.306     322.4194      1.646     4.58     922.5532     56.87126     299.2031        18     1.580     0.856  62.01   0
       228    442.2944    689.2581 307.7377058  +6.4054889     633.6824     960.2028      899.014     80.74918     161.3701     322.7723      1.613     4.28     924.6043     56.87126     101.5447         5     0.856     0.609  43.84   0
       229     84.0610    686.5838 307.8865119  +6.3945208     25166.24     39330.71     40877.45     80.36374      161.306     322.4515      1.667     4.15     929.9659     56.87126     3600.784        47     1.650     1.021  50.58   0
       230    514.0273    684.7391 307.7080776  +6.4097671     1171.632      2011.14     2131.021     80.49243     161.4343     322.5157      1.918     6.15     923.1809     56.87126     164.1118        20     1.741     0.841  42.09   0
       231    935.5352    684.1820 307.5331008  +6.4241369     1077.774     1710.791     1394.993     80.49243     161.3701     322.4836      1.639     4.29     915.4371     56.87126     195.2454        12     1.229     0.728  59.05   0
       232    554.3406    681.4192 307.6914528  +6.4124928     1062.431     1700.532     1847.995     80.49243     161.2418     322.4836      1.750     5.25      922.219     56.87126     164.9755        10     1.152     0.676  55.92   0
       233    730.0569    678.9399 307.6185850  +6.4194159     3690.679     5502.526     5532.239     81.00513     161.3701     322.6761      1.566     4.07     919.0537     56.87126     533.7659        21     1.454     0.832  51.60   0
       234    752.1024    677.1825 307.6094913  +6.4208810     4276.549     6361.133     6727.263     80.74918     161.1776     322.4194      1.573     4.07     918.6783     56.87126     648.5388        23     1.513     0.812  49.48   0
       235    583.7615    675.1179 307.6794499  +6.4160831     3318.246     4994.257      4999.75     80.87725     161.4343      322.612      1.549     3.72     921.5578     56.87126     534.3879        21     1.379     0.809  49.27   0
       236    419.6325    675.5150 307.7475758  +6.4104011     1396.603     2196.982     2943.062     80.87726     161.1776     322.5799      1.825     4.12     924.3655     56.87126     188.6785        15     1.221     0.803  55.99   0
       237    244.3857    674.6356 307.8203584  +6.4048623      1694.38     2606.432     2316.531     80.49243     161.1776     322.4515      1.604     4.71     928.3077     56.87126      264.093        14     1.361     0.718  52.94   0
       238    327.9488    673.9357 307.7856913  +6.4079668     1368.848     2003.599     1855.906     80.87726      161.306      322.644      1.560     4.34     926.8881     56.87126     198.9464        14     1.398     0.661  51.81   0
       239    990.3960    672.1932 307.5107246  +6.4309233     8155.182      12504.7     12817.37     80.23486     161.0491     322.5157      1.634     4.03     913.2026     56.87126     1288.936        29     1.532     0.920  48.83   0
       240   1023.4876    672.2289 307.4969844  +6.4320155     2088.572     2355.861     2300.008      72.6529      130.601     245.6417      1.087     2.57     911.9598     56.87126     505.2866        10     0.917     0.669  69.60  24
       241    543.8511    672.4843 307.6961075  +6.4158296     550.9119     764.1026     1149.657     80.87726      161.306     322.7403      1.739     3.96     922.1786     56.87126     97.69043         6     1.346     0.334  41.93   0
       242    710.4056    671.0256 307.6270088  +6.4220246     940.0385     1247.634     1455.061     80.36374     161.1776     322.4836      1.378     3.98     919.1693     56.87126     181.4354         8     1.184     0.458  67.60   0
       243    102.3440    669.4110 307.8795011  +6.4022285     979.6411     1333.411     1413.013     80.23486      161.306     322.3231      1.576     3.94     929.3817     56.87126     153.3692        11     1.096     0.715  57.93   0
       244    817.3986    666.2866 307.5827470  +6.4275692     1169.279     1776.189     2073.301     80.10575     160.9205     322.3552      1.658     5.49     917.3923     56.87126     170.7966        16     1.531     0.726  54.76   0
       245    435.7548    666.5798 307.7411829  +6.4146329     2918.724     4479.901      5024.21     80.49243     161.2418     322.4515      1.658     4.42     923.9394     56.87126     387.6427        21     1.447     0.852  50.54   0
       246    148.8282    665.4904 307.8603361  +6.4054159     24570.23     37181.15     38807.36     81.00513     161.1134     322.5157      1.663     4.10     928.4812     56.87126     3345.325        48     1.640     1.016  50.12   0
       247    368.7819    660.9091 307.7691776  +6.4147204     849.3317     1474.996     1645.165     80.62091     161.1134     322.5157      1.846     4.85     925.2308     56.87126     133.2053         9     0.977     0.683  78.69   0
       248    985.2764    655.1395 307.5134201  +6.4377938     7116.521     11366.71     11547.29     81.13279     161.4343      322.612      1.723     4.67     912.6318     56.87126     997.6948        37     1.771     0.909  49.93   0
       249     30.0542    654.2723 307.9100215  +6.4060383     1149.503     2088.029     1818.383     80.74918     161.2418     322.5799      1.789     5.49     930.7675     56.87126     185.2844        12     1.583     0.537  60.76   0
       250    578.8345    650.3965 307.6823249  +6.4261253     48299.97     73462.48      76774.8     80.10575     161.2418     322.4194      1.636     4.10     920.8954     56.87126     6650.552        58     1.655     1.022  51.23   0
       251    943.6299    651.9088 307.5308192  +6.4377341     688.4981     1093.696     1007.194     81.00513     161.1134     322.5799      1.601     5.92     914.0816     56.87126     107.3782         9     1.554     0.635  43.15   0
       252    222.7655    651.8187 307.8301022  +6.4135546     691.7044     1138.416     1716.931     80.36374     161.1776     322.4515      1.858     4.90     927.4882     56.87126     111.5743         6     1.186     0.620  37.72   0
       253    538.2227    650.5119 307.6991818  +6.4247130     774.3159     1070.335     1300.461     80.87726     161.1776     322.5157      1.675     5.86     921.8048     56.87126     123.2009        10     1.257     0.768  39.81   0
       254    803.8001    649.7289 307.5889472  +6.4339503     662.8658     917.3056     869.8435     80.36375     160.8562     322.4194      1.525     5.34     917.3116     56.87126     99.49603         6     1.393     0.579  47.61   0
       255    186.4069    646.9578 307.8453600  +6.4143356     2670.767     4165.598     4365.199     80.36374     161.0491     322.3552      1.693     4.24     927.5406     56.87126     380.4617        22     1.455     0.895  55.77   0
       256    509.5802    647.4111 307.7111774  +6.4250306     670.4001     1037.135     668.7668     80.49243     161.0491     322.5478      1.451     4.07     922.4249     56.87126     109.3073         7     0.978     0.483  83.15   0
       257     79.4535    641.6333 307.8899404  +6.4129250     1353.043     2066.942     2513.787     80.74918      161.306     322.5799      1.689     3.85     929.4764     56.87126     206.3672        16     1.214     0.934  61.77   0
       258    476.0906    634.1973 307.7255250  +6.4293606     61274.23     94893.54     98943.81     80.23485     161.0491     322.3873      1.628     4.09     923.0436     56.87126     9088.306        71     1.660     1.078  51.83   0
       259     19.8125    635.7621 307.9148977  +6.4133350     1699.853     2596.619     2717.927     80.49243     161.1776     322.3552      1.517     4.52     930.8582     56.87126     256.1167        16     1.482     0.717  48.16   0
       260    662.1182    631.5681 307.6483793  +6.4366966     867.2615     1263.033     723.8061     80.74918     161.2418     322.5799      1.599     4.87      918.575     56.87126     138.2014         8     1.226     0.605  51.43   0
       261    150.5771    629.0052 307.8608396  +6.4205396     1620.281     2571.995     1880.105     80.49242     161.1134     322.4836      1.596     4.35     927.3958     56.87126     261.4844        16     1.435     0.707  52.53   0
       262    946.0485    627.3348 307.5306367  +6.4479621     636.7547      1032.06     771.7559     80.74918     161.2418     322.6761      1.518     4.27      912.935     56.87126     114.7423         6     1.037     0.609  54.49   0
       263    429.9232    627.1265 307.7449298  +6.4307272     858.6093     1376.597      1109.84     81.13279     161.6265     322.6761      1.541     4.30     923.2854     56.87126     160.7772        11     1.307     0.585  56.70   0
       264    622.0574    625.8310 307.6652041  +6.4377205     901.5865     1465.633     1370.439     80.74918     161.3701     322.5478      1.531     5.52     919.1512     56.87126     149.9277        11     1.479     0.626  54.90   0
       265     23.0551    625.4020 307.9139012  +6.4177221     673.3545     909.9427     1098.188     80.23485     161.0491     322.3231      1.273     5.01     930.6955     56.87126      147.585         8     1.378     0.516  55.64   0
       266    331.0707    625.3932 307.7860282  +6.4281152     455.5988     525.4255     410.3528     80.36374     160.9848     322.5157      1.179     3.90       925.08     56.87126     74.86566         5     0.894     0.488   0.43   0
       267    321.5665    623.3413 307.7900431  +6.4286424     2062.808     3270.504     3578.267     80.74918     161.4343      322.612      1.668     4.56     925.1625     56.87126     293.9775        18     1.520     0.740  64.86   0
       268    473.8269    621.8733 307.7268788  +6.4343731      780.899     1288.285     1306.944     80.62091      161.306     322.5799      1.573     5.15      922.901     56.87126     124.5847         8     1.278     0.587  49.08   0
       269    748.1512    617.7269 307.6131236  +6.4452986     5417.532     7890.225     8405.491     80.87726     161.4343     322.6761      1.537     4.17     916.6913     56.87126     792.1765        25     1.502     0.837  52.40   0
       270    801.6824    613.0233 307.5910555  +6.4490357     14174.25     21126.94     21738.04     80.74918     161.1134     322.5799      1.586     4.06     916.4573     56.87126     2203.538        36     1.572     0.912  52.04   0
       271   1019.2636    613.4185 307.5007031  +6.4561582     992.1174     1315.454     1137.848     80.49243     161.3701     303.3323      1.540     4.82     909.3792     56.87126     186.2269        13     1.425     0.669  50.86  16
       272    544.2611    612.8345 307.6979397  +6.4404733     1278.745     2137.716     2854.958     80.87726     161.3701      322.612      2.061     5.38     920.7112     56.87126     204.4753        17     1.565     0.853  70.39   0
       273    625.6673    611.0057 307.6642027  +6.4439632     2818.391     4119.851     4153.896     80.36374     161.0491     322.4515      1.591     4.04     918.5297     56.87126     430.4544        21     1.422     0.816  48.64   0
       274     46.2701    611.6797 307.9047266  +6.4241721     618.8309     779.0719     870.3113     81.13279     161.6265      322.612      1.569     4.50     929.9627     56.87126     86.89447         5     1.155     0.499  57.73   0
       275    943.0045    607.3655 307.5325683  +6.4561058     1209.182     1821.752     2338.104     80.10575     161.2418     322.4194      1.686     4.98     912.2114     56.87126     177.2325        10     1.209     0.580  53.52   0
       276    384.3104    604.8130 307.7646170  +6.4384055     1036.114     1390.453     1228.023     80.62091     161.1134     322.5157      1.454     4.77     923.5928     56.87126     143.2587        12     1.326     0.660  50.69   0
       277    238.1690    604.7840 307.8252913  +6.4334945     1314.212     2112.445     2439.678     80.49242     161.1134     322.5799      1.792     4.36     925.6383     56.87126     219.9281        14     1.400     0.685  58.78   0
       278    201.3423    605.3472 307.8405613  +6.4320202     419.5294     584.1423     726.6169     80.87726     161.3701      322.644      1.559     4.19     926.0743     56.87126     74.51495         5     1.250     0.400  52.85   0
       279    877.7520    596.1924 307.5600350  +6.4585344     2952.719     4255.968      4743.79     80.36375     161.1776     322.2589      1.546     4.17     914.3985     56.87126     445.8372        16     1.399     0.700  46.25   0
       280    172.8768    596.0079 307.8526937  +6.4349163     794.5594     1365.469     1998.608     80.49243     160.8562     322.4515      2.031     5.61     926.2783     56.87126     119.3159        13     1.251     0.976  62.32   0
       281    836.5668    593.5969 307.5772220  +6.4582263     2407.635     3649.695     3985.133     80.10575     161.1776     322.3552      1.680     4.32     915.3094     56.87126     408.4685        21     1.510     0.847  51.56   0
       282    807.4246    589.7827 307.5894496  +6.4588245     2628.011     4030.052     5166.824     80.62091     161.2418     322.5799      1.664     4.31      915.695     56.87126     446.5372        19     1.469     0.854  51.53   0
       283    749.8330    590.1159 307.6133504  +6.4567559     671.6169     1130.838     1775.456     80.87725     161.1776      322.612      2.184     5.80     915.8319     56.87126     120.1584         8     1.271     0.744  38.07   0
       284    264.4579    588.5850 307.8149224  +6.4410691     7761.834     11838.33     11805.92     80.23486      161.306     322.3552      1.669     4.21      924.772     56.87126     1193.097        32     1.583     0.961  52.59   0
       285    817.1131    584.8823 307.5855910  +6.4611728     159940.9     239950.7     250488.1     80.62091     161.5624     322.7082      1.562     4.12     915.3418     56.87126     23955.06       111     1.696     1.108  52.17   0
       286    198.7009    583.1233 307.8424066  +6.4411074     57055.26     90223.86     95464.02     80.49243     161.4984      322.644      1.677     4.10     925.8037     56.87126     7914.122        70     1.706     1.109  53.06   0
       287    747.0927    585.5896 307.6146399  +6.4585330     595.3358     1078.915     1027.043      80.6209     160.9848     322.4515      1.885     4.52     915.7199     56.87126     101.3255         5     0.858     0.678  55.46   0
       288    122.7240    579.3066 307.8740782  +6.4401200      6027.41     9721.821     10047.55     80.62091     161.5624      322.644      1.713     4.25      927.271     56.87126     862.2096        34     1.663     0.999  51.36   0
       289    988.1145    576.8329 307.5148591  +6.4702230     1380.371     2146.698     1823.364     80.87725     161.1776      322.612      1.644     4.75     909.5284     56.87126     209.1098        15     1.463     0.729  57.19   0
       290   1008.6890    575.2030 307.5063708  +6.4715844     560.9344     904.0422     770.4116     80.23486     161.0491     322.3231      1.721     4.16     908.7576     56.87126     99.29425         7     1.407     0.350  42.98   0
       291    237.2145    574.5575 307.8267054  +6.4459428     773.7169     1499.819     1876.223     80.10575     161.1134     322.3873      2.197     5.50     925.0046     56.87126     121.0545        11     1.403     0.607  47.63   0
       292    853.6189    572.1474 307.5708599  +6.4676545     4518.584     6751.989      6738.11     80.36375     161.4343     322.4515      1.582     4.54     914.0429     56.87126     637.9274        25     1.535     0.890  50.17   0
       293    372.1222    570.3097 307.7708376  +6.4522417     16655.12     25811.37     26705.44     80.62091     161.6265     322.6761      1.654     4.07     923.0489     56.87126     2492.161        41     1.631     0.975  52.40   0
       294    462.3943    570.6847 307.7333452  +6.4551247     817.9054      1344.23     1785.739     80.36375     161.0491     322.3873      1.905     5.56     921.7345     56.87126     131.8485        10     1.121     0.778  63.77   0
       295    173.8701    569.0594 307.8531894  +6.4460768     1874.259     3249.078     3788.843     81.00513     161.3701      322.644      1.819     5.07     926.0385     56.87126     288.3928        20     1.598     0.939  43.33   0
       296    538.5063    565.1967 307.7019284  +6.4599499     6303.564     9679.168      9807.39     80.62091     161.0491     322.3873      1.640     3.99     919.3765     56.87126     943.0684        28     1.574     0.870  53.48   0
       297    807.6199    565.4496 307.5901833  +6.4688786     5870.125      8628.27     9364.074     80.36375     161.4343     322.4836      1.607     4.03     914.8798     56.87126     940.4296        27     1.532     0.866  49.96   0
       298    248.9009    566.8336 307.8221136  +6.4495259      856.051     1419.345     1694.541     80.87725     161.2418     322.8044      1.670     4.29      924.517     56.87126     145.5972         7     1.164     0.450  32.15   0
       299    179.5281    566.8345 307.8509153  +6.4471863     777.9793     1239.186     2395.368     80.74918      161.306      322.644      1.815     4.66     925.9186     56.87126     136.2605         8     1.144     0.540  54.80   0
       300    111.5926    566.2057 307.8791412  +6.4451536     1024.537     1432.257     1681.803     80.23486     161.1776     322.4836      1.582     4.70     927.3307     56.87126     157.7649        12     1.298     0.677  44.20   0
       301    396.8955    561.7991 307.7608383  +6.4565897     1334.653     1890.976     1853.767     80.36374     160.9848     322.2589      1.469     5.03     922.5862     56.87126     198.0601        12     1.288     0.657  65.66   0
       302    583.3351    558.1743 307.6835513  +6.4643559     2339.365     4094.021     3980.259     80.49243     161.3701     322.5478      1.821     4.16     917.5952     56.87126     325.7256        25     1.445     1.088  50.95   0
       303    280.7012    554.7629 307.8093171  +6.4555817     84958.84     132470.7     138998.9     80.87726     161.2418     322.8365      1.693     4.18     923.2656     56.87126      11853.5        83     1.712     1.144  53.32   0
       304    185.5067    558.3513 307.8487190  +6.4508907     6526.195      9841.39     10587.72     80.74918     161.2418     322.7723      1.652     3.90      925.719     56.87126      1000.33        29     1.528     0.909  50.70   0
       305    866.3930    558.6021 307.5660093  +6.4736755     624.6142     866.5447     656.6607     80.23486     161.0491     322.4515      1.432     4.19     913.1369     56.87126     126.9374         5     1.174     0.427  58.65   0
       306    824.3409    557.8351 307.5834955  +6.4725832     1446.845     2153.986     2516.461     80.74918     161.3701      322.612      1.720     4.05     914.2271     56.87126     241.2261        12     1.351     0.576  54.88   0
       307     57.1332    557.0114 307.9020610  +6.4471111     4870.945     7619.704     7920.627     80.36375     161.1776     322.5157      1.622     4.11     928.8516     56.87126     715.9777        28     1.568     0.904  55.00   0
       308    570.4396    552.3584 307.6891008  +6.4663241     966.3379     1334.319     1725.756     80.62091     161.4343     322.5157      1.723     4.35     917.8494     56.87126     174.7316        10     1.153     0.616  40.21   0
       309    264.4580    549.7203 307.8162308  +6.4571164     1445.883     2216.494     2030.229     80.87726     161.3701      322.612      1.598     4.39      923.623     56.87126     210.3462        16     1.459     0.756  49.79   0
       310    980.1536    548.5818 307.5191090  +6.4816220     1513.693     2152.664      2217.75     80.36375      161.306     322.3873      1.562     4.92     908.9472     56.87126     238.3253        13     1.359     0.640  44.78   0
       311    803.8699    547.2588 307.5923495  +6.4762641     16457.55     24437.79      25357.6     81.00513     161.3701      322.644      1.591     4.18     914.4252     56.87126     2422.955        38     1.593     0.924  48.20   0
       312    507.4508    545.6416 307.7154793  +6.4669804     40266.32     66021.25     70385.61     80.87726     161.3701      322.644      1.815     4.56     919.7686     56.87126     5122.876        68     1.786     1.200  44.90   0
       313    658.3614    544.3667 307.6528633  +6.4725769     1017.268     1645.926     1581.466     80.62091     161.1776     322.4194      1.646     5.41     915.9422     56.87126     118.9245        11     1.106     0.746  60.87   0
       314    219.9421    541.8322 307.8349787  +6.4588727     1721.251     3084.319     3409.386     80.74918     161.4343     322.5799      2.105     4.50     924.7584     56.87126     229.3854        19     1.430     0.911  70.80   0
       315    677.9021    541.1212 307.6448587  +6.4745730     1197.941     1985.637     2172.341     80.62091     161.6265     322.6761      1.657     6.59       915.68     56.87126     195.0453        18     1.863     0.771  49.26   0
       316    106.3537    542.3821 307.8821196  +6.4548133     636.8034     1081.972     896.2301     80.36375     161.2418     322.3873      1.609     4.47     927.0385     56.87126     100.9034         6     1.047     0.543  52.52   0
       317     55.7538    542.1761 307.9031343  +6.4531899     1243.731     1868.831      1752.23     80.49243     161.3701     322.5157      1.585     4.27     928.6801     56.87126     184.6169        13     1.286     0.703  54.79   0
       318    667.3866    540.7351 307.6492378  +6.4743794     2818.619     4297.214     4880.798     80.36375     161.1776     322.5478      1.658     3.92     915.8047     56.87126     452.3411        22     1.453     0.917  48.35   0
       319    729.8294    540.0394 307.6233341  +6.4767621     1314.428     1995.959     1863.163     80.36375     161.0491     322.4836      1.627     4.19     914.6102     56.87126     238.7164        14     1.357     0.750  62.76   0
       320     85.4858    537.9435 307.8909331  +6.4559415      720.962     1593.991     1598.446     80.87725     161.3701     322.8044      2.140     7.60     927.5788     56.87126     124.8206        17     1.914     0.844  30.62   0
       321    405.2617    536.2049 307.7582252  +6.4674392     1745.164     2743.545     2821.089     80.23486     161.1134     322.3873      1.709     4.57     921.7733     56.87126     229.1064        16     1.453     0.709  48.39   0
       322    336.8420    534.6403 307.7866854  +6.4657817     3863.182     5917.019     5863.354     80.62091     161.3701     322.5157      1.636     3.88     922.1714     56.87126     554.0927        26     1.527     0.869  53.35   0
       323    151.7944    533.1116 307.8635662  +6.4601747     25269.13     39439.89        41318     80.36374     161.0491     322.3873      1.646     4.20     926.0264     56.87126     3473.519        52     1.657     1.046  51.78   0
       324    516.6767    533.9967 307.7120398  +6.4720988     1923.505     3112.446     3056.468     80.36374     160.8562     322.4836      1.636     4.75     918.8251     56.87126     273.9366        17     1.427     0.784  47.39   0
       325    879.8190    533.1814 307.5612852  +6.4846219      1632.07     2453.857     2829.783     80.62091      161.306     322.5799      1.667     4.61     911.6854     56.87126     238.9847        14     1.261     0.726  54.79   0
       326    117.0302    531.4980 307.8780540  +6.4596677      2694.22     4259.815     4324.079     81.00513     161.1134     322.6761      1.702     4.39     926.6506     56.87126     362.9868        22     1.572     0.785  51.35   0
       327    354.2713    529.8831 307.7796089  +6.4683329     1062.439     1534.565      1263.59     81.13279     161.6905     322.6761      1.525     4.09     921.9037     56.87126     163.5967        11     1.278     0.573  59.47   0
       328    977.3521    527.7555 307.5209685  +6.4901278     5028.806     7425.673     7662.267     80.87726      161.306      322.612      1.594     4.47     908.1711     56.87126     824.3623        23     1.531     0.796  50.63   0
       329    550.6225    520.3099 307.6984049  +6.4788912     1499.851     2149.453     2495.281     80.87726     161.1776     322.5157      1.572     4.27     917.0349     56.87126     265.8255        15     1.489     0.662  61.34   0
       330     16.0618    517.4522 307.9204476  +6.4620573     24677.89     38555.64      40982.5     80.87725      161.306      322.612      1.697     4.16     930.0353     56.87126     3575.297        49     1.697     1.035  51.03   0
       331      1.4986    512.2949 307.9266679  +6.4636946     14640.94     18904.38      20870.2      72.5103     131.2334     245.5153      1.214     2.80     930.6251     56.87126     4253.749        45     1.867     0.900 -87.92  24
       332    448.7808    514.2823 307.7408929  +6.4779556     42064.54     64866.19     67642.71     80.49243     161.0491     322.5799      1.665     4.10     919.7332     56.87126     5740.817        57     1.663     1.056  52.03   0
       333    656.8300    513.9958 307.6545178  +6.4850660     12047.69     18377.84     19027.48     80.36375     161.2418     322.4515      1.610     4.24     914.9402     56.87126     1681.092        36     1.614     0.928  51.97   0
       334    296.8922    514.4821 307.8039507  +6.4727592     973.2298     1696.064     1758.876     80.62091     161.6905     322.7082      1.732     5.19     921.2186     56.87126     134.9937         9     1.304     0.584  57.07   0
       335    213.9458    511.8658 307.8384777  +6.4710435     18608.43     30355.31     31651.66     80.87726      161.306      322.612      1.747     4.40     923.9699     56.87126     2334.776        49     1.788     1.030  48.71   0
       336    179.7853    512.9271 307.8526250  +6.4694531     1600.493     2335.063     1939.419     80.36374     161.1134     322.5478      1.503     4.21     924.9176     56.87126     239.8206        14     1.335     0.678  55.58   0
       337    991.0219    512.3596 307.5158070  +6.4969425     1226.232     1751.883     2037.711     80.49242     161.1776     322.4515      1.668     3.96     906.9573     56.87126     220.5408        12     1.260     0.658  69.95   0
       338    919.6555    511.9115 307.5454557  +6.4947387     748.3899     1126.873     1203.167     80.87726     161.2418     322.8044      1.257     3.94     909.6088     56.87126     156.8228         7     1.255     0.355  74.77   0
       339    831.0665    512.1899 307.5822312  +6.4916561     939.0853     1451.648     1653.678     80.36374     161.1776     322.5157      1.611     6.21     912.6554     56.87126     117.4264        14     1.376     0.789  52.52   0
       340    578.7320    510.7665 307.6870538  +6.4837764     2811.207     4176.985     4102.286     80.74918     161.4343     322.6761      1.591     4.38     916.0439     56.87126     447.5577        21     1.411     0.880  52.71   0
       341    952.5602    508.0368 307.5319222  +6.4974403     4654.961     6994.153     6766.697     80.62091      161.306     322.5157      1.591     4.03     908.2204     56.87126     771.2322        27     1.504     0.911  54.90   0
       342    625.6230    506.2970 307.6677338  +6.4871970     6559.793     9668.279      9693.93     80.87726     161.1134     322.4515      1.599     4.07     915.1335     56.87126     972.1266        28     1.504     0.890  53.47   0
       343    113.4201    506.9174 307.8803817  +6.4696950      1170.94     1920.316     1618.213     80.62091     161.0491     322.5799      1.583     4.94     926.3211     56.87126     187.4042        15     1.473     0.672  50.52   0
       344    975.0502    500.0756 307.5228497  +6.5014803     3263.891     5018.387     5210.722     80.87726     161.4343      322.644      1.562     4.62     907.0369     56.87126     505.1314        21     1.534     0.752  49.98   0
       345    537.8450    497.5993 307.7044728  +6.4878391     7213.876     11347.26     11834.26     80.23485     160.9848     322.2268      1.678     4.14     916.1923     56.87126     976.0623        32     1.554     0.970  52.93   0
       346    414.1469    499.2946 307.7557771  +6.4829787     733.0511     924.7733     783.8599     80.74918     161.2418     322.9006      1.328     4.43     919.8777     56.87126     108.4707         8     1.067     0.524  55.67   0
       347    383.7803    497.7481 307.7684375  +6.4825951     2599.062     4139.291     4604.993     80.36375     161.4343     322.4515      1.660     4.27     920.0675     56.87126      356.374        20     1.488     0.811  54.01   0
       348    753.6738    497.8966 307.6148456  +6.4949633     590.4575     653.6398     460.6213     80.62091     161.4984      322.644      1.119     2.41     913.4584     56.87126     141.6962         5     0.752     0.407  68.45   0
       349   1005.6125    496.3214 307.5102846  +6.5040531     530.8258     631.1681     494.1572     80.49243     161.0491     322.4836      1.566     4.13     905.5781     56.87126     80.28833         5     1.207     0.404  76.16   0
       350    893.9512    493.2558 307.5567532  +6.5015812     3163.514     4911.637     6011.471     80.87726     161.3701     322.7403      1.684     5.63      910.124     56.87126     536.8558        26     1.891     0.908  34.31   0
       351    547.4898    494.5221 307.7005714  +6.4894339     660.3802     1068.401     1240.705     80.62091     161.6265     322.7403      1.666     6.52     915.7842     56.87126     94.62732        10     1.660     0.719  47.31   0
       352    901.7910    487.9330 307.5536759  +6.5040416     2087.711     3219.192     3059.991     80.36374     161.1776     322.5478      1.587     4.60     909.6597     56.87126     367.1648        16     1.546     0.721  57.27   0
       353    941.0023    486.8020 307.5374316  +6.5058216     1262.119     1852.068     1917.282     80.23486     160.9205     322.3231      1.649     6.09     907.9766     56.87126     228.9868        12     1.492     0.700  51.36   0
       354    121.0941    486.8509 307.8778721  +6.4782394     808.5241     1366.187     1164.361     80.74918     161.2418     322.8365      1.817     5.11     925.7985     56.87126     118.1233         8     0.963     0.767  64.95   0
       355    725.7584    483.8123 307.6269089  +6.4998424     3013.711     4300.059     4291.121     80.23485     161.1776     322.3873      1.494     3.94     913.3734     56.87126     500.8413        16     1.368     0.722  55.29   0
       356    396.5907    482.0296 307.7636471  +6.4895165     3508.684     5386.293     5153.274     80.36374     161.1776     322.4515      1.658     3.74     919.1738     56.87126     525.5946        26     1.447     0.990  56.67   0
       357     87.5785    482.9017 307.8919207  +6.4787385     1923.411     3065.771     3321.811     80.74918     161.1776     322.4194      1.729     4.50     926.6936     56.87126     283.5544        18     1.545     0.741  46.97   0
       358    436.9899    482.4652 307.7468581  +6.4906963      1076.81     1647.066     2226.321     80.36374     161.1776     322.5157      1.690     4.95     918.4351     56.87126     143.6735        15     1.175     0.966  61.80   0
       359    624.3390    478.5518 307.6691978  +6.4986101     9920.083     15183.97     15761.73     80.87726      161.306     322.7082      1.680     4.07     914.4832     56.87126     1491.135        39     1.630     0.984  48.79   0
       360    787.0298    475.1317 307.6017578  +6.5054818     16287.89     24425.18     25652.37     80.62091     161.3701      322.612      1.564     4.26     912.4571     56.87126     2426.662        38     1.590     0.910  49.31   0
       361    306.5930    475.3670 307.8012394  +6.4892367     2529.789     4095.583     3773.271     80.23486     161.2418     322.4515      1.758     4.24     919.2885     56.87126     383.7211        23     1.487     0.919  47.87   0
       362    816.2238    472.2370 307.5897322  +6.5076558     1417.363     1810.167     1661.033     80.49243     161.1134     322.4194      1.363     4.31     911.7941     56.87126      211.553        12     1.188     0.686  52.62   0
       363    389.7195    472.0114 307.7668370  +6.4934217     1452.392     2374.008     2503.161     80.49242     161.1134     322.4836      1.744     5.55     918.6136     56.87126     221.3365        13     1.425     0.610  55.44   0
       364    972.2439    470.0006 307.5250206  +6.5138049     2134.358     3109.741     2985.936     80.23485     161.0491     322.2589      1.492     4.62     906.0645     56.87126     340.7992        18     1.487     0.707  46.94   0
       365    791.0800    470.2305 307.6002402  +6.5076414     1298.245     2275.521     2131.088     80.74918      161.306      322.612      1.679     5.60     912.2257     56.87126     214.6356        13     1.497     0.629  48.35   0
       366    405.3587    471.7537 307.7603520  +6.4940546     486.9175     492.9116     84.65685     80.74918     161.3701     322.4836      1.210     3.80     918.4874     56.87126     78.15491         5     0.987     0.419   6.39   0
       367    721.0665    469.4534 307.6293385  +6.5056139     651.7882     780.3994     932.5993     80.87725      161.306     322.5799      1.466     4.30     912.8965     56.87126     116.8336         6     1.102     0.478  69.59   0
       368    379.5002    468.7578 307.7711897  +6.4944211     582.8383     867.3397     1178.354     80.87726     161.2418     322.8685      1.315     3.40     918.5116     56.87126     122.3595         5     0.796     0.420  66.28   0
       369    124.4447    467.0109 307.8771500  +6.4865443     4180.989     6760.817     7070.782     80.36374     161.2418     322.3552      1.710     4.15     925.1727     56.87126      614.266        26     1.563     0.943  49.60   0
       370    762.6576    466.0384 307.6121827  +6.5084193     2277.514     3554.373     3789.342     80.87725     161.4343      322.644      1.703     4.63     912.4247     56.87126     327.0743        22     1.572     0.912  48.82   0
       371    282.3673    464.2342 307.8116730  +6.4930171     1590.318     2230.821     2293.237     80.49243     161.1134     322.3873      1.614     4.04     919.0575     56.87126       248.85        16     1.378     0.764  58.42   0
       372   1023.7819    463.2399 307.5038454  +6.5183208     698.2018     836.2035     656.3552     68.69898      126.331     240.7045      0.868     2.32     903.8705     56.87126     217.2915         6     0.919     0.368  77.11  24
       373    360.4552    461.6350 307.7793371  +6.4967209     3182.948     5206.995     5565.704     80.74918     161.3701     322.6761      1.741     4.29     918.2601     56.87126     504.0765        26     1.545     0.939  49.59   0
       374    716.1343    459.4405 307.6317222  +6.5095829     1609.457     2446.813     2268.021     80.87726      161.306     322.7403      1.582     4.22     912.5577     56.87126      265.777        19     1.508     0.783  53.04   0
       375    990.3894    458.6024 307.5178668  +6.5191186     780.8373     1395.149     1724.401     80.49243     161.0491     322.4515      2.173     4.55     905.1031     56.87126     116.2549         8     1.371     0.429  68.21   0
       376    248.4028    457.4467 307.8260040  +6.4946748     746.3647     1217.875     1556.957     80.23486     161.0491     322.2589      1.963     4.58     920.3851     56.87126     119.3751         6     1.065     0.560  54.13   0
       377    557.7877    452.0290 307.6977223  +6.5073257     1042.072     1426.199     1320.909     80.36375     161.1776     322.5478      1.578     5.30      913.924     56.87126     167.9897        10     1.267     0.627  55.79   0
       378    459.0965    453.1273 307.7386650  +6.5035537      547.602     818.7796     747.3459     80.62091     161.5624      322.612      1.382     3.73      915.911     56.87126     95.79639         5     1.033     0.387  57.02   0
       379    479.9402    450.4044 307.7301016  +6.5053792      1321.67     1987.523     2036.925     80.23485     161.2418     322.4194      1.723     4.83     915.0916     56.87126     176.4022        14     1.329     0.720  68.22   0
       380    842.6063    449.7658 307.5795295  +6.5178187     1406.748       2140.1      2011.96     80.23486     161.1776     322.4194      1.617     4.63     910.0242     56.87126     215.3056        14     1.494     0.649  52.81   0
       381    828.3674    448.8038 307.5854744  +6.5177387     1866.214     2764.019     2734.476     80.10575     161.2418     322.4194      1.526     4.02     910.4579     56.87126     313.9464        16     1.345     0.814  59.09   0
       382    725.4563    446.8063 307.6282748  +6.5151125      14601.7     22387.45     23473.03     80.36375     161.2418     322.3552      1.642     4.24     912.1125     56.87126     2263.686        43     1.709     0.935  49.55   2
       383    627.9034    448.6937 307.6687196  +6.5110585     762.3098     1318.301     1312.475     80.87726     161.9464     322.5478      1.843     5.45      912.944     56.87126     116.0745        10     1.292     0.648  41.98   0
       384    646.5792    442.8823 307.6611596  +6.5140853     2492.309     4073.641     4980.662     80.62091     161.0491     322.5799      1.840     4.50     912.4155     56.87126     349.9764        20     1.469     0.835  50.13   2
       385    618.9628    437.9547 307.6727925  +6.5151924     13963.02     25169.11     30887.15     80.62091     161.3701     322.5478      2.174     6.70     912.5129     56.87126      2177.99        59     2.530     1.013  38.99   0
       386    905.7303    431.8148 307.5539179  +6.5273456     1261.479      2719.31     3773.838     80.36375      161.306     322.5478      2.638     9.04     906.9487     56.87126     216.8232        23     2.644     0.864  50.28   0
       387    389.8978    432.6924 307.7680854  +6.5096626     27875.16      43839.1      46231.3     80.87726     161.8824     322.5799      1.686     4.12      916.165     56.87126     3535.115        52     1.675     1.055  50.60   0
       388    136.1110    432.1300 307.8734821  +6.5013401     2174.841     3419.787     3275.479     80.87725     161.6265      322.644      1.688     4.10      923.819     56.87126      289.439        21     1.419     0.959  51.20   0
       389    919.6308    427.2146 307.5482995  +6.5297106     5156.724     7377.433     7607.074     80.49243     161.1134     322.5799      1.549     4.02     906.2514     56.87126     858.3173        23     1.529     0.778  53.19   0
       390    950.8595    436.7487 307.5350125  +6.5268193     3820.909     5737.093     5832.022     80.87726      161.306      322.644      1.613     4.44     905.7727     56.87126     621.2388        21     1.486     0.781  49.86   0
       391     69.4562    427.7228 307.9013066  +6.5009094     1462.675     2531.508     3122.524     80.87726     161.3701      322.612      1.991     4.75     925.4489     56.87126     232.8054        19     1.490     0.944  52.06   0
       392    975.8483    425.5732 307.5250094  +6.5322703     591.1526     929.4781     1339.719     80.49243     161.4343     322.5799      2.027     4.70     904.7867     56.87126     123.5432         7     1.407     0.445  54.20   0
       393    247.4535    423.2202 307.8275509  +6.5087748      13468.8     21511.04      22319.8     80.36375     161.3701     322.4515      1.711     4.24      918.719     56.87126     1826.224        43     1.630     1.071  51.01   0
       394    742.2377    417.2716 307.6222963  +6.5278707     661.7722     915.7579     1039.003     80.74918      161.306     322.7082      1.759     5.14       910.97     56.87126     107.5472         8     1.460     0.511  37.65   0
       395     82.9860    417.0346 307.8960495  +6.5057794     689.9269     1204.166     715.4879     80.49243     161.1134     322.5157      1.732     4.85     924.5359     56.87126     96.07556         7     1.362     0.489  53.39   0
       396    971.0312    415.6675 307.5273410  +6.5361993     1019.955     1466.202     967.2206     80.74918     161.3701      322.612      1.550     5.43     904.6266     56.87126     169.1371        13     1.562     0.750  47.71   0
       397    710.5242    416.2307 307.6355004  +6.5272364     660.7012     972.5632     1533.132     80.74918     161.4343      322.644      1.770     4.73     911.0351     56.87126     116.8568         6     1.119     0.566  62.09   0
       398   1020.2604    416.3177 307.5068760  +6.5375780     519.4411      500.699     42.13368     81.00513     161.3701     292.2452      1.110     3.79     903.6093     56.87126     101.5744         5     0.910     0.453  46.11  16
       399    360.5432    413.0395 307.7809355  +6.5167890     1389.307     1874.456      1897.01     80.87725     161.4343      322.644      1.464     5.10     915.3234     56.87126     208.2968        14     1.388     0.645  54.80   0
       400    193.6147    413.2874 307.8502407  +6.5110604     866.6731     1391.089     1461.947     80.49243     161.1776     322.4836      1.643     3.92     921.0615     56.87126     141.8113         9     1.081     0.593  55.56   0
       401    147.8019    411.9120 307.8693095  +6.5100826      4823.98     7417.211      7825.29     80.10575     160.9848     322.3873      1.625     4.12     922.9648     56.87126     666.2462        28     1.538     0.910  54.25   0
       402    388.4004    412.7854 307.7693767  +6.5178318      340.231     361.1311     516.2638     80.49243     161.0491     322.4194      0.824     3.42     914.9789     56.87126     76.89801         5     0.766     0.443 -70.35   0
       403    445.5775    411.2417 307.7456864  +6.5203937     618.5799      978.803     989.6219     80.49243     161.1776     322.4194      1.524     3.71     913.6699     56.87126     106.1298         7     0.961     0.480  82.03   0
       404    345.8191    411.8230 307.7870903  +6.5167953     512.8299     790.4926     649.0683     80.62091      161.306     322.5799      1.587     4.87     915.4286     56.87126     85.84656         5     1.230     0.547  60.89   0
       405    252.4541    410.5931 307.8258998  +6.5141571     1397.043     2203.294     2165.724     80.36375     161.1134     322.3552      1.651     4.43     917.8723     56.87126     207.5718        17     1.373     0.895  47.57   0
       406    169.9857    407.5230 307.8602463  +6.5126433     2337.025     4040.728     4209.836     80.49242     161.0491     322.4836      1.835     4.48     922.0754     56.87126     283.0494        26     1.513     1.132  69.66   0
       407    834.1431    408.8024 307.5844155  +6.5344494     658.2212     1027.653     1473.897     80.23485     161.0491     322.3552      1.450     4.80     908.5143     56.87126     164.4231         8     1.441     0.453  47.60   0
       408    565.4127    406.6536 307.6960796  +6.5263178     992.3577     1404.089     932.5847     80.23486      161.306     322.3552      1.484     5.14     911.9507     56.87126     167.3677        10     1.419     0.669  55.89   0
       409    981.5757    402.2129 307.5234121  +6.5421078     974.6194     2145.843     2647.773     80.62091     161.1776     322.5799      2.442     5.57     903.8615     56.87126     189.3939        17     1.686     1.171 -85.86   0
       410    393.5024    402.5971 307.7676008  +6.5222104     1869.433      2957.69     3341.019     80.62091     161.1134     322.3231      1.772     4.40     914.3815     56.87126     289.6868        19     1.518     0.747  67.27   0
       411    281.9885    403.5799 307.8138724  +6.5180484     759.7338     1177.865     1498.638     80.49242     161.0491     322.5478      1.704     5.36     916.0654     56.87126     105.1882         8     1.236     0.657  83.99   0
       412     12.1974    402.9244 307.9259180  +6.5092140     721.2317     895.5187     845.9913     80.36374     160.8562     322.5478      1.302     4.71     926.2861     56.87126     132.2466         8     1.445     0.436  41.99   0
       413    326.9552    400.3414 307.7953097  +6.5209007     756.0798     1113.813     1387.293     80.74918      161.306     322.7403      1.793     4.79     915.1372     56.87126     112.6193         7     1.297     0.502  58.88   0
       414    798.3785    398.1734 307.5996232  +6.5376393     315.0112     626.0369     881.4114     80.36375     161.1776     322.5799      1.908     3.78     909.3945     56.87126     72.96399         5     1.547     0.266  48.94   0
       415    447.0186    396.0336 307.7455992  +6.5267216     6881.314      10874.5     11467.32     80.36375     161.1776     322.4515      1.632     4.14     912.9448     56.87126     930.8502        33     1.567     0.976  52.15   0
       416     43.4062    396.6772 307.9131705  +6.5128479     2864.617     5054.334     5836.307     80.49243     160.8562     322.4836      1.935     4.78     925.1669     56.87126     424.2679        30     1.517     1.228  55.82   0
       417    779.7502    395.0151 307.6074647  +6.5383188     1957.973     3072.146     3240.467     80.23485     161.3701     322.3552      1.594     3.97     909.4916     56.87126      294.219        19     1.427     0.861  45.05   0
       418    787.6437    393.3578 307.6042423  +6.5392678      13066.5      19587.2     20376.84     80.62091     161.3701     322.4836      1.640     4.31     909.3082     56.87126     2050.299        37     1.637     0.925  53.65   0
       419    547.0023    395.1966 307.7041092  +6.5304297     509.0205     832.9921      447.211     80.23486     160.9205     322.3873      1.426     4.89     911.7546     56.87126        83.94         6     1.280     0.530  19.56   0
       420    351.1597    391.8231 307.7855457  +6.5252332     926.1484     1533.262     1040.621     80.49242     161.1776     322.4194      1.616     5.35     914.4363     56.87126     155.2072         9     1.240     0.651  68.12   0
       421    963.0012    385.4791 307.5316852  +6.5483958     685.2162     838.8096     414.9727     80.10575     160.7919     322.4194      1.411     4.49     903.8032     56.87126     123.4775         6     1.188     0.482  63.97   0
       422    234.9534    385.1536 307.8340236  +6.5240709     2507.702     2412.034     1951.715     80.87726     161.2418      322.644      0.488     0.00     917.4441     56.87126     1829.323         5     0.408     0.313 -43.25   0
       423    196.3203    384.6820 307.8500813  +6.5229627      788.815     1240.365     693.4984     81.00513     161.6265     322.7723      1.440     2.61     919.5526     56.87126     190.9033         5     0.921     0.358  69.32   0
       424    913.5663    384.0735 307.5522613  +6.5473211     532.5605     640.4063     772.2339     80.74918      161.306      322.644      1.314     4.30     905.2736     56.87126     100.3362         5     0.803     0.656 -11.40   0
       425      1.9974    383.0681 307.9308236  +6.5170677     855.6111     1609.646     2453.238     77.34492     137.9242     253.6433      2.566     5.16     925.4972     56.87126     122.7114         9     0.968     0.778 -76.27  24
       426    495.2771    379.7223 307.7261081  +6.5350800     3033.354     4907.727     5345.183     81.13279     161.6265     322.7403      1.722     4.39     911.3961     56.87126     421.0177        26     1.618     0.912  57.01   0
       427    467.4596    380.2954 307.7376401  +6.5339077     2048.779     3370.539     3371.844     80.74918     161.3701     322.7403      1.695     4.57     911.7841     56.87126     320.2943        21     1.622     0.801  50.86   0
       428    924.2834    379.9857 307.5479475  +6.5493679     695.6566     1071.119     941.4774     80.49242     161.1134     322.4515      1.663     4.30     904.9048     56.87126     109.8337         7     0.875     0.602  59.99   0
       429    853.0420    376.3231 307.5776549  +6.5484939      32361.9     51335.18     54042.13     80.74918     161.3701     322.6761      1.672     4.21     906.8441     56.87126     4350.979        55     1.689     1.062  57.08   0
       430    998.5777    375.7492 307.5172364  +6.5536040     488.1865     713.0464     557.9648     80.36375     161.4343     322.5157      1.661     3.45     902.2816     56.87126     73.90845         5     0.758     0.452  71.00   0
       431    345.0207    371.7922 307.7887689  +6.5332971     936.1368     1399.831     1421.245     80.36375     161.1134     322.4515      1.643     6.70     913.6431     56.87126     139.4024        14     1.710     0.737  37.91   0
       432     32.8758    369.1073 307.9184735  +6.5238754     1081.035     1728.551     2113.788     80.74918     161.4984      322.644      1.627     4.91     924.2714     56.87126     176.7007        11     1.323     0.688  64.02   0
       433    624.7637    368.6631 307.6727088  +6.5439983     2678.741     4145.982     4060.971     80.74918     161.4343      322.644      1.658     4.52      908.912     56.87126     363.2476        20     1.589     0.773  48.12   0
       434    156.3624    366.6584 307.8672807  +6.5290563     523.9683     1028.498     1242.931     80.87726     161.4343     322.6761      2.233     4.26     921.1054     56.87126     77.08966         6     1.100     0.469  84.02   0
       435    709.4851    362.3108 307.6377397  +6.5494656     79242.95     119794.1     124986.6     80.62091     161.6265     322.7723      1.652     4.07     908.5011     56.87126     12350.14        71     1.679     1.034  52.09   0
       436     88.8467    361.9021 307.8954759  +6.5287410     1370.253      2089.15     2630.447     80.87725     161.1776     322.8365      1.705     5.46      923.287     56.87126     181.7023        17     1.499     0.811  73.63   0
       437    571.9748    359.1130 307.6949508  +6.5461681     2729.119     4139.039     4146.855     81.00513     161.1776     322.5157      1.590     3.90     909.3309     56.87126     354.1893        22     1.395     0.939  57.01   0
       438    951.1447    359.7205 307.5374705  +6.5586350     921.4503     1264.357     1151.024     81.00513     161.3701     322.6761      1.489     3.55     903.4816     56.87126     165.1383         8     1.126     0.477  64.29   0
       439    399.0256    359.0481 307.7667720  +6.5403777     466.2091     944.4382     1192.608     80.49243     161.4343     322.5478      2.273     5.43     912.0043     56.87126     100.9752         6     1.626     0.511  34.82   0
       440    109.2895    357.8137 307.8871252  +6.5311193      5970.11     9616.627      9995.96     80.62091     161.1776     322.5157      1.681     4.14      922.645     56.87126     847.5458        32     1.609     0.958  50.10   0
       441    555.2695    355.2342 307.7020182  +6.5472083     6947.564     11010.23     11155.81     80.74918     161.3701     322.7082      1.687     4.21     909.5577     56.87126     1045.718        32     1.591     0.943  49.23   0
       442    284.3173    352.8064 307.8146150  +6.5390911     2567.039     4073.678     3840.828     80.49243     161.0491     322.4836      1.643     4.39     914.9116     56.87126      351.355        20     1.475     0.804  53.79   0
       443    418.0981    350.3468 307.7591447  +6.5446125     25189.48     40057.71     41752.81     80.74918     161.3701     322.8685      1.709     4.08     911.2139     56.87126     3491.379        53     1.668     1.089  50.11   0
       444    597.4136    350.3251 307.6846819  +6.5506515     678.6064     1022.183     1060.943     80.36375     161.1134     322.4515      1.406     3.57     908.2312     56.87126     141.6569         6     0.982     0.375  69.40   0
       445    525.8538    349.0865 307.7144400  +6.5487578     1325.029     1964.527     1363.173     80.87726     161.2418     322.8044      1.547     4.75     909.6936     56.87126     186.5973        14     1.374     0.705  51.34   0
       446    867.6913    363.8227 307.5719899  +6.5541463     1174.108     1837.714     2053.303     80.87726     161.1776     322.4836      1.747     4.50     906.0945     56.87126     199.8259        13     1.494     0.602  50.70   0
       447    398.3093    348.5352 307.7674231  +6.5446944      1235.91     1946.012     3173.825     80.74918     161.5624     322.6761      2.663     5.64      911.547     56.87126     165.7325        13     1.455     0.731  58.59   2
       448    497.4943    345.7000 307.7263305  +6.5492025     1192.198     1820.787     2164.519     80.87726     161.8824     322.4836      1.614     5.10     909.8168     56.87126     177.7355        14     1.407     0.722  54.32   0
       449    812.9797    342.6359 307.5954201  +6.5610609     891.9258     1317.885     1364.339     80.36374     161.1776     322.4194      1.624     5.28     906.9401     56.87126     118.7263         9     1.131     0.697  45.24   0
       450    507.2103    340.7776 307.7224612  +6.5515617     8299.218     13018.82     13422.26     80.49242     161.1134     322.4836      1.670     4.13     909.3903     56.87126     1115.893        34     1.582     0.974  50.96   0
       451    931.8544    339.6428 307.5461532  +6.5662796     937.0632     1219.668     1153.204     80.87726     161.3701      322.644      1.571     5.55     903.6099     56.87126     131.2673        12     1.457     0.596  63.14   0
       452    776.2995    339.5017 307.6107578  +6.5611252     3120.044     4843.244     5249.924     80.87726     161.7545     322.4836      1.750     4.68      907.372     56.87126       453.95        25     1.592     0.865  49.56   0
       453    724.2277    339.6190 307.6323783  +6.5593300     870.5377     1278.848     1450.436     80.49243     161.1776     322.5478      1.310     4.02     907.6345     56.87126     163.5104         7     1.043     0.505  64.95   0
       454    334.0374    337.9923 307.7944672  +6.5468831     987.2673     1202.573     862.2903     80.10575     161.1134     322.3873      1.370     3.64     912.7969     56.87126     123.1971         9     0.825     0.738  49.44   0
       455    169.2738    331.5640 307.8631024  +6.5439822     1139.668     1845.978     1984.222     80.74918     161.4343      322.612      1.735     4.14     919.5919     56.87126     189.7737        15     1.260     0.864  55.81   0
       456    397.1098    324.9855 307.7687133  +6.5543777     7122.024     11567.57     11829.92     80.62091     161.1776     322.4836      1.692     3.98     910.6156     56.87126     903.8815        35     1.605     1.014  52.30   0
       457    253.0786    325.3306 307.8285123  +6.5493827      2197.17     3651.116     4081.362     81.13279     161.6265      322.612      1.816     4.24     915.0061     56.87126     297.9324        21     1.458     0.849  54.12   0
       458    750.8097    325.0840 307.6218265  +6.5662235     828.9137     1289.474     1318.653     80.49242     161.0491     322.4836      1.564     4.62     907.1383     56.87126      150.384         9     1.230     0.619  58.95   0
       459    764.9886    320.8770 307.6160792  +6.5684361     53407.39     81029.94     84547.86     80.49243     160.9848     322.4836      1.585     4.16     906.9315     56.87126     7594.146        63     1.654     1.012  50.61   0
       460    436.7271    320.2434 307.7524209  +6.5576692     2343.832     3839.254     3981.548     80.74918     161.4343     322.6761      1.782     4.24     909.2985     56.87126     327.8933        23     1.455     0.973  52.73   0
       461    582.6464    317.9060 307.6919028  +6.5635413      1164.92     1935.725     1924.439     80.74918      161.306     322.7723      1.861     5.07     906.8934     56.87126      189.874        16     1.524     0.848  60.90   0
       462    999.9357    317.8851 307.5186071  +6.5775424     1746.785     2489.396     2389.434     81.00513     161.4984     322.6761      1.554     4.53     900.4908     56.87126       249.91        15     1.350     0.819  58.07   0
       463    940.9473    317.1429 307.5431298  +6.5758745     2378.901     3379.505     3507.166     80.87726     161.3701      322.644      1.455     3.97     902.4639     56.87126     372.6046        18     1.396     0.779  59.93   0
       464    474.0088    316.7982 307.7370547  +6.5603461     1101.627     1804.325     1954.437     80.23485     161.0491     322.4194      1.768     4.80     908.1693     56.87126     176.2552        16     1.438     0.756  46.92   0
       465    423.1581    315.8565 307.7582032  +6.5590239     2067.397     3186.484      3016.21     80.74918      161.306     322.6761      1.671     4.14     909.4518     56.87126     296.7169        18     1.351     0.845  50.50   0
       466    302.9173    315.8430 307.8081358  +6.5549800     726.5739     1151.864     1104.175     80.87725     161.3701      322.612      1.772     5.51     913.0886     56.87126     115.0226         8     1.253     0.683  66.18   0
       467    977.2425    309.4577 307.5283134  +6.5802628     646.8455     1159.373     1137.283     80.74918     161.3701     322.7082      1.800     5.08      901.037     56.87126     117.5264         7     1.509     0.483  71.27   0
       468    844.6433    310.5516 307.5833451  +6.5753702     1301.474     1955.686     2014.586     80.87726      161.306     322.5799      1.604     4.19     905.2507     56.87126     205.8422         8     1.064     0.534  55.14   0
       469    454.0493    307.4435 307.7456578  +6.5635372      1095.03     1777.531     2604.412     80.87725      161.306      322.612      1.860     5.65     908.0923     56.87126     159.4092        12     1.299     0.814  53.03   0
       470    199.7743    307.3195 307.8512542  +6.5550217      2192.46     3443.735     3544.528     80.62091     161.1776      322.644      1.706     4.05     917.4514     56.87126     328.4957        23     1.446     0.956  56.02   0
       471    763.5479    305.5085 307.6171926  +6.5747336     6268.031     9232.906     9153.332     80.74918     161.1776     322.8365      1.596     4.06      906.519     56.87126     969.9078        27     1.539     0.852  49.79   0
       472    235.0569    305.0206 307.8366802  +6.5571609     832.7247     1293.668     1130.501     80.49243     161.3701     322.4515      1.800     5.38     915.4915     56.87126       136.92        10     1.196     0.684  65.86   0
       473     95.9336    304.5522 307.8944679  +6.5526595     1025.535     1664.533     1727.956     80.74918      161.306      322.644      1.894     4.56     921.7551     56.87126      188.524        12     1.438     0.721  36.18   0
       474    779.8268    303.2946 307.6105062  +6.5761937      2590.59     3896.431      3900.93     81.00513     161.1134     322.4836      1.661     5.12     906.3554     56.87126     375.8245        20     1.582     0.741  51.68   0
       475    353.8069    304.6213 307.7873807  +6.5613279      618.011     1014.935     1087.032     80.49243     161.1776     322.4515      1.690     3.54     911.4069     56.87126     100.1703         6     0.739     0.638 -67.34   0
       476    369.3148    298.1088 307.7811598  +6.5645392     1663.733     3449.527     3365.385     80.62091     161.8185     322.7723      2.069     6.26     910.6555     56.87126     209.6061        29     1.799     1.270  23.38   0
       477     82.9553    298.5883 307.9000584  +6.5546836      1314.57      2083.06      2138.87     80.36374     161.2418     322.3552      1.756     5.62     922.0085     56.87126     179.8452        12     1.206     0.738  57.07   0
       478   1018.0222    294.3858 307.5118814  +6.5878507     5978.604     9061.411     9731.372     80.62091     161.1776     314.6538      1.630     4.34     899.4738     56.87126     938.9795        27     1.548     0.838  51.80  16
       479    496.2570    294.2554 307.7285731  +6.5704025     1897.989      2966.58     2465.274     81.00513     161.4343     322.6761      1.654     4.74     906.3841     56.87126     278.9604        19     1.563     0.797  56.50   0
       480    267.1714    291.5328 307.8237985  +6.5638127     598.9553     1002.517     1457.769     80.62091     161.3701      322.612      1.937     4.74     913.7538     56.87126     84.22516         7     1.212     0.526 -72.72   0
       481    258.6793    289.6821 307.8273873  +6.5642906     5746.425     9289.678     10072.03     81.00513     161.6265     322.8044      1.716     4.24     914.1312     56.87126     760.4997        29     1.598     0.943  55.14   0
       482    823.5694    288.8077 307.5928253  +6.5836422     645.0107     999.8718     1217.509     80.36375     161.1776     322.4194      1.396     3.49     905.2471     56.87126     105.9045         5     0.768     0.459  72.38   0
       483    778.1830    283.0428 307.6118675  +6.5845008     778.3816      1261.63     1363.268     80.36375     161.2418     322.3873      1.573     4.50     905.7665     56.87126     104.5917         8     1.369     0.421  61.08   0
       484    235.8002    283.0008 307.8371134  +6.5662778     565.7446     1109.746     1176.666     80.23485     160.9205     322.3231      1.699     3.77      915.259     56.87126     90.43536         5     1.458     0.280  78.50   0
       485    392.7503    280.4233 307.7720226  +6.5726306     1652.895     2797.886     2705.717     80.49243     161.4343     322.5478      1.809     5.70     909.0228     56.87126     211.2467        20     1.678     0.812  57.09   0
       486    979.4566    279.0908 307.5284095  +6.5928758     887.8375      1331.48     1602.834     80.74918     161.2418     322.7403      1.614     5.79     900.0482     56.87126     125.5582        12     1.723     0.548  53.60   0
       487    199.6742    278.2973 307.8522739  +6.5670013     571.4497     747.8255     380.1231     80.62091     161.5624     322.6761      1.515     4.14     917.0907     56.87126     93.12317         6     1.092     0.448  82.10   0
       488    162.6309    276.2581 307.8677255  +6.5665934     1814.089     2904.245     3180.562     80.62091     161.3701     322.5799      1.642     4.25     919.0133     56.87126      276.723        18     1.485     0.755  57.70   0
       489    315.3365    276.4343 307.8043052  +6.5716702     1203.564     1621.025     1111.867     80.74918     161.4343      322.644      1.583     5.95     911.7087     56.87126     140.6548        14     1.297     0.769  61.95   0
       490    572.2234    272.0108 307.6977723  +6.5821414     2162.573     3373.711     3022.783     80.49243     161.1776     322.5478      1.549     4.60     905.0369     56.87126     330.1184        18     1.428     0.755  49.46   0
       491    915.8774    271.1976 307.5550788  +6.5940064     1654.627     2832.988     3157.435     80.23485     160.8562     322.4515      1.822     5.13       901.67     56.87126     301.9419        17     1.575     0.811  31.60   0
       492    735.8434    269.5899 307.6299023  +6.5886353     5229.052      7850.62     8173.299     80.36375     161.1776     322.3552      1.594     4.32     905.3792     56.87126     746.2261        27     1.567     0.849  50.28   0
       493    676.9525    269.6414 307.6543581  +6.5866376     2258.499     3400.684     3339.558     80.87725     161.3701     322.5157      1.510     4.52     904.6669     56.87126     349.3068        17     1.448     0.718  53.12   0
       494    973.9982    269.2354 307.5310061  +6.5967625     760.0582     1064.027     965.4578     79.97645     161.1776     322.4836      1.220     4.36     899.7905     56.87126     136.2969         8     1.323     0.409  60.02   0
       495    392.4188    264.1804 307.7727067  +6.5793261     590.2818      663.577     720.6553     80.62091      161.306     322.5799      1.399     3.48     908.4596     56.87126     85.35388         5     0.780     0.449  71.28   0
       496    931.9139    261.7278 307.5487355  +6.5984536     1141.236     1608.424      1050.32     81.00513     161.6265      322.644      1.367     4.52     900.8199     56.87126     184.0394        11     1.144     0.674  51.45   0
       497    235.4380    255.0028 307.8382071  +6.5778258     2331.414      3264.25     3657.933     79.97645     161.1134     322.4194      1.497     3.72      914.893     56.87126     330.0872        18     1.303     0.838  61.62   0
       498    878.1315    253.8530 307.5713358  +6.5999038     1623.656     2659.822     2643.651     80.74918      161.306     322.5478      1.611     4.78      902.399     56.87126     302.9619        15     1.434     0.672  51.51   0
       499    768.4786    253.0454 307.6169032  +6.5965615     1628.295     2457.893     2134.783     80.87725     161.3701      322.612      1.617     4.38     904.6625     56.87126      273.985        17     1.471     0.720  51.16   0
       500    257.5973    248.3046 307.8292305  +6.5813386     556.8829     779.9664     890.3493     80.49243     161.0491     322.3231      1.617     3.46     913.8142     56.87126     99.16583         5     1.034     0.334  68.48   0
       501    469.3020    244.7152 307.7414323  +6.5899509     22289.25     35420.83     37070.79     80.87726     161.7545     322.7082      1.707     4.14     904.5451     56.87126     3036.748        49     1.678     1.062  52.19   0
       502    795.3429    243.9036 307.6060525  +6.6012372     13198.82        20307      21718.1     80.74918     161.3701     322.8685      1.632     4.23     904.2901     56.87126      2187.34        48     1.644     1.133  41.15   0
       503    733.7098    239.6230 307.6317931  +6.6009373     695.7977     978.4108     936.9343     80.87726     161.1776     322.5157      1.745     5.32     904.1961     56.87126     110.7903         8     1.346     0.594  52.16   0
       504    475.2543    239.2728 307.7391433  +6.5923984     1513.154     2268.422     3210.572     80.74918     161.2418     322.5799      1.768     4.00     904.0189     56.87126     247.0135        12     1.174     0.691  60.97   0
       505    157.5093    237.9566 307.8711438  +6.5822349     2328.262     3770.243     4017.735     80.87725      161.306     322.7403      1.816     4.76     917.8365     56.87126     307.6912        18     1.510     0.761  54.69   0
       506    132.4260    237.0969 307.8815894  +6.5817432     1154.457     1808.252     2105.884     81.00512     161.1134     322.5478      1.759     4.65     918.7322     56.87126      159.228        13     1.226     0.749  55.02   0
       507    184.2250    235.8410 307.8601207  +6.5840099     651.1448     697.4807     435.7866     80.49242     161.2418     322.4194      1.302     3.02     916.7016     56.87126     116.9869         6     0.742     0.567 -33.96   0
       508    931.6360    234.1407 307.5497740  +6.6098353     1507.998     2161.408     2538.997     80.87726     161.3701      322.612      1.637     4.97     899.8626     56.87126     222.1793        15     1.458     0.708  53.14   0
       509    556.1645    230.6873 307.7058295  +6.5986642     2056.202     3324.672     3050.957     80.87726     161.2418      322.644      1.728     4.37      903.806     56.87126     283.0753        23     1.545     0.990  51.55   0
       510    314.2104    231.3537 307.8062906  +6.5902458     1023.212     1480.692      711.895     80.36375     161.2418     322.3231      1.585     5.77     911.0083     56.87126     135.0853        11     1.324     0.719  64.70   0
       511    593.4343    230.4493 307.6903590  +6.6000151     4560.341     6867.998     7050.999     80.74918     161.3701     322.5799      1.650     4.07     903.7191     56.87126     674.9933        27     1.561     0.880  53.01   0
       512    398.0436    229.5756 307.7715349  +6.5938038      1384.24     2105.825     1875.093     80.36374      161.306     322.5157      1.596     4.77     906.9474     56.87126     195.9795        11     1.184     0.616  63.46   0
       513    954.3243    227.6735 307.5405674  +6.6132654     2629.008     3785.664     3996.795     81.13279     161.6265     322.6761      1.581     4.85     898.8646     56.87126     441.2421        20     1.559     0.724  51.03   0
       514    900.4237    227.1002 307.5629729  +6.6116971     11626.64     17130.38     17516.91     81.13279     161.1134     322.4194      1.566     3.93     900.7123     56.87126     1951.297        35     1.576     0.902  52.81   0
       515    575.9182    227.3171 307.6977388  +6.6007197     795.8605     1294.311     1006.631     80.62091     161.6265     322.7403      1.637     4.71     903.6542     56.87126     123.2399         8     1.058     0.670  53.61   0
       516    327.9989    227.3301 307.8006998  +6.5923717      881.504     1595.134     1615.386     80.23485     160.9205     322.4836      1.778     4.62      910.071     56.87126     143.7871         8     1.263     0.480  42.43   0
       517    987.0292    224.9403 307.5270755  +6.6154886     9945.559     14682.92     15029.88     80.62091     161.3701      322.612      1.526     3.98     897.5494     56.87126      1533.94        30     1.565     0.837  50.43   0
       518    219.8518    226.8047 307.8456300  +6.5889429        606.3      950.487      1137.14     80.23485     161.1776     322.2589      1.886     3.74     915.0347     56.87126      111.538         5     0.901     0.446  46.45   0
       519    698.4809    224.8270 307.6469204  +6.6058644     2684.752     3883.741     3867.498     80.74918     161.1776     322.6761      1.582     4.18     903.8204     56.87126     420.1334        20     1.416     0.827  54.09   0
       520     26.5437    223.5767 307.9260159  +6.5837490     24877.24     39312.08     40808.83     80.49243     161.3701     322.4515      1.746     4.27     923.3552     56.87126      3453.04        51     1.695     1.050  51.76   0
       521    272.7722    224.1512 307.8237421  +6.5918230     1072.578     1779.284     1439.416     80.49242     161.4343     322.5799      1.700     5.90     913.0882     56.87126     162.3417        13     1.539     0.636  43.91   0
       522    506.9685    219.7324 307.7266290  +6.6015334     1925.723     2968.458      2653.73     80.74918     161.3701      322.612      1.673     4.94     903.1519     56.87126     279.8358        18     1.568     0.795  46.69   0
       523    891.1699    215.7055 307.5671978  +6.6160922     2120.011     3220.722     3417.851     81.00513     161.1134     322.5478      1.626     4.59     900.4799     56.87126     305.5979        18     1.363     0.841  60.18   0
       524    838.8629    216.4534 307.5888973  +6.6140306     2079.082     3067.978     3158.323     80.87726      161.306      322.612      1.512     4.80     901.9865     56.87126     314.5475        15     1.487     0.636  53.98   0
       525    519.0804    215.7259 307.7217334  +6.6035950     2517.881     4006.935     4156.781     81.13279     161.6265     322.7082      1.721     4.47     903.0997     56.87126     362.4992        21     1.549     0.861  48.05   0
       526    750.5637    213.0058 307.6256857  +6.6124932     39727.28     60867.79      63100.3     79.97645     161.1134     322.4194      1.622     4.24     903.0372     56.87126     6365.685        56     1.678     0.967  51.57   0
       527    353.6553    212.3378 307.7905494  +6.5994263     5505.958     11950.45     13123.74     81.00513     161.3701      322.644      2.226     6.64     908.3837     56.87126     602.3925        49     2.108     1.264  84.83   0
       528    984.3071    211.8814 307.5286429  +6.6207897     2878.685      4315.28     3874.956     80.62091     161.6905     322.7082      1.527     4.22     897.1544     56.87126     496.0773        20     1.427     0.860  47.73   0
       529   1022.6219    210.4539 307.5127771  +6.6226612     1767.671     2721.593     2395.793     79.97645      143.153     259.5723      1.569     4.77     895.7307     56.87126     289.8408        15     1.521     0.667  49.38  24
       530    918.4816    210.1500 307.5560403  +6.6193009     7581.496     11397.19     11760.68     80.87726     161.4343     322.6761      1.583     4.28     899.3206     56.87126     1237.758        28     1.567     0.834  51.96   0
       531    462.0643    209.2837 307.7456293  +6.6043371     5028.775      7872.16      8058.87     81.00513     161.4984     322.7082      1.693     3.80      903.462     56.87126     672.4167        31     1.481     1.048  49.84   0
       532    328.2349    208.5515 307.8012340  +6.6001333     474.1637      670.615     351.9085     80.74918     161.3701     322.5799      1.432     4.26     910.1229     56.87126     79.36426         5     0.801     0.706  62.53   0
       533    236.5032    205.6714 307.8394270  +6.5982303      664.015     843.8839     824.7252     80.74918     161.4984     322.6761      1.656     5.68     914.3619     56.87126     113.1695         8     1.425     0.655  45.86   0
       534    119.4116    200.5270 307.8882276  +6.5964030     4821.717     7556.047     7725.975     80.36375     160.9848     322.4836      1.688     4.09     918.3444     56.87126     710.7566        27     1.588     0.896  56.57   0
       535    938.8388    199.7367 307.5479338  +6.6242823     780.7512     1450.312     1970.363     80.87726      161.306     322.7082      2.315     5.12     898.1837     56.87126     142.5105         9     1.395     0.530  60.23   0
       536    289.6886    197.1617 307.8176258  +6.6035370     32927.17      52830.7     55693.43     80.87726     161.2418     322.6761      1.724     4.21     912.8896     56.87126     4464.645        61     1.712     1.122  52.56   0
       537    616.1460    199.0665 307.6819801  +6.6137362     600.9888     1113.577     1504.752     80.87726      161.306      322.612      2.469     4.89     902.6058     56.87126     96.62335         8     1.256     0.540  77.96   0
       538    265.0110    198.2240 307.8278386  +6.6022665     6409.062     10123.48     10420.38     80.49243     161.1776     322.5478      1.662     4.16     913.5963     56.87126     880.0878        33     1.550     1.010  50.69   0
       539    719.0389    197.0261 307.6393146  +6.6180335      831.092     1192.905     1050.975     80.49243     161.1776     322.4836      1.422     5.27     902.6095     56.87126      145.366        11     1.313     0.803  64.76   0
       540    413.7555    192.6667 307.7662513  +6.6095723     49858.57     77981.74     81916.66     80.87726      161.306     322.6761      1.699     4.11     904.7649     56.87126     6697.688        67     1.695     1.118  51.50   0
       541    169.6828    193.8839 307.8675744  +6.6008429     3871.319     6250.886     6651.306     80.62091     161.6265     322.7403      1.690     4.30     916.0161     56.87126     497.7552        27     1.598     0.924  51.28   0
       542    431.1633    193.2188 307.7590030  +6.6099303     1381.781     2244.593     1976.045     80.49242     161.1776     322.4194      1.560     4.68     904.0721     56.87126     206.6061        17     1.554     0.782  50.85   0
       543    317.7624    190.3709 307.8061953  +6.6072871     17715.82     28093.13      29909.6     80.49243     161.1134     322.5157      1.705     4.10     910.9704     56.87126     2305.639        46     1.659     1.061  49.87   2
       544    325.3274    190.4032 307.8030525  +6.6075287     2161.955     3822.352     5455.688     80.36375     160.9205     322.4836      2.217     6.95     910.4623     56.87126     265.6812        25     1.862     1.197  89.49   2
       545    752.9896    188.9196 307.6254857  +6.6225199     32805.57     50357.36     52209.31     80.49243     161.0491     322.4836      1.595     4.17     901.8776     56.87126     4727.149        52     1.629     1.000  50.43   0
       546    701.2239    190.6189 307.6469285  +6.6200812     971.4701     1260.677     1244.343     80.62091     161.2418     322.5478      1.458     5.05     902.5137     56.87126     169.2031         9     1.213     0.595  67.06   0
       547    584.4550    192.1575 307.6953740  +6.6155241     448.2358     492.7258     671.2673     80.74918     161.3701      322.644      1.014     2.26     902.3083     56.87126      119.899         5     0.697     0.460  68.73   0
       548    801.6663    189.4858 307.6052496  +6.6239187     1292.126     1734.545     1878.671     80.87726     161.6265     322.7082      1.519     4.40     901.0198     56.87126     198.7352        13     1.138     0.809  54.62   0
       549     41.2183    189.6371 307.9210677  +6.5982580      562.786     810.6166     738.7346     80.49243     161.1776     322.4194      1.424     4.22      922.354     56.87126     93.37445         6     1.091     0.465  56.86   0
       550     69.8352    186.0515 307.9093045  +6.6007054     9064.618      14199.4     14269.57     80.74918     161.3701     322.5478      1.664     4.20     920.6558     56.87126     1256.658        33     1.591     0.975  53.03   0
       551    103.8123    184.2890 307.8952537  +6.6025808     1549.101     2094.019     1785.349     80.62091     161.1134     322.5478      1.456     4.16     918.7277     56.87126     247.5728        12     1.228     0.653  55.25   0
       552   1011.6231    183.4352 307.5182488  +6.6334495     1069.814     1734.541      1959.79     80.36375     161.1134     322.4194      1.719     5.72     895.1608     56.87126      185.903        12     1.402     0.658  56.42   0
       553    978.6160    182.0925 307.5320030  +6.6328994     615.8303     927.7257     666.2573     80.62091     161.1776     322.4836      1.680     5.31     896.1448     56.87126     78.55249         7     1.106     0.719  51.60   0
       554    737.7090    176.8128 307.6322381  +6.6270062      713.571     874.6186     817.7526     80.62091     161.1134     322.4194      1.423     5.22      901.653     56.87126     108.2667         7     1.135     0.677  32.77   0
       555   1012.4138    169.4738 307.5183872  +6.6392408     2198.659     3524.396      4525.44     80.36375     161.1134     322.4515      1.887     4.32     894.6684     56.87126     365.1739        18     1.577     0.721  58.92   2
       556    586.6902    173.1463 307.6950841  +6.6234490     701.4432     1152.831     1267.299     80.74918     161.1776     322.7723      1.469     4.93     901.5611     56.87126     121.4672         9     1.581     0.434  40.52   0
       557      3.2241    171.1314 307.9374711  +6.6046146     919.2186     1334.546     888.5847     80.49242     152.8727     272.4887      1.584     4.57     924.4636     56.87126     137.7267         9     1.224     0.662  44.16  24
       558    595.6712    167.2856 307.6915508  +6.6261707     990.6687     1391.183     1649.606     81.00513     161.6265     322.6761      1.521     4.46     901.3054     56.87126     171.7234        10     1.200     0.602  76.04   0
       559    288.5807    163.4431 307.8192216  +6.6174219     29715.65     47448.51     49980.46     80.36375     161.2418     322.4194      1.753     4.32     913.5181     56.87126      3980.75        57     1.705     1.115  51.65   0
       560    603.9243    165.2937 307.6881900  +6.6272704     1978.921     2947.582     3256.763     80.74918     161.5624      322.644      1.574     4.25     901.2072     56.87126     322.3076        14     1.373     0.614  53.82   0
       561    348.1441    165.7193 307.7944074  +6.6184892      931.223     1492.989     1670.838     81.00513     161.3701     322.6761      1.803     3.44     908.8238     56.87126     148.1922         9     0.925     0.649  66.50   0
       562     33.9157    161.9671 307.9250347  +6.6094358      4506.12     7207.396     7993.693     80.87726     161.1776      322.612      1.738     4.16     922.5601     56.87126     592.8611        32     1.664     1.056  61.82   0
       563    720.1636    160.0122 307.6400888  +6.6333545     7984.436     12205.87     13109.84     80.36375     161.1776     322.3552      1.615     4.34     901.1544     56.87126     1322.013        36     1.784     0.901  50.33   0
       564    198.0717    161.4194 307.8568791  +6.6152051      917.514     1123.038     815.2515     80.49242     161.2418     322.5799      1.300     4.67     914.7858     56.87126      139.542         9     1.113     0.577  59.56   0
       565    274.2729    158.3252 307.8253362  +6.6190527     650.1384     1210.423     1396.643     81.13279     161.6265     322.7082      2.167     5.92     913.7767     56.87126     106.5894         9     1.445     0.683  44.92   0
       566    131.0212    157.2037 307.8848676  +6.6146826     4655.473     7625.633     8239.772     80.49243     161.0491     322.4194      1.739     4.31     916.7172     56.87126     649.0622        31     1.621     0.978  52.04   0
       567    659.3966    153.9356 307.6655316  +6.6338236      821.563     1254.201     1235.779     80.23485     161.1776     322.4194      1.789     4.20     901.2501     56.87126     120.9845        10     1.077     0.727  80.19   0
       568    592.8752    155.1138 307.6931208  +6.6311025      713.791     1011.499     1315.683     81.00513     161.6905     322.7082      1.582     4.47     901.0061     56.87126     116.9197         6     1.255     0.453  36.32   0
       569    470.1119    154.3711 307.7441332  +6.6272812     1246.027     1743.373     1717.647     81.00513     161.1134     322.5157      1.528     4.29     901.6355     56.87126     192.1449        12     1.383     0.597  55.11   0
       570    401.7082    153.0898 307.7725862  +6.6255079     3758.139     6588.059      7159.12     80.87726     161.8824     322.7403      1.888     4.73     904.3694     56.87126     500.0515        31     1.734     1.057  56.40   0
       571    366.1133    152.1449 307.7874013  +6.6246993      3203.54     5116.872      5569.57     80.87725      161.306     322.8044      1.740     4.10     907.3895     56.87126     477.1064        24     1.492     0.958  49.04   0
       572    120.5606    151.7995 307.8893943  +6.6165608     1647.737     2915.633     3091.512     79.97645     161.1134     322.3552      1.836     4.44     917.0811     56.87126     248.8431        19     1.503     0.823  65.84   0
       573    578.9277    152.1984 307.6990116  +6.6318375      677.715     1515.068     1543.269     80.36374     160.9205     322.4836      2.346     5.06     901.0281     56.87126     87.93103         8     1.079     0.671  54.03   0
       574    682.0106    149.6960 307.6562814  +6.6363334     817.2484     1083.547     1118.238     80.62091     160.9848     322.4194      1.519     5.34      901.084     56.87126     112.9623         9     1.082     0.744  43.84   0
       575   1013.0753    146.3473 307.5188858  +6.6488121     1685.483     2533.707     2700.763     80.87726     161.4343      322.644      1.600     4.90     893.4791     56.87126     284.3511        14     1.375     0.637  48.50   0
       576    739.2097    146.6449 307.6326264  +6.6395130     625.1412     842.3321     852.7747     80.36375     161.2418     322.3552      1.121     3.62     900.4047     56.87126     111.9724         5     1.187     0.317  77.13   0
       577    217.9728    140.9080 307.8493053  +6.6243454     5366.772     8548.851     8687.321     81.00513     161.1134     322.5157      1.675     4.30     914.5494     56.87126     731.4131        31     1.584     0.979  56.72   0
       578    679.8384    139.9011 307.6575122  +6.6403049     6242.627     9667.837     10285.57     80.87725     161.2418     322.8685      1.613     4.29     900.6726     56.87126     862.9338        29     1.593     0.886  53.60   0
       579    100.7433    140.8616 307.8979936  +6.6204076     2119.481     3374.394     3479.807     81.00513      161.306     322.6761      1.680     4.31     917.5867     56.87126     281.3695        20     1.505     0.809  46.50   0
       580    827.9769    139.6668 307.5959910  +6.6453715     1145.021     1758.613     1905.718     80.49242     161.3701     322.5799      1.593     4.70     897.8678     56.87126     166.8158        13     1.495     0.692  57.54   0
       581    631.9387    137.1329 307.6774999  +6.6398393     9298.883     14807.07     16163.16     80.87726      161.306      322.644      1.684     4.40     900.6594     56.87126     1317.016        38     1.625     0.978  55.35   0
       582    267.1151    137.7781 307.8290011  +6.6272951     755.0679     1265.123      1329.02     80.74918     161.0491     322.5799      1.407     5.54     913.8769     56.87126     107.8811        10     1.422     0.607  54.56   0
       583     30.7461    136.3238 307.9272169  +6.6199163      974.655     1732.025     1152.533     81.00513     161.3701      322.644      1.820     5.99     921.5939     56.87126     122.5014        13     1.396     0.916  45.17   0
       584    359.1803    132.7385 307.7909340  +6.6324786     3429.719     5998.673     6065.112     80.49243     161.3701     322.5478      1.831     4.53     908.0712     56.87126        464.9        32     1.612     1.348  88.10   0
       585   1005.7511    132.2273 307.5224002  +6.6543974     783.5038     1195.929     1428.238     80.49243     161.3701     322.5799      1.815     3.71     892.9158     56.87126     161.1469         7     1.089     0.596  54.16   0
       586    540.9786    132.1296 307.7154474  +6.6388482     1702.437     2711.733     2593.229     80.49243     161.2418      322.612      1.642     4.48     901.0997     56.87126     243.7358        18     1.410     0.867  50.46   0
       587    635.4830    128.6185 307.6763137  +6.6434739     52651.91     81066.82     84892.82     80.49243     161.0491      322.612      1.676     4.20     900.4468     56.87126     7855.088        62     1.695     1.020  53.37   0
       588    314.6331    122.3286 307.8097861  +6.6352758     3441.947     5570.748     5787.066     80.74918     161.3701     322.6761      1.764     4.43     911.5578     56.87126     461.9836        27     1.586     0.948  51.49   0
       589    714.5740    116.7546 307.6438613  +6.6510281     1021.865     1323.481      1180.73     80.36375     161.4343     322.5157      1.467     4.16     899.4071     56.87126     160.1127         9     1.139     0.583  61.58   0
       590     11.9753    105.2909 307.9360606  +6.6320947     720399.3      1599761      1745108     81.00512     161.1776     322.4836      2.237     9.38     921.3751     56.87126     61308.91       417     2.265     1.744  55.17  28
       591    685.9983    115.8782 307.6557597  +6.6504308     1268.909      1979.58       2095.7     80.23486     160.7919     322.4194      1.509     3.81     899.5944     56.87126     204.7915        12     1.328     0.671  51.54   0
       592    699.9468    112.6266 307.6500752  +6.6522416     3196.796     4578.965     4866.006      80.6209     161.4984     322.5478      1.575     4.17     899.3571     56.87126     472.9021        20     1.435     0.774  52.17   0
       593    441.6157    103.5435 307.7576779  +6.6473088     4020.109     6307.584      6494.99     80.23486      161.306     322.3873      1.713     4.19     902.3006     56.87126     541.4828        26     1.549     0.926  52.10   0
       594    914.1574     99.0496 307.5615552  +6.6650304     3889.281     5893.526     5951.354     81.00513      161.306      322.644      1.532     4.17     894.6895     56.87126     642.3422        23     1.538     0.759  54.15   0
       595    896.1187     99.8157 307.5690223  +6.6641098     2119.268     3395.232     3379.181     80.49242     161.1134     322.5157      1.549     4.44     894.7899     56.87126     369.7643        16     1.486     0.644  52.63   0
       596    594.4022     99.4180 307.6943569  +6.6541506      834.665     1253.634     912.0037     80.49243     160.9205     322.3873      1.439     4.60     900.3385     56.87126     148.8167         9     1.223     0.611  36.79   0
       597    606.3523     97.5912 307.6894548  +6.6553064     1775.601     2693.035     2551.173     80.36375     161.2418      322.291      1.644     4.29     900.1696     56.87126     297.4177        16     1.382     0.739  49.97   0
       598    252.5152     96.4437 307.8364575  +6.6438693      880.136     1455.449     1575.053     80.87726     161.2418      322.612      1.863     6.96     914.0545     56.87126     119.5715        12     1.409     0.963 -80.58   0
       599    626.8529     97.3583 307.6809476  +6.6560914     566.6026     651.8378     195.8103     80.87726     161.4343     322.6761      1.441     4.64     899.7673     56.87126     75.74628         6     0.964     0.634  31.67   0
       600    405.1238     95.3137 307.7731114  +6.6494784     1995.372     3121.751     3050.848     80.87726     161.6905     322.7082      1.648     4.55     904.2025     56.87126     261.0912        17     1.428     0.802  51.24   0
       601    153.0718     92.3463 307.8778974  +6.6422058     3129.906      4904.25     4635.639     80.74918      161.306     322.5799      1.679     4.24     914.5634     56.87126     465.4933        23     1.492     0.866  54.94   0
       602    301.2833     90.9247 307.8163884  +6.6477923     1414.635     2376.503       2973.4     81.00513     161.6905     322.7082      1.918     5.07     912.5892     56.87126     228.4709        19     1.474     0.918  65.32   0
       603     34.8249     90.0515 307.9270855  +6.6391591     12212.39     19248.52     20975.52     80.49243     161.3701     322.5478      1.685     4.21     919.1303     56.87126     1699.783        39     1.664     0.978  50.41   0
       604    575.3262     90.7456 307.7025715  +6.6570903     549.3891     894.5376     777.1558     80.74918      161.306     322.5799      1.737     3.47     900.4496     56.87126     103.9947         5     0.779     0.446 -76.87   0
       605    769.7854     89.2802 307.6218500  +6.6642250     709.5493     1254.562     1987.464     80.49243     161.1134     322.4515      2.743     5.78     897.4668     56.87126     119.5247         9     1.520     0.619  50.77   0
       606    561.5130     89.2713 307.7083584  +6.6572347     746.9087     1027.365     851.1787     81.00513     161.6265      322.644      1.617     4.93     900.6046     56.87126     127.0037         7     1.121     0.614  32.73   0
       607    903.7294     86.1693 307.5663179  +6.6699994     618.2403     812.2069     511.1485     80.74918     161.3701      322.612      1.307     5.05     894.5148     56.87126     101.9983         7     1.272     0.568  54.59   0
       608    781.6718     85.1999 307.6170496  +6.6663084     3314.484     4961.527     4612.169     80.23486     160.8562     322.4194      1.592     3.99     897.0493     56.87126     553.4373        23     1.573     0.769  52.82   0
       609    836.5588     84.7398 307.5942666  +6.6683388     6403.186     9570.207     9913.039     80.87726     161.3701     322.7403      1.584     4.33     895.5151     56.87126     977.6246        27     1.503     0.882  54.69   0
       610    426.8256     85.5596 307.7644258  +6.6542364      1058.35     1746.369     1791.084     80.49243     161.1776     322.4194      1.683     5.05     902.9329     56.87126     154.8445        10     1.287     0.561  54.28   0
       611    106.8628     85.6867 307.8973139  +6.6433952     494.7333     644.4849     682.5399     81.00513     161.5624     322.6761      1.790     4.38     915.4018     56.87126      83.2887         5     1.202     0.454  56.33   0
       612    544.2520     83.4499 307.7157234  +6.6590581     1154.541      1580.54     1583.789     81.00513     161.2418      322.612      1.481     4.82      900.782     56.87126     160.7195        11     1.250     0.669  46.62   0
       613     75.1869     81.9407 307.9105961  +6.6438719     3268.364     5214.226     5436.573     80.23485      161.306     322.3231      1.646     4.05     916.6674     56.87126      481.895        25     1.532     0.887  54.70   0
       614     59.4123     82.5368 307.9171276  +6.6430928     1025.772     1815.293     1795.724     80.36375     161.1776     322.4194      1.851     6.40     917.4951     56.87126     149.5355        15     1.705     0.675  47.12   0
       615    436.6417     82.1461 307.7604635  +6.6559762     889.2628     1101.615     1252.537     80.74918     161.4343     322.6761      1.493     5.36     902.6171     56.87126      124.033        10     1.025     0.792  49.94   0
       616    598.9915     78.9080 307.6931396  +6.6627734      1178.12     1655.436      1352.62     80.49243     161.0491     322.4515      1.485     5.45     899.8072     56.87126     165.9404        12     1.444     0.580  60.24   0
       617     17.5484     77.4013 307.9346880  +6.6437982     2480.526     3899.506     5099.427     80.23486     160.9848     322.1946      1.867     4.09     919.0903     56.87126     336.6124        22     1.514     0.861  53.32   0
       618    776.3309     72.6249 307.6196895  +6.6713216     1913.833     2911.563     3110.908     80.49243     161.2418     322.5799      1.614     4.19     896.6932     56.87126     309.4714        18     1.488     0.760  51.00   0
       619     90.0372     73.1963 307.9047235  +6.6479839     904.8614     1513.586     1011.843     79.97645     161.1776     322.4515      1.578     4.61     915.8375     56.87126     133.0638         9     1.173     0.553  45.57   0
       620    416.9799     72.4981 307.7689546  +6.6592979     1055.078     1708.791     2067.026     80.74918     161.1776     322.3873      1.910     5.49     903.5226     56.87126     151.0627        10     1.200     0.707  55.73   0
       621    114.5272     71.7417 307.8946012  +6.6494117     960.1279     1515.697      1816.58     81.00513     161.3701      322.612      1.948     4.21     915.1663     56.87126     134.3579        10     1.197     0.602  67.53   0
       622    102.9414     66.3142 307.8995963  +6.6512613     9327.646     14887.93     16172.14     80.87725     161.3701     322.7723      1.715     3.99     915.3951     56.87126     1241.614        38     1.653     1.002  51.97   0
       623    432.0974     66.0975 307.7628908  +6.6624496     2743.235     4311.457     4494.078     80.87726     161.8824     322.4836      1.655     4.14     903.0016     56.87126        355.1        20     1.480     0.833  53.23   0
       624    253.5649     66.2911 307.8370376  +6.6563544     713.0823     1148.221      1240.63     81.00513     161.2418     322.6761      1.705     5.14       913.67     56.87126     105.1359         8     1.633     0.457  64.43   0
       625    645.6612     58.3521 307.6744448  +6.6728288     18600.31     28073.48      28972.4     80.87726      161.306     322.7082      1.647     4.13     898.2031     56.87126     2838.666        41     1.638     0.941  50.63   0
       626    269.5990     60.2659 307.8305809  +6.6593828     1503.933     2452.955     3730.877     80.10575     160.9848     322.3873      2.249     5.13     913.3409     56.87126     201.6666        17     1.471     0.804  47.51   0
       627    545.4424     54.4941 307.7162019  +6.6710539     5271.316     8195.107     8361.015     80.87726      161.306     322.7723      1.690     4.20     900.3943     56.87126     750.4034        26     1.567     0.888  54.60   0
       628    631.9524     48.7693 307.6804607  +6.6763251     3138.493     5640.362     6498.391     80.49242     161.3701     322.5478      2.067     6.28     898.2722     56.87126      430.015        30     2.090     0.941  61.39   0
       629    450.9753     49.9861 307.7555917  +6.6697373     21892.16     35076.59     36571.95     80.62091     161.1776     322.5799      1.682     4.38     902.3364     56.87126     2991.178        46     1.684     1.012  52.70   0
       630    271.6142     50.3711 307.8300773  +6.6635362     9184.969     14304.06     15789.61     80.49243     161.1776     322.5478      1.708     4.24     913.1779     56.87126     1263.139        31     1.577     0.972  51.90   0
       631     12.7548     52.2937 307.9375269  +6.6540025     1137.208     2072.867      2168.07     80.74918      161.306     322.7723      1.802     5.57     917.2642     56.87126     160.6267        12     1.475     0.593  52.43   0
       632    331.6390     50.7438 307.8051334  +6.6654056     925.7126     1421.666     2128.034     80.87726     161.4343      322.612      1.721     4.13     910.1378     56.87126     166.7919        11     1.312     0.724  69.54   0
       633    928.7513     50.1594 307.5571298  +6.6857062     2032.064      2947.81     2943.051     80.74918      161.306     322.5799      1.517     4.04     893.9448     56.87126     327.7874        14     1.316     0.641  51.65   0
       634     37.0368     49.9445 307.9275212  +6.6557933     2306.573     3701.327     4037.612     80.74918     161.3701     322.6761      1.692     4.57     916.6345     56.87126      299.778        19     1.474     0.807  51.03   0
       635    564.5686     49.6374 307.7084207  +6.6737022     648.4239      905.791     540.2378     80.49243     161.1134     322.4515      1.473     3.75     899.8801     56.87126     107.4086         6     1.016     0.398  71.64   0
       636    263.6572     54.5286 307.8332422  +6.6615513     1860.639     3253.895     5116.027     81.00513     161.3701      322.612      2.262     4.38     913.3727     56.87126     265.3467        20     1.450     0.920  59.87   1
       637    259.5070     46.9591 307.8352210  +6.6645367     3085.677     5156.133     6169.633     81.00513      161.306     322.7403      1.867     4.65     913.3365     56.87126     409.5117        24     1.609     0.885  50.46   0
       638    312.8705     45.5821 307.8131028  +6.6669043     945.6343     1681.154     2420.825     80.36375     161.2418     322.5799      1.918     3.88     911.3209     56.87126     140.0414        10     1.155     0.708  56.69   0
       639    949.8365     40.1869 307.5487051  +6.6905300     1170.173     1349.613     1053.691     80.36374     161.1776     322.3552      1.284     5.17     892.0721     56.87126     232.2794        14     1.385     0.874  58.50   0
       640    700.8621     39.8406 307.6521369  +6.6823258     1894.112       2821.9     2620.836     80.87725     161.3701     322.6761      1.533     4.14       896.79     56.87126     269.4673        17     1.390     0.796  68.45   0
       641    266.6144     35.1144 307.8326681  +6.6696669     908.4315     1782.842     2208.829     80.49243     161.1134     322.5157      2.565     6.18     913.0662     56.87126     112.0424        12     1.409     0.762  63.96   0
       642    212.1363     35.7666 307.8552737  +6.6675601      814.978     963.2805     394.6545     80.74918     161.4343      322.612      1.279     3.58     913.7924     56.87126     135.7542         9     0.960     0.683 -74.94   0
       643    189.0755     32.3682 307.8649665  +6.6681851     10465.38     16296.01     16941.85     80.74918     161.4343      322.612      1.678     4.13     913.7481     56.87126     1509.212        38     1.661     0.970  51.53   0
       644      2.5410     32.5841 307.9424348  +6.6617949     1137.266     1467.804     1912.937     80.36375     145.0919     262.0327      1.502     4.76     915.7421     56.87126     160.1705        14     1.176     0.874  62.97  24
       645    934.7338     30.1528 307.5553145  +6.6941674     3980.254     5794.818     5663.221     80.87726      161.306     322.6761      1.542     3.96     893.1422     56.87126     648.0383        23     1.498     0.805  50.65   0
       646    533.4346     30.6030 307.7219925  +6.6805146     3023.308     4536.858     4464.001     79.97645     161.1776     322.3873      1.593     3.81     900.2533     56.87126     471.2748        21     1.428     0.834  61.09   0
       647    471.5062     29.1119 307.7477659  +6.6790471     1708.551     2655.725      2653.83     80.87725     161.8185     322.7082      1.704     4.51     901.4218     56.87126     248.4633        20     1.460     0.903  59.35   0
       648    735.6055     28.8291 307.6380745  +6.6880386     2050.487     2983.846     3208.425     80.36375     161.1776     322.4515      1.538     4.37     896.2234     56.87126     311.8029        17     1.451     0.748  50.74   0
       649    999.4547     26.6608 307.5285466  +6.6977759     1870.901     2904.726     2389.663     81.00513      161.306      322.612      1.730     4.47     887.2746     56.87126     311.0026        18     1.610     0.747  63.54   0
       650    718.8342     22.9442 307.6452385  +6.6899056     7451.986     11488.46     11925.13     80.74918     161.3701      322.644      1.627     4.37      896.126     56.87126     1085.127        31     1.583     0.894  53.46   0
       651    983.9532   1021.9100 307.5017145  +6.2863029     592.0689     980.1446     544.5691     80.87726     151.3075     270.5829      1.746     4.16     923.1012     56.87126     114.8988         5     1.107     0.654  14.49  16
       652    341.1331     22.0849 307.8021549  +6.6775585     1001.967     1730.236     2465.892     81.00513     161.6265     322.6761      2.408     5.31     909.4814     56.87126     141.6909        13     1.492     0.785  30.48   0
       653    555.6783   1014.4726 307.6797217  +6.2750168     4308.856     6982.737     8039.686     81.13279     161.6265      322.644      1.821     4.37     932.2354     56.87126     612.4343        28     1.565     0.990  53.03  16
       654    395.0571     20.1725 307.7798211  +6.6801646     832.7261     1348.972     1055.042     80.49243     161.4343     322.5478      1.881     5.54     905.8898     56.87126     129.2546        10     1.440     0.601  43.62   0
       655    525.9289   1015.6688 307.6920290  +6.2735234      1141.15     1731.943     1972.888     80.87725     161.4984      322.612      1.885     5.36     932.4382     56.87126     162.5819        13     1.137     0.941  50.93   0
       656    686.1107     17.3067 307.6590205  +6.6911348     744.2802     841.1013     935.3599     80.87726     161.8824     322.7082      1.316     5.18     896.1131     56.87126     124.7675         9     1.287     0.588  55.45   0
       657    515.1247     15.6635 307.7301001  +6.6860673     762.8866     1097.848     1242.284     81.13279     161.3701      322.612      1.724     4.69     900.3904     56.87126     132.2719         8     1.089     0.572  60.88   0
       658    760.2147   1013.9078 307.5948473  +6.2821142     7631.702     12295.27     13078.02     80.62091     161.1776     322.4515      1.718     4.20     927.8598     56.87126     1042.123        34     1.633     0.993  49.56  16
       659    305.9388   1013.0052 307.7834229  +6.2672230     14549.14     23372.44     25663.07     80.23486     161.1776     322.4194      1.723     4.13     934.6948     56.87126     2136.879        62     1.615     1.551  66.06   0
       660      2.2446   1014.0612 307.9094271  +6.2565452     829.1116     1165.282     1139.826      79.7172     141.5535     257.8521      1.468     5.35     932.6945     56.87126     112.7349        10     1.258     0.641  51.60  24
       661    821.6578   1013.2633 307.5693663  +6.2844397     1179.404     1704.496      1914.42     81.00513      161.306     322.6761      1.656     4.15     925.6699     56.87126     160.6353        13     1.235     0.695  55.29   0
       662    430.2896   1013.6388 307.7317915  +6.2711463     975.4129     1408.261     907.0155     80.87726      161.306     322.6761      1.540     5.54     933.7939     56.87126     129.4521        12     1.289     0.728  42.64   0
       663    277.4021   1010.4934 307.7953510  +6.2672990      972.216     1242.697     1306.236     80.36375     161.0491     322.3231      1.488     5.92     934.8266     56.87126     113.5597        12     1.248     0.790  68.68   0
       664    921.4517   1007.1919 307.5281485  +6.2902888     8326.167     13797.16     15275.59     80.36375     161.2418      322.291      1.827     4.29     923.4444     56.87126     1086.272        43     1.746     1.112  49.33   0
       665    552.8421   1006.6483 307.6811614  +6.2781523     8348.731     12830.31     13049.15     80.87726      161.306     322.5799      1.658     4.19      932.134     56.87126     1189.818        31     1.566     0.953  55.86   1
       666     51.1528   1006.3870 307.8893883  +6.2613652     611.0771     816.7141     609.1821     80.23485     161.1776     322.3873      1.539     6.61      932.832     56.87126      88.5401        10     1.333     0.920  69.69   0
       667    895.1600   1003.4801 307.5391854  +6.2909413     11724.76      19526.2     21312.77     80.87726     161.4343     322.5799      1.806     4.24     923.9767     56.87126     1493.052        49     1.745     1.176  47.16   0
       668   1016.8676   1002.9070 307.4886875  +6.2952505     4600.088      7910.99      7622.16     80.74918     161.5624     321.7124      1.796     4.15     921.8181     56.87126     612.4143        35     1.672     1.088  56.82  16
       669    607.8972   1003.6762 307.6584103  +6.2812285     1227.115     2014.059     2201.594     80.49243     161.6265     322.6761      1.726     6.47     931.3617     56.87126     169.0602        15     1.591     0.738  58.87   0
       670      4.9095   1005.4809 307.9086105  +6.2601779     669.8124       889.62     820.2804     80.62091     161.6265     294.3976      1.450     4.28     932.7094     56.87126     103.4056         5     0.970     0.538  45.63  16
       671    539.4102   1002.4119 307.6868784  +6.2794503     3993.338     6282.909     7372.463     80.62091     161.1776      322.612      1.797     4.03     932.1808     56.87126     636.6789        31     1.861     1.039  30.44   0
       672    649.1290   1002.0106 307.6413527  +6.2833004     1441.644     2268.418     2422.105     80.36375     160.9848     322.4836      1.633     4.55     929.8602     56.87126     232.7473        15     1.415     0.790  48.72   0
       673    804.8344   1000.2346 307.5767850  +6.2892558     606.6796     575.1892        313.9     80.62091     161.1134     322.3873      1.358     3.53     925.7692     56.87126     84.49292         5     1.129     0.318  79.80   0
