#   1 NUMBER                 Running object number                                     
#   2 X_IMAGE                Object position along x                                    [pixel]
#   3 Y_IMAGE                Object position along y                                    [pixel]
#   4 ALPHA_J2000            Right ascension of barycenter (J2000)                      [deg]
#   5 DELTA_J2000            Declination of barycenter (J2000)                          [deg]
#   6 FLUX_APER              Flux vector within fixed circular aperture(s)              [count]
#   9 FLUXERR_APER           RMS error vector for aperture flux(es)                     [count]
#  12 FLUX_RADIUS            Fraction-of-light radii                                    [pixel]
#  13 FWHM_IMAGE             FWHM assuming a gaussian core                              [pixel]
#  14 BACKGROUND             Background at centroid position                            [count]
#  15 THRESHOLD              Detection threshold above background                       [count]
#  16 FLUX_MAX               Peak flux above background                                 [count]
#  17 ISOAREA_IMAGE          Isophotal area above Analysis threshold                    [pixel**2]
#  18 A_IMAGE                Profile RMS along major axis                               [pixel]
#  19 B_IMAGE                Profile RMS along minor axis                               [pixel]
#  20 THETA_IMAGE            Position angle (CCW/x)                                     [deg]
#  21 FLAGS                  Extraction flags                                          
         1     27.0304     71.2618 307.9358921  +6.6322606     709834.9      1432504      1541170      77.6264     155.3764     310.5983      2.098    11.65     824.7384     54.75889     60882.46       431     2.237     1.691 -40.87   4
         2    646.6724     13.8984 307.6803273  +6.6766747     3464.964     4952.012       5521.1      77.6264     155.4998     310.6601      1.475     3.77     815.5895     54.75889      563.925        18     1.389     0.711 -43.17   2
         3    465.8109     15.8628 307.7554207  +6.6698268     24323.76     35565.37     36818.19     77.37878      155.191     310.4747      1.515     3.82     817.0823     54.75889     4020.818        41     1.555     0.874 -40.76   0
         4    286.4520     16.2744 307.8299394  +6.6636590     10190.99     14684.42     15326.17     77.87322     155.4381     310.6601      1.546     3.97     822.6186     54.75889     1510.276        33     1.489     0.919 -39.66   0
         5    943.4564     15.9533 307.5569233  +6.6857076     2103.098     3323.427     2986.038     77.87322     155.3764     310.7527      1.639     4.36     813.6079     54.75889     279.7973        20     1.487     0.826 -42.75   0
         6     51.7437     15.9925 307.9274782  +6.6559097     2448.112     3471.079     3367.524     77.25468     155.2528     310.4438      1.421     3.34     821.0234     54.75889      375.241        21     1.384     0.808 -41.83   0
         7    274.2870     12.8463 307.8351092  +6.6646672     3341.723     4855.625      5613.81     77.87322     155.2528     310.6601      1.537     4.01     822.0464     54.75889     526.0436        21     1.472     0.764 -41.51   0
         8    327.4714     10.8998 307.8130739  +6.6672508     1139.247     1526.691      1482.35      77.6264     155.4998     310.6909      1.383     3.80     822.7568     54.75889     217.9722        12     1.308     0.610 -38.61   0
         9    964.3775      5.9840 307.5485605  +6.6905194     1223.725     1635.495     1705.638      77.6264      155.191     294.5519      1.469     5.29     812.6925     54.75889     206.9325        11     1.208     0.662 -52.01  16
        10    715.6677      5.4369 307.6519372  +6.6824684     1988.555     2885.035     3142.324     77.74991     155.3764     289.2928      1.496     4.30     815.3192     54.75889     334.1578        16     1.298     0.688 -40.06  16
        11    120.4268      5.7670 307.8992814  +6.6624354     601.2209     925.0345     1185.657     77.37878     155.1291     292.3284      1.698     4.43     817.6777     54.75889     85.03223         7     1.239     0.451 -50.32  16
        12    226.1796      1.6944 307.8554735  +6.6676609     654.3376     694.3405     756.3821     71.84901     128.6915      239.421      1.227     3.74     819.4775     54.75889     145.8432         6     0.942     0.427 -38.55  24
        13    280.6786      1.3732 307.8328374  +6.6696183     514.3137     643.5875     990.2316     68.00693       124.06     234.2759      0.946     2.84      822.337     54.75889     124.6564         5     0.707     0.470 -12.57  24
        14    457.4035   1005.2283 307.7258723  +6.2610286     3937.378     5873.182     6488.253     77.37878     155.1291     310.5056      1.610     3.68     848.0145     54.75889     541.1636        26     1.491     0.892 -38.45   0
        15    825.0433   1023.4258 307.5726099  +6.2657653      7029.34     9447.822     9459.326     70.36464     127.0406     237.5703      1.363     4.91     845.9221     54.75889     1381.339        20     1.444     0.700  -8.40  24
        16     95.7449   1023.7414 307.8754182  +6.2412901     2932.857     3673.318     3980.662     67.01199     122.5034     232.6318      1.113     2.98      842.717     54.75889     727.8159        11     1.248     0.432  -3.45  24
        17    734.7406   1004.2526 307.6107450  +6.2706773     1277.343     1994.622     2689.936     77.87322     155.3146     310.6601      1.722     4.58     846.1298     54.75889     168.9414        17     1.477     0.826 -48.13   0
        18    598.7032   1003.9932 307.6672415  +6.2662524     3904.251     6475.199     7286.323      77.6264     155.0054     310.4129      1.771     4.06     848.0093     54.75889     489.9722        30     1.637     1.031 -42.49   0
        19    774.6528   1000.5038 307.5942965  +6.2735537     1180.243     2115.609     2794.471     77.74991     155.3764     310.9071      1.823     5.27     845.6227     54.75889     147.4005        17     1.464     0.862 -36.88   0
        20    982.1148    994.5502 307.5083458  +6.2829092     5531.162     10588.74     11280.65     77.87322     155.3764     310.7527      2.027     4.66     842.4664     54.75889     619.4352        43     1.761     1.299 -44.56   0
        21    266.7590    994.5342 307.8053893  +6.2590741     1337.515     2205.132     2337.497     77.87322     155.3146     310.7527      1.768     4.56     846.0411     54.75889     175.5024        17     1.360     0.892 -42.67   0
        22    736.3984    995.1856 307.6103584  +6.2744764     891.8496     1479.103     1666.005     77.50269     155.0673     310.4438      1.512     3.69     846.0046     54.75889     150.0975         6     1.181     0.331 -38.46   3
        23    741.8138    992.7183 307.6081917  +6.2756755     2621.022      4508.18     5267.679     77.50269     155.1291     310.4747      1.923     5.65     845.9041     54.75889     338.3748        27     1.734     0.964 -43.93   2
        24    464.8262    993.4034 307.7231848  +6.2661590      822.845     1167.234     1640.091     77.37878     155.1291     310.5056      1.381     4.55     847.6802     54.75889     131.4747         8     1.136     0.519 -54.08   0
        25    757.5149    991.6779 307.6017066  +6.2766277       1016.9     1790.821     2008.661     77.87323     155.6848     310.7527      1.991     6.64     845.6539     54.75889     146.1407        14     1.359     0.910 -51.22   0
        26    388.4303    990.1099 307.7550165  +6.2649679     1892.171     2914.256      3363.06     77.99635      155.191     310.6292      1.683     5.00     847.5726     54.75889     243.2744        22     1.609     0.954 -55.35   0
        27    727.1945    986.8339 307.6144582  +6.2776185     551.1566     830.8193     856.7588     77.13038      155.191     310.4438      1.461     3.75     845.9043     54.75889     98.44165         5     1.388     0.291 -78.61   0
        28    775.3984    979.7200 307.5946783  +6.2821606      7396.88     12120.78     12892.28     77.25468     154.8196     310.4438      1.763     4.18      845.114     54.75889     848.4648        38     1.648     1.077 -41.77   0
        29    570.8483    980.2568 307.6795991  +6.2751247     4227.315      6826.87     7525.496     77.87322     155.3764     310.7836      1.739     4.14     847.3972     54.75889     563.6721        29     1.588     0.996 -39.92   0
        30    541.0169    981.7170 307.6919376  +6.2735268     1029.802     1552.604     1408.792     77.50269     155.0673     310.5983      1.556     4.79     847.4597     54.75889     137.6306        10     1.305     0.587 -54.07   0
        31    321.1348    978.9804 307.7833312  +6.2673145        14829     23556.37      25515.9     77.50269     155.3764     310.5056      1.705     4.20     846.7649     54.75889       2060.2        52     1.936     0.985 -37.82   0
        32    445.4721    979.5699 307.7316829  +6.2712249     1083.707     1548.164     1424.733     77.74991     155.3764     310.6292      1.627     4.66     847.2556     54.75889     182.8421        12     1.348     0.702 -40.29   0
        33     17.0676    980.4960 307.9095338  +6.2565093     771.6245     1314.119     1719.756     77.87322     155.4998     310.6601      1.752     4.61     839.9019     54.75889      116.488         7     1.119     0.540 -23.73   0
        34    836.2978    978.9868 307.5694140  +6.2844894     1164.497     2106.406     1796.525     77.74991     155.1291     310.4129      1.821     4.99     844.5276     54.75889     171.2151        18     1.490     0.904 -41.81   0
        35    292.5420    976.3771 307.7952907  +6.2674335     931.3457     1621.004     1346.104     77.50269     155.3764     310.5056      1.728     5.25     846.1907     54.75889     137.8456        10     1.443     0.540 -42.79   0
        36    936.7019    973.1119 307.5279157  +6.2902530     7600.471     13656.29     14250.23     77.87322      155.808     310.6909      1.918     4.35     842.5549     54.75889     944.1344        44     1.703     1.279 -45.94   0
        37    568.1010    972.4770 307.6809992  +6.2782455     8159.409     12989.38     13156.75     77.50269     155.5615     310.6909      1.679     4.08     847.2037     54.75889     1134.229        35     1.606     0.985 -39.38   0
        38     66.7150    972.2037 307.8891978  +6.2615973     591.4116     892.9421     789.1855     77.37878     155.0054      310.382      1.651     7.02     840.8585     54.75889     93.89807        10     1.364     1.012   1.75   0
        39    910.3364    969.3306 307.5389898  +6.2909383     10968.55     19684.99     21433.33     77.87322     155.3764     310.7218      1.945     4.44     843.0374     54.75889     1226.186        53     1.848     1.264 -38.19   0
        40    622.8907    969.7219 307.6583399  +6.2812098     1341.721     2276.905      2636.64      77.6264     155.6232     310.7218      1.860     5.26     846.8513     54.75889     156.4928        18     1.360     0.947 -30.45   0
        41     20.3398    971.0001 307.9084935  +6.2605398     679.7741     966.9675      1455.42     77.13038     155.1291     310.3201      1.783     5.29     839.8271     54.75889     85.20367         8     1.093     0.724 -34.32   0
        42    554.4612    968.3834 307.6867995  +6.2794809     4234.751     6898.166     7813.214     77.37879     155.3146     310.4747      1.819     4.17     847.1278     54.75889     564.3771        33     1.654     1.079 -21.55   0
        43    664.3473    967.4639 307.6412003  +6.2835236     1308.755     1946.958     1525.394     77.87323     155.3146     310.6292      1.648     4.38      846.126     54.75889     201.8975        18     1.376     0.914 -21.67   0
        44    819.0084    965.9726 307.5770262  +6.2892882     608.3588     835.6309     816.2207     77.50269      155.191     310.5056      1.436     5.25     844.1701     54.75889     80.60364         7     1.045     0.745  86.68   0
        45     89.0069    966.9097 307.8801192  +6.2645301     837.5753     1208.476     1484.515     77.50269     155.0673     310.4438      1.574     3.53     841.2191     54.75889     171.6764         8     1.121     0.603 -41.31   0
        46    507.6552    964.6894 307.7063586  +6.2794448     2073.226     3320.539     3319.516     77.87322     155.2528     310.7836      1.714     4.58     846.9548     54.75889     304.9615        21     1.606     0.809 -37.17   0
        47    942.0806    956.8354 307.5262227  +6.2971527     38085.62     68074.06     73243.95     77.74991     155.4381     310.6909      1.920     4.24     842.0694     54.75889     4620.976        73     1.816     1.305 -44.47   0
        48     14.8298    956.7365 307.9112594  +6.2662445      3229.38     4745.177     4626.782      77.6264     155.3764     310.5983      1.545     3.75     839.5058     54.75889      423.444        24     1.484     0.839 -35.92   0
        49    249.3826    955.1938 307.8139199  +6.2747367     1876.364       2812.3     3281.336     77.50269     155.1291     310.5056      1.631     4.51     844.7154     54.75889     280.4431        19     1.485     0.822 -37.27   0
        50    648.3256    953.2919 307.6483254  +6.2888416       915.54     1324.325     1583.215     77.87322     155.4998     310.6601      1.630     4.61      846.235     54.75889     129.5722        13     1.262     0.905 -18.79   0
        51    137.3676    954.2433 307.8604632  +6.2713800     681.0408     799.3856     504.0343     77.50269     155.3146     310.4747      1.386     3.82     842.0741     54.75889     106.9748         6     0.867     0.509 -48.24   0
        52    839.9099    950.6824 307.5688551  +6.2962970     2263.389      3577.98     3634.393      77.6264     155.6232     310.7527      1.743     4.15     843.6469     54.75889     312.7386        23     1.438     1.003 -41.64   0
        53    788.2209    948.5161 307.5903916  +6.2954720     6348.788      10411.9     11727.38      77.6264     155.0673     310.5365      1.791     4.06     844.0281     54.75889     773.4874        37     1.609     1.152 -40.26   0
        54    257.5543    947.8065 307.8107738  +6.2780603     1472.003     2374.983     2062.504     77.37878     155.1291     310.3201      1.692     5.48     844.7548     54.75889     179.8109        19     1.602     0.827 -40.71   0
        55    575.1661    947.9311 307.6788837  +6.2886164     934.4792      1576.68     1540.968     77.74991     155.3764     310.7218      1.717     5.97     846.5957     54.75889     117.7763        15     1.410     1.034 -29.88   0
        56    221.7580    947.3777 307.8256518  +6.2770398     853.5256      1077.82     1236.263     77.50269     155.2528     310.4438      1.358     3.98     843.9615     54.75889      135.931         9     1.054     0.621 -42.68   0
        57     82.5850    945.7468 307.8834946  +6.2730531     2786.757     4240.125     4058.444     77.25468     155.3146      310.382      1.589     3.81     840.6235     54.75889     408.6895        21     1.608     0.791 -38.94   0
        58    976.4045    943.5700 307.5124096  +6.3037705     5874.697     10613.56     11797.04     77.37879      155.191     310.4747      1.930     4.32     841.2086     54.75889     732.6757        39     1.646     1.236 -45.35   0
        59    232.9132    939.3582 307.8212881  +6.2807243     595.1722     953.4343     941.7377     77.87322     155.3146     310.6909      1.503     5.96     844.0413     54.75889      88.5871         6     1.443     0.692 -25.98   0
        60    658.4534    937.8080 307.6446355  +6.2955726     785.7591     1246.343     1076.388     77.37878     155.2528      310.382      1.765     5.18     846.0359     54.75889      127.894         8     1.252     0.605 -14.80   0
        61    950.0576    935.2842 307.5236259  +6.3063167     1910.034     3255.982     3648.743     77.87322     155.3764     310.7218      1.784     4.30      841.379     54.75889     259.0715        23     1.444     1.027 -22.94   0
        62      7.4138    933.8366 307.9151063  +6.2754511     988.4827     1762.225     1921.436     77.37878      155.191     305.8665      1.879     4.87     839.0134     54.75889     172.2633        10     1.251     0.588 -26.53  16
        63    809.6042    931.7368 307.5820700  +6.3031120     1277.583     1965.881     2403.698     77.13038     155.1291     310.4129      1.664     4.93     843.1415     54.75889      179.231        17     1.454     0.822 -36.79   0
        64    670.9362    931.2623 307.6396699  +6.2986913     4474.071     7048.808     7144.394     77.87322     155.3764     310.6909      1.631     4.04     845.9783     54.75889     612.4678        28     1.587     0.882 -40.09   0
        65    283.0977    931.4495 307.8007141  +6.2856685     4667.469     6743.402     6815.527     77.87322     155.3146     310.8145      1.522     3.65     844.8654     54.75889     646.0403        26     1.481     0.828 -41.39   0
        66   1020.1954    930.6972 307.4946516  +6.3105402     662.6553     1183.459     1746.821      77.6264     155.0673     282.0715      2.153     4.83     840.1724     54.75889     84.93744         7     1.161     0.569 -56.11  16
        67    493.2477    929.6962 307.7135086  +6.2934131     1105.546     1492.064     1511.525     77.74991     155.2528     310.8145      1.483     5.44     845.8929     54.75889     165.8111        12     1.388     0.601 -31.99   0
        68     51.8229    928.9163 307.8968316  +6.2789715     2149.903     3358.276      3619.38     77.74991     155.1291     310.5674      1.643     4.10     839.7125     54.75889     303.2919        21     1.452     0.873 -30.93   0
        69    902.6328    927.6425 307.5435740  +6.3078962     834.2921     1264.387     1066.543      77.6264     155.3764     310.5056      1.744     7.01     842.0852     54.75889     95.76868        15     1.428     0.965 -25.90   0
        70    974.5475    924.8519 307.5138022  +6.3114380     749.9272      1234.01     1771.723     78.11927     155.2528     310.6909      2.063     6.95     840.7884     54.75889     102.1386        11     1.433     0.946 -59.10   0
        71    319.3298    925.2281 307.7858770  +6.2894489     800.9739     1316.672     1784.276      77.6264     155.3764     310.5983      1.845     5.24     845.1912     54.75889     137.9761        12     1.276     0.855 -25.02   0
        72    595.4058    923.8540 307.6712816  +6.2992331     1691.263     2701.173     2740.708     77.37878     155.1291      310.351      1.666     4.60     845.9829     54.75889     246.4927        19     1.541     0.748 -36.65   0
        73     84.1544    921.0212 307.8836712  +6.2833148     850.2183     1375.823     1249.262     77.50269     155.3764     310.5056      1.507     4.56     840.1009     54.75889     152.6106        10     1.342     0.607 -64.20   0
        74    634.9580    920.2739 307.6549763  +6.3020298     1272.356     1784.176     1768.459     77.74991     155.4381     310.6909      1.505     4.24     845.8626     54.75889     171.2965        15     1.264     0.831 -35.67   0
        75     79.1580    919.8384 307.8857855  +6.2836358     508.9986      825.696     1034.869      77.6264     155.3764     310.5365      1.324     3.90     839.9853     54.75889     85.57251         6     0.776     0.561 -32.95   0
        76    314.4142    918.0513 307.7881581  +6.2922479     1449.595     2025.993     2117.873     77.25468     155.3764     310.4129      1.509     4.11     844.9088     54.75889     204.5586        13     1.221     0.711 -42.25   0
        77    582.2470    916.6808 307.6769850  +6.3017563      834.341     1149.025      997.187     77.87322     155.3764     310.6909      1.463     4.04     845.9243     54.75889     146.4463        10     1.086     0.733 -35.38   0
        78    781.7800    914.0048 307.5942144  +6.3095080     932.4853     1304.637      1175.94     77.50269     155.0673     310.4747      1.633     6.15     843.5527     54.75889     132.2703        13     1.272     0.837 -34.26   0
        79    919.0543    910.5638 307.5373219  +6.3154941      6595.51     11153.62     11779.72     77.74991     155.3764     310.6909      1.774     4.04     841.5797     54.75889     806.4456        37     1.642     1.117 -44.43   0
        80    157.3090    912.0287 307.8535962  +6.2894782     609.5656     875.3743     1115.761     77.99635     155.1291     310.5365      1.797     4.60     841.5228     54.75889     88.69275         7     1.487     0.405 -56.63   0
        81    454.9659    907.7545 307.7301376  +6.3011952     2298.303     3725.196     3803.503     77.50269     155.3146     310.5365      1.705     4.17     845.3446     54.75889     325.6724        24     1.565     0.891 -45.18   0
        82    356.6547    906.0704 307.7710181  +6.2986068     10011.86     15103.56     15391.56     77.74991     155.3146     310.6292      1.571     3.83     845.0666     54.75889      1415.01        36     1.582     0.940 -39.94   0
        83    276.7235    904.9993 307.8042453  +6.2963768      7355.91     11079.58      11400.3     77.13038     154.7576     310.4438      1.569     3.90     844.0114     54.75889     1021.245        33     1.550     0.921 -39.75   0
        84    604.6969    899.6509 307.6682299  +6.3095367     1217.283     1568.497      1989.87     77.74991     155.3146     310.8453      1.386     4.25     845.7211     54.75889     200.6603        13     1.361     0.652 -39.42   0
        85    788.9505    899.3000 307.5917259  +6.3158186     701.4183     941.3112     833.2991     77.87322     155.3764     310.8145      1.544     3.03      843.285     54.75889     102.7529         5     0.796     0.477 -55.57   0
        86    935.3985    894.8887 307.5310552  +6.3225099     1012.454     2033.753     2493.538     77.13038     154.9435     310.4438      2.643     7.34     841.1703     54.75889     160.2009        18     2.124     0.710 -49.90   0
        87    166.7395    895.6846 307.8502273  +6.2965425     686.9425     746.0031     393.7775     77.99635     155.4381     310.7218      1.460     4.02      841.423     54.75889     102.0269         7     0.972     0.707 -11.70   0
        88    891.0005    894.4935 307.5495062  +6.3211975     699.2062     1377.914     1038.425     77.37878     154.9435     310.3201      1.901     4.27     841.7972     54.75889     101.7135         8     0.979     0.619 -40.89   0
        89    239.1052    894.9407 307.8202026  +6.2992717     539.4957     868.3477     534.6913     77.74991     155.3764     310.7527      1.467     3.89     843.3266     54.75889     97.65155         5     1.001     0.434 -43.65   0
        90    594.9417    889.5259 307.6726184  +6.3133922     708.1764     945.1518     518.2266     77.87322     155.3764     310.6601      1.536     4.94     845.5897     54.75889     108.2142         7     1.292     0.534 -21.48   0
        91    771.2951    888.3649 307.5994216  +6.3197463     1613.095     2527.073     2408.559     77.99635     155.2528     310.7527      1.661     4.58     843.5785     54.75889     205.5049        19     1.444     0.886 -39.83   0
        92     21.8438    886.0975 307.9107149  +6.2956462     990.9984     1405.356     1308.147     77.87322     155.3146     310.8762      1.618     4.90     837.7507     54.75889     150.7983        10     1.293     0.526 -38.13   0
        93   1002.3985    884.1524 307.5035873  +6.3291688     1151.321     1847.448     1739.283     77.25468     155.0054     310.2583      1.736     6.56     839.8972     54.75889     125.2073        18     1.412     0.989 -57.46   0
        94    634.9816    885.3995 307.6561284  +6.3164308     817.1299     1315.578     569.8497     77.50269     154.9435      310.351      1.627     5.03      845.403     54.75889      133.158         9     1.166     0.615 -45.02   0
        95    556.2313    884.7186 307.6888540  +6.3140863     1219.295     1691.928     1935.701     77.74991     155.2528     310.6292      1.508     4.42     845.3568     54.75889     184.8209        13     1.280     0.705 -47.04   0
        96    689.7988    882.0175 307.6334767  +6.3196537     2652.149      4153.98     4598.522     77.50269     154.9435      310.382      1.712     4.00     844.8151     54.75889     367.0375        25     1.567     0.929 -46.88   0
        97    646.7348    884.6965 307.6512710  +6.3171127     576.4252     1107.903     1212.813     77.87322     155.4998     310.6909      2.155     5.75     845.3145     54.75889     90.79474         7     1.451     0.642 -12.55   0
        98    850.4928    878.5245 307.5668593  +6.3264445     833.3268     1074.275     1351.596     77.74991     155.4998     310.6601      1.492     4.45     842.1118     54.75889     128.1226         8     1.222     0.461 -56.49   0
        99    229.8250    877.1807 307.8246503  +6.3062943     2180.037     3211.489     3139.252     77.50269      155.191     310.5983      1.611     4.18     842.9421     54.75889      322.056        21     1.492     0.837 -42.13   0
       100    103.7274    877.5474 307.8770000  +6.3019209     1932.207      2874.13     2864.341     77.74991     155.3764     310.6909      1.612     4.70     839.7422     54.75889     283.9471        17     1.471     0.714 -37.64   0
       101     86.2746    878.0454 307.8842305  +6.3011305     2992.126     4886.924     4905.935     77.74991     155.4381     310.6909      1.695     4.43     839.2975     54.75889     411.5299        26     1.559     0.959 -47.69   0
       102    967.6049    876.6032 307.5182875  +6.3311304     640.1613     939.2541     1231.588     77.25468     155.0054     310.5056      1.143     3.36     840.4265     54.75889     120.6676         5     1.051     0.310 -22.12   0
       103    684.3452    871.1706 307.6361027  +6.3239509     7116.982     10854.33     11641.56      77.6264     155.4381     310.5674      1.610     3.91     844.6891     54.75889     1009.432        30     1.555     0.926 -42.79   0
       104    263.8299    873.8749 307.8106402  +6.3087970     785.4359     1221.858     1325.526     77.74991     155.4381     310.6909      1.597     4.38     843.0601     54.75889     129.8528         8     0.888     0.614 -40.35   0
       105    368.9352    873.1822 307.7670172  +6.3125970     930.2211     1209.021     1801.779     77.50269     155.3764     310.5056      1.403     4.49     844.1602     54.75889     137.2026        11     1.184     0.642 -16.33   0
       106    822.0973    872.0269 307.5788677  +6.3281831     801.3188     1469.257     1317.472     77.99635     155.1291     310.5983      1.941     4.49     842.5464     54.75889     118.1531         7     1.054     0.545 -33.53   0
       107    922.1912    867.5490 307.5374483  +6.3333602     2471.765     4335.358     4430.849     77.37878     155.2528      310.351      1.831     4.56     841.1113     54.75889     334.4174        27     1.682     1.013 -47.62   0
       108     44.3132    869.5550 307.9019392  +6.3032298     1180.085     1701.566     1658.805     77.87323     155.2528     310.6601      1.477     4.94     837.8751     54.75889     201.9656        10     1.356     0.509 -46.47   0
       109    473.6331    868.7048 307.7236890  +6.3179425     660.7889     821.3205     695.3448     77.99635     155.2528     310.7527      1.108     3.64      844.632     54.75889     143.4483         6     0.902     0.463 -44.06   0
       110     57.4014    867.8605 307.8965612  +6.3043682     1195.734     1909.864     1829.909     77.25468      155.191      310.382      1.669     4.89      838.215     54.75889     174.3722        14     1.409     0.645 -43.52   0
       111    367.3818    864.3280 307.7679581  +6.3162010     17030.48     25174.67      26140.7     77.37878     155.3146     310.5983      1.572     3.87     843.8869     54.75889     2416.388        42     1.593     0.914 -39.58   0
       112    101.8501    865.1914 307.8781934  +6.3069598     1400.768     1978.017     1499.535     77.37878     155.2528      310.351      1.507     3.86     839.4753     54.75889     241.1592        13     1.155     0.751 -40.50   0
       113    417.9730    863.3727 307.7469811  +6.3182857     744.7676     967.0022      1134.79     77.37878      155.191     310.5056      1.458     3.44     844.2015     54.75889     134.7563         7     0.936     0.565 -55.78   0
       114    238.2769    863.5912 307.8215952  +6.3121883     1205.424     1698.085     1292.844     77.50269     154.8815     310.5056      1.539     3.56     842.7422     54.75889     214.7623        13     1.185     0.700 -47.85   0
       115    445.1261    855.2900 307.7359750  +6.3225299     1169.094     1677.647     1175.203     77.87322     155.6232     310.6909      1.515     4.71     844.0692     54.75889     156.8592        13     1.275     0.670 -40.92   0
       116    130.5983    854.9407 307.8665990  +6.3121554     1739.878     2494.386     1926.808     77.25468     155.0673      310.382      1.462     3.83     839.7766     54.75889     260.5307        18     1.437     0.713 -39.13   0
       117    698.9153    851.4761 307.6307078  +6.3325685      896.825     1369.661     2145.617     77.99635     155.6848     310.7218      2.047     6.14     844.0587     54.75889     126.6628        13     1.503     0.706 -33.70   0
       118    525.5417    852.0215 307.7026892  +6.3265636     686.0475     867.1473     866.6965     77.50269     155.2528     310.4747      1.393     3.59     844.4334     54.75889     145.9663         6     1.129     0.329 -38.54   0
       119    883.1440    848.6931 307.5542911  +6.3398483     1916.241     3060.788      3306.48     77.74991     155.3764     310.8453      1.698     4.50      841.306     54.75889     247.6617        24     1.602     0.964 -43.45   0
       120    913.0533    849.6289 307.5418386  +6.3404561     1755.892      4065.92     3998.792      77.6264     155.4998     310.5674      2.158     8.21     840.9379     54.75889     879.2162        22     1.695     1.112  27.41   0
       121    114.0351    848.4880 307.8736931  +6.3142648     2624.623      3865.62     4504.903     77.87322     155.2528     310.6601      1.645     4.18     839.2419     54.75889     388.2646        20     1.520     0.800 -35.52   0
       122    846.6491    847.9058 307.5694735  +6.3389598     2857.123     4539.802     4736.345     77.74991     155.2528     310.7836      1.668     4.20     841.8488     54.75889      371.105        24     1.542     0.926 -37.28   0
       123    476.6463    846.5553 307.7231769  +6.3271889     677.4723      948.277     1539.209     77.87323     155.3146     310.6292      1.829     4.68     844.0134     54.75889     101.7977         8     1.163     0.533 -41.22   0
       124    582.4501    839.5358 307.6794724  +6.3336174     354826.1     517958.6     539087.8     77.74991     155.3146     310.6909      1.603     4.39     844.4031     54.75889     53569.21       162     1.712     1.134 -41.25   4
       125    426.6933    842.1091 307.7440698  +6.3273569     8056.031     11975.81     12395.21     77.87322     155.8696     310.6601      1.527     3.87     843.4944     54.75889     1253.754        32     1.545     0.861 -41.79   0
       126    669.9053    842.6713 307.6430486  +6.3352377     1286.738     1818.148     1837.838     77.87322     155.4381     310.6292      1.498     5.11     844.1832     54.75889     162.5731        10     1.107     0.667 -41.71   0
       127    369.8921    840.5153 307.7677112  +6.3261174     13250.63     19919.93     20699.24      77.6264      155.808     310.7527      1.582     4.00      843.178     54.75889     2042.241        38     1.585     0.923 -39.45   0
       128    920.7081    835.6620 307.5391237  +6.3464778     5173.369     8743.463     9851.549     77.87322     155.4381     310.7527      1.857     4.13     840.6024     54.75889      636.119        41     1.708     1.258 -29.65   0
       129    688.2358    836.7492 307.6356333  +6.3382938     3671.141     5601.172       5169.7     77.74991     155.3146     310.5674      1.628     4.01     843.8668     54.75889     512.5486        25     1.553     0.856 -42.81   0
       130    760.0855    833.7313 307.6058948  +6.3419325     766.4667     1344.782     1139.299     77.99635     155.6232     310.6909      1.772     6.07     843.0322     54.75889      118.729        10     1.211     0.857 -53.40   0
       131    663.1940    830.8074 307.6462309  +6.3399129      3524.53     5543.883     6037.042     77.25468      155.191     310.5056      1.661     3.95     843.9061     54.75889     548.3077        24     1.550     0.839 -37.55   0
       132    851.6450    829.8273 307.5679998  +6.3465910     1665.641     2281.339      2025.87     77.37878     155.4381     310.5674      1.505     4.48     841.6805     54.75889     237.8655        16     1.439     0.724 -37.10   0
       133    772.2454    830.9717 307.6009366  +6.3434768     538.3688     996.9095      1153.85     77.37878     155.4381     310.5674      2.055     3.73     842.8044     54.75889     83.15771         5     0.801     0.503  32.85   0
       134    653.9772    829.5275 307.6501013  +6.3401343     970.6811     1578.044     1690.953     77.50269      155.191     310.6292      1.719     5.38     843.9305     54.75889     152.3449        11     1.394     0.586 -36.24   3
       135    656.0320    825.3853 307.6493859  +6.3419132     2251.098     3506.221     3779.156     77.50269     155.1291     310.5674      1.568     4.32     843.7764     54.75889     318.7465        17     1.430     0.733 -40.66   3
       136    205.7498    830.1873 307.8362202  +6.3248924     557.7897      725.177     335.6166     77.25468     155.3146      310.382      1.442     4.92     841.2705     54.75889     73.76251         6     1.135     0.603 -19.34   0
       137    978.4775    828.5425 307.5153680  +6.3513370     739.0413     1354.654     1030.327     77.87323     155.3146     310.5983      1.878     7.13     839.8735     54.75889     85.23199        12     1.690     0.843 -17.29   0
       138    939.6140    823.4080 307.5316790  +6.3521660       3050.7     5075.807     5006.902     77.50269     155.1291     310.5056      1.797     4.02     840.1357     54.75889     357.4233        29     1.531     1.053 -45.42   0
       139    349.6570    824.2924 307.7766564  +6.3321397     1118.643     1431.881     1055.685     77.74991     155.3146     310.7836      1.405     4.57     842.5674     54.75889     184.2581        12     1.225     0.683 -37.96   0
       140    397.7454    819.4066 307.7568494  +6.3357640     2820.491     4262.144     4537.582     77.37878     155.1291      310.382      1.594     4.11     842.5355     54.75889     452.1172        20     1.430     0.839 -40.38   0
       141    533.9985    809.1771 307.7006063  +6.3445368     3210.838     4625.366      4548.33     77.50269     155.0673     310.4438      1.514     4.05     843.2991     54.75889     491.3949        21     1.463     0.766 -37.68   0
       142    879.0222    807.7109 307.5573651  +6.3566337     894.6874     1553.313     1812.973     77.87322      155.191     310.5365      1.954     6.21     841.1456     54.75889     126.4728        14     1.533     0.707 -30.41   0
       143    598.9560    807.1319 307.6736978  +6.3475478     711.5189     1138.687     1667.077     77.87322     155.3146     310.6909      1.635     4.77     843.3753     54.75889     131.4047         9     1.292     0.605 -55.27   0
       144    580.8181    805.3965 307.6812883  +6.3476596     6448.328     9346.366     9830.436     77.50269     154.9435     310.4747      1.539     3.66     843.2983     54.75889     1023.149        30     1.519     0.856 -38.62   0
       145    267.1111    802.8068 307.8116544  +6.3382511     821.2758     1587.615     2196.488     77.37878     155.0673     310.4129      2.720     6.49     841.3551     54.75889        98.25        11     1.211     0.977 -35.68   2
       146    587.7811    804.6495 307.6784215  +6.3482002     1306.306     1893.996     2357.385     77.37878     155.4381     310.4747      1.669     5.11      843.302     54.75889      170.058        16     1.455     0.730 -41.06   0
       147    292.3380    805.5739 307.8010856  +6.3379523     797.9032     1026.927     599.1857     77.50269     155.3146     310.5674      1.410     4.61     841.6161     54.75889     130.5875         9     1.262     0.479 -51.25   0
       148    498.6949    804.3259 307.7154296  +6.3453619     1763.525     2590.467     2395.494      77.6264     155.5615     310.6601      1.517     4.37     842.8743     54.75889     295.4719        15     1.408     0.663 -38.33   0
       149    140.1657    803.6393 307.8643439  +6.3336582     1391.402     1847.863     1943.571      77.6264     155.2528     310.4747      1.324     4.28     839.0167     54.75889     253.1371        16     1.478     0.706 -42.99   0
       150    916.5410    803.2732 307.5419305  +6.3597134     1363.046     2185.877     2023.012     77.99635     155.3764     310.6601      1.762     4.35     840.1491     54.75889     177.6812        16     1.253     0.870 -38.60   0
       151    716.4155    802.5619 307.6250687  +6.3533489     811.6226      1133.97       1314.8      77.6264      155.191     310.4129      1.660     6.24     843.0186     54.75889     106.3914        11     1.319     0.829 -62.65   0
       152    551.5538    799.1716 307.6936493  +6.3492539      20792.8     30809.68     31954.21     77.37878     155.4381     310.5674      1.559     3.84     843.0804     54.75889     3061.545        46     1.596     0.936 -41.36   0
       153    392.2539    801.2411 307.7597367  +6.3430812     871.7657     1040.742     738.1154     77.74991     155.4381     310.7218      1.315     3.40     841.9091     54.75889     156.0358         8     0.918     0.660 -30.99   0
       154    965.1660    797.4979 307.5219275  +6.3637139     3643.384     6087.464     5888.638     77.87322     155.2528     310.7836      1.778     4.54     839.6535     54.75889     427.4744        30     1.691     0.990 -41.24   0
       155    197.7969    798.8113 307.8405728  +6.3375814     630.6546     738.5579      617.301     77.50269     155.0673     310.5365      1.412     4.30     840.3679     54.75889     100.7252         7     0.886     0.594 -52.80   0
       156    437.4387    794.6517 307.7411919  +6.3473114     628.4886     844.1199     1170.961      77.6264     155.3764     310.6292      1.504     4.42     841.8655     54.75889     130.8021         8     1.186     0.634 -56.38   0
       157    205.2481    792.9863 307.8376734  +6.3402360     649.6816     1368.659      1149.68     77.25468     155.3146      310.351      2.022     6.87     840.2709     54.75889     87.58337        12     1.727     0.766  81.32   0
       158     84.9785    795.5558 307.8875324  +6.3351469     570.0427     699.6696     536.6638     77.37878     155.2528     310.4747      1.273     4.86     837.1765     54.75889     98.97577         6     1.211     0.553 -25.70   0
       159     61.7962    789.8787 307.8973495  +6.3367141     1615.428     2372.477     2483.841     77.50269     154.8815     310.4747      1.500     4.07     836.8998     54.75889      261.954        15     1.399     0.661 -41.22   0
       160    344.0658    788.0948 307.7801880  +6.3468991     3532.594     5126.286     5168.184     77.87322     155.4998     310.6909      1.485     3.85     841.2944     54.75889     583.1961        20     1.486     0.726 -39.43   0
       161    809.7045    783.7055 307.5869521  +6.3642405     55362.77     84636.31     87849.59     77.87322     155.9927     310.5674      1.639     4.03     841.4777     54.75889     7775.299        69     1.668     1.052 -42.28   0
       162     44.0615    786.1304 307.9048399  +6.3376672     2264.924     3417.809     3376.565     77.99635     155.3764     310.6909      1.551     3.87     836.7123     54.75889     373.3805        21     1.488     0.795 -41.67   0
       163    747.4612    786.0563 307.6127245  +6.3611982     729.3121     1177.734     1308.172     77.99635     155.3764     310.6909      1.644     5.21      842.352     54.75889     113.6343         9     1.320     0.581 -22.57   0
       164    267.0262    781.6287 307.8123980  +6.3469928     5488.166     8809.158     11086.42     77.37878      155.191     310.5365      1.811     4.24     840.9062     54.75889     787.3398        34     1.688     0.963 -39.42   0
       165    452.8006    782.4232 307.7352204  +6.3528737     846.0903     1261.988     1740.181     77.50269     155.0673     310.4438      1.564     4.77      841.501     54.75889     172.6495         9     1.235     0.523 -36.66   0
       166    737.9632    778.3564 307.6169255  +6.3640613     21699.32      33108.8     35512.59      77.6264     155.3146     310.5056      1.618     3.87      842.241     54.75889     3085.616        50     1.637     1.021 -40.00   3
       167    731.6359    774.8316 307.6196707  +6.3653061     90708.34     135718.5     141205.4     77.50269     155.1291     310.4129      1.603     3.96     842.1689     54.75889     13417.75        76     1.655     1.021 -41.07   2
       168    934.9586    778.9434 307.5350897  +6.3703718     8422.512     13342.88     14025.19     77.74991     155.3764     310.6909      1.667     3.86     839.5063     54.75889     1071.244        36     1.578     1.031 -42.47   0
       169    235.0219    778.4846 307.8257941  +6.3472202     857.0845     2140.875     4475.262     77.74991     155.0673     310.5983      6.560     8.38     840.2701     54.75889     101.9838        21     2.351     0.835 -45.23   0
       170    555.0304    779.2044 307.6928714  +6.3576146     471.6655     710.3634     545.2302     77.37878     155.2528     310.4438      1.604     3.89     842.1614     54.75889     79.74518         5     1.329     0.326 -62.64   0
       171    376.5236    775.7541 307.7671209  +6.3530795     21989.48      31870.9     33035.91     77.74991     155.4381     310.6909      1.547     3.96     840.7177     54.75889     3517.115        45     1.563     0.931 -37.07   0
       172    425.7612    775.9172 307.7466671  +6.3546571     1547.022     2159.533     2202.683     77.87322     155.3146     310.6292      1.515     3.84     840.8491     54.75889     246.2416        15     1.325     0.706 -37.78   0
       173    665.2916    775.1264 307.6472147  +6.3629745     711.4722     1255.645     1385.473     77.87322     155.4998     310.6909      1.843     5.91     842.2123     54.75889     105.4415         9     1.414     0.695 -57.68   0
       174    438.3660    773.5726 307.7415106  +6.3560462     23805.08     34245.44     35018.35     77.37879     155.1291     310.4438      1.532     4.04     840.9345     54.75889     3967.982        41     1.559     0.870 -40.53   0
       175    266.5449    760.0807 307.8133185  +6.3558740     731568.7      1591776      1743598     77.87322     155.3764     310.6909      2.228     5.30     840.4421     54.75889     62599.67       529     2.408     1.925 -46.03   4
       176    975.5427    772.6483 307.5184431  +6.3743196     1959.571     3084.121     3188.948     77.87323     155.3764     310.7836      1.751     4.41     839.2579     54.75889     264.7343        21     1.438     0.932 -53.90   0
       177    931.8459    770.3575 307.5366677  +6.3738137     6442.387     10157.66     10849.86     77.87322     155.3764     310.5983      1.665     4.01     839.4038     54.75889     849.2365        32     1.579     0.956 -42.77   0
       178    904.3279    771.9042 307.5480453  +6.3722604     611.5357       982.15     674.8992      77.6264     155.4998     310.6292      1.545     4.96     839.9404     54.75889     101.2997         8     1.203     0.578 -46.42   0
       179    672.4105    769.4439 307.6444474  +6.3655581     6618.997      9639.97     9909.009     77.37879     155.2528      310.382      1.563     3.97     842.0388     54.75889       1059.8        29     1.579     0.848 -39.28   0
       180    162.4186    769.6454 307.8562411  +6.3484396     507.3995     793.0816     980.6848     77.50269     155.2528     310.4129      1.909     4.15     838.4789     54.75889     80.95306         5     1.274     0.386 -36.10   0
       181    461.1031    767.3971 307.7322739  +6.3593553      1856.12     2740.119     2765.209      77.6264     155.0673      310.351      1.599     4.01      840.983     54.75889      285.101        19     1.490     0.769 -44.67   0
       182    185.9124    766.9996 307.8465730  +6.3503187     780.4796     1132.037     951.5347     77.13038     154.8815      310.351      1.338     3.91     838.8607     54.75889     146.1253         8     1.185     0.506 -38.49   0
       183    625.2374    761.7449 307.6642957  +6.3671650     1004.821     1427.277      1640.82     77.87322     155.4381     310.6909      1.613     4.11     841.5839     54.75889     140.2053        11     1.080     0.808 -35.88   0
       184    176.5234    760.6086 307.8506861  +6.3526432     965.3517     1507.526     1407.516     77.50269     154.8815     310.4747      1.673     5.14       838.43     54.75889     179.6119        11     1.611     0.463 -40.22   0
       185    900.2758    761.1166 307.5500868  +6.3765801     767.0393     1237.675     1157.442     77.99635     155.6848     310.7527      1.880     5.27     839.8148     54.75889      122.962        11     1.300     0.603 -23.90   0
       186    707.5493    759.6324 307.6301804  +6.3707800     2602.718     3669.816     3695.738     77.74991     155.4381     310.5983      1.537     4.11     841.7321     54.75889     378.4036        18     1.429     0.713 -39.24   0
       187    441.2920    756.2433 307.7408740  +6.3632993     57374.37      83376.2     86642.49     77.87322     155.3764     310.7836      1.530     3.89     840.1778     54.75889     8465.996        65     1.638     0.953 -39.28   0
       188    151.7249    760.0455 307.8610034  +6.3520453     1063.477     1518.682     1572.728     77.74991     155.4381     310.6909      1.514     5.11     837.7623     54.75889     180.1947        10     1.244     0.593 -32.21   0
       189    984.3636    757.8008 307.5152726  +6.3807435     689.1441     1230.599     1252.799     77.00587      155.191     310.4747      1.666     5.08     838.9896     54.75889     114.4439         9     1.453     0.502 -24.22   0
       190    559.0550    755.2351 307.6919993  +6.3676461     7310.504      10511.4      10485.6     77.74991     155.3764     310.6909      1.493     3.83     841.0691     54.75889      1164.95        25     1.498     0.795 -38.91   0
       191    475.9244    753.9402 307.7265677  +6.3654067     4587.536     6862.458     7472.646     78.11927     155.3764     310.6292      1.544     4.08     840.7004     54.75889     727.2782        23     1.508     0.779 -38.19   0
       192    804.3077    751.7991 307.5902549  +6.3772357     11859.09     17836.69     18656.44     77.25468     154.9435     310.4129      1.611     3.84     840.9606     54.75889     1767.217        37     1.575     0.961 -41.95   0
       193    698.2269    751.6338 307.6343186  +6.3737722     520.1107     921.9898     573.0316     77.37878     155.1291     310.4438      1.796     3.41     841.4893     54.75889     80.59839         5     0.768     0.439 -18.29   0
       194     33.5997    748.1212 307.9104585  +6.3530103     1172.497     1611.754     1416.059     77.13038     154.7576     310.4129      1.493     4.49     835.4989     54.75889     199.6398        11     1.255     0.626 -42.96   0
       195    472.3790    747.2460 307.7282636  +6.3680524     2566.184     3501.705     3707.839     77.50269     155.3764     310.5056      1.436     3.63     840.3472     54.75889     406.8356        19     1.409     0.795 -32.24   0
       196    825.9199    745.9986 307.5814717  +6.3803500     1247.548     2066.571      1888.96     77.13038     154.8196     310.4438      1.838     5.48     840.5605     54.75889     185.7096        12     1.356     0.624 -42.15   0
       197    162.0441    743.8970 307.8572587  +6.3590586     12008.51     17812.59     19274.01     77.87322     155.3146     310.8145      1.540     3.89     837.4136     54.75889     1942.124        40     1.607     0.933 -36.93   2
       198    154.0802    741.2122 307.8606559  +6.3599005     3061.876     4525.154     5394.611     77.50269     155.0673     310.5056      1.519     3.99     837.0621     54.75889     472.3441        22     1.509     0.794 -37.99   2
       199    170.2176    744.1733 307.8538550  +6.3592182      3214.75     4583.165      4542.73     77.50269      155.191     310.5674      1.518     4.16     837.5909     54.75889     496.9324        21     1.463     0.770 -43.18   0
       200    949.6987    740.4800 307.5302455  +6.3867441     6388.099     9640.686     9567.991     77.74991     155.7464     310.6909      1.624     3.99     838.9142     54.75889     834.0015        31     1.541     0.953 -44.41   0
       201    998.9089    740.1849 307.5098164  +6.3885006     1267.989     1996.163     2705.838      77.6264      155.191     310.5365      1.895     4.26     838.6167     54.75889     170.0133        16     1.481     0.720 -43.06   0
       202    705.2681    738.1620 307.6318428  +6.3795696     1680.279     2519.682      2854.75     77.74991     155.3764     310.7527      1.469     4.18     841.0526     54.75889     265.8582        17     1.480     0.770 -39.41   0
       203    591.9902    737.4217 307.6789147  +6.3761000     2433.745     3568.185     3345.504     77.50269     155.1291     310.4747      1.500     3.86     840.3719     54.75889     374.6122        17     1.364     0.726 -42.05   0
       204    440.0334    737.2104 307.7420322  +6.3711162     1262.198     1876.593     1709.258     77.37878      155.191     310.5056      1.384     4.02     839.3122     54.75889     209.3418        12     1.331     0.616 -46.77   0
       205    154.1322    734.9621 307.8608437  +6.3624829     2064.101      3113.75     2772.877     77.74991     155.3764     310.7527      1.469     4.46     836.8233     54.75889     348.1123        19     1.558     0.714 -40.49   0
       206    723.1678    735.5756 307.6244947  +6.3812337     562.9061     563.3749    -141.6551     77.25468     155.2528     310.4747      1.497     4.47     840.9893     54.75889     86.80444         5     1.317     0.432 -30.17   0
       207   1004.2826    731.5580 307.5078709  +6.3922413     1838.256     3028.407     3331.926     77.87323     155.3764     310.5983      1.786     5.46     838.3561     54.75889      234.022        25     1.660     1.042 -31.77   0
       208    973.5222    731.8528 307.5206372  +6.3910979      2959.74     4640.633     4436.069     77.99635     155.3764     310.6601      1.691     3.71      838.579     54.75889     454.9655        24     1.470     0.915 -37.81   0
       209    943.9893    732.3512 307.5328869  +6.3899109     3084.013     4679.091     4504.545     77.37878     155.2528      310.351      1.579     3.81     838.8021     54.75889     439.6958        20     1.367     0.854 -39.64   0
       210    696.1727    731.6304 307.6358379  +6.3819636     1441.558     2334.395     2704.439     77.37878     155.1291     310.4747      1.692     4.04     840.8605     54.75889     260.3334        18     1.432     0.855 -33.55   0
       211    843.6738    729.8801 307.5746340  +6.3875962     1043.148     1468.262     1699.384     78.11927     155.6232     310.7218      1.436     5.29     839.9512     54.75889     153.1927        12     1.230     0.693 -46.42   0
       212    268.7302    726.7263 307.8135266  +6.3697194     1947.013     3064.579     3381.249     77.99635     155.4998     310.6909      1.511     3.87     839.3256     54.75889     291.1099        17     1.395     0.771 -45.79   0
       213    705.6846    723.6680 307.6321525  +6.3855683     718.3171     1086.382      1656.77     78.11927     155.6232     310.6909      1.526     2.96     840.6028     54.75889     131.5394         6     0.833     0.493 -41.25   0
       214    961.5392    722.3082 307.5259313  +6.3946410     1056.659     1221.755     947.0504     77.74991     155.4381     310.7527      1.450     5.79     838.4084     54.75889     144.8353        11     1.171     0.808 -16.51   0
       215    184.2185    722.0544 307.8487810  +6.3688200     793.3619     1184.707     789.9902     77.37878     155.3764     310.4438      1.287     4.41     836.9401     54.75889     140.0002         8     1.386     0.398 -36.97   0
       216    288.8054    722.4568 307.8053320  +6.3721537     655.7178     828.2478     352.1699     77.37878     155.2528      310.382      1.174     3.38     839.5239     54.75889     119.7002         5     0.761     0.436 -22.77   0
       217    988.4043    719.6387 307.5148617  +6.3966358     2431.986     3817.435     4080.605     77.00587     155.1291     310.4129      1.662     4.23      838.089     54.75889     322.4508        20     1.489     0.808 -47.05   0
       218    935.6179    720.8139 307.5367472  +6.3943967     1150.809     1535.744     1364.594      77.6264     155.0673     310.5674      1.500     4.70     838.6437     54.75889     193.1471        13     1.366     0.653 -23.87   0
       219    707.7206    719.0078 307.6314621  +6.3875604     935.3801     1676.465     2056.983     77.50269     154.9435     310.5056      1.932     3.93     840.4418     54.75889     167.2236         9     1.084     0.530 -29.47   0
       220    498.4561    714.5671 307.7185240  +6.3824165     530.1943     442.4582     603.9188     77.74991     155.4381     310.6601      1.138     4.55     839.4326     54.75889     82.14227         7     1.153     0.511 -45.90   0
       221    428.0293    714.2239 307.7477854  +6.3802066     701.1526     961.6033     608.6779     77.37878     155.2528     310.5056      1.392     5.03     838.4528     54.75889     100.8533         8     1.040     0.689 -71.47   0
       222    831.2973    711.6047 307.5803823  +6.3947308     1182.906     1996.521     1656.377      77.6264     155.0673      310.351      1.649     6.10     839.6558     54.75889     183.4868        14     1.554     0.673 -36.61   0
       223    656.1430    712.4901 307.6531012  +6.3885332     846.2154     1180.241     1442.705     77.74991     155.3146     310.7836      1.518     4.41     840.1216     54.75889     145.4869         7     0.965     0.573 -61.94   0
       224    924.5735    711.5540 307.5416421  +6.3978534     444.8856     416.6626     677.5881     77.50269     155.4381     310.5674      1.077     3.89      838.601     54.75889     92.25446         5     1.117     0.388  72.98   0
       225    917.6855    708.9764 307.5445887  +6.3986887     1447.148     2363.428     2284.079     77.87322     155.1291     310.5365      1.627     4.11     838.6344     54.75889     201.8558        17     1.319     0.835 -47.31   0
       226    892.1778    704.1456 307.5553439  +6.3998355     918.3086     1399.521     1891.096     77.37878     155.3764     310.4747      1.605     4.99       838.87     54.75889     150.2307        11     1.372     0.578 -47.95   0
       227    677.8129    703.2211 307.6444097  +6.3930826     576.6149     866.1522     1202.773      77.6264     155.0673     310.5674      1.801     4.62     839.9264     54.75889     85.54266         7     1.208     0.503 -35.33   0
       228    874.5118    700.4730 307.5628035  +6.4007646     1526.624     2268.383     1914.092     77.87323     155.6232     310.6909      1.591     4.55      839.011     54.75889     210.4933        15     1.344     0.734 -55.70   0
       229    137.9784    699.5355 307.8687387  +6.3765695     842.4061     1238.961     929.5507     77.50269     155.3764     310.5365      1.379     3.68     835.2478     54.75889     145.9072         6     0.771     0.591 -43.26   1
       230     73.7051    699.1247 307.8954454  +6.3745854     2648.404     4119.776     4201.591      77.6264     155.5615     310.6909      1.616     4.59     834.6841     54.75889       429.67        24     1.563     0.857 -35.25   0
       231    485.5428    698.2509 307.7244318  +6.3887226     562.4557     897.9827     525.8842     77.87322     155.3764     310.6601      1.718     4.74     838.8813     54.75889     101.1023         5     1.301     0.489 -44.00   0
       232    137.3166    696.3985 307.8691187  +6.3778426      765.932     1045.388     966.7401     77.13038     154.9435      310.382      1.552     4.74     835.1078     54.75889     127.8032         8     0.969     0.658  11.72   0
       233    729.1236    691.2491 307.6234970  +6.3997353     466.6245     581.2453     370.9885     77.74991     155.4381     310.6601      1.192     3.41     839.5398     54.75889     81.07794         5     0.989     0.340 -43.05   0
       234    686.3351    687.7252 307.6413863  +6.3997651      6847.42     9743.586      10417.7     77.99635     155.3764     310.6292      1.542     4.21     839.4432     54.75889      1125.53        27     1.482     0.824 -40.89   0
       235    633.1276    687.0111 307.6635095  +6.3982868     1452.622     2373.034     2618.054     77.37878     155.0054     310.5056      1.657     4.45     839.3311     54.75889     247.1581        13     1.388     0.598 -43.80   0
       236    554.3113    688.0081 307.6962117  +6.3952469     746.2597     1204.726     1273.914     77.37878     155.0673     310.4129      1.497     3.31     838.6804     54.75889     124.0711         5     0.796     0.485 -38.94   0
       237    543.9593    687.3895 307.7005320  +6.3951570     859.1968     1305.232     1272.451     77.25468      155.191      310.382      1.563     3.11     838.5449     54.75889     152.9371         9     1.072     0.604 -44.09   0
       238    660.0694    683.6108 307.6524327  +6.4005888     1999.871      3211.64     3477.129     77.37878      155.191     310.5056      1.536     4.30     839.2939     54.75889     323.2467        18     1.520     0.692 -38.14   0
       239    149.4224    683.6270 307.8645187  +6.3835215     4014.606      6014.32     6102.813     77.37879      155.191     310.5983      1.602     4.25     834.8013     54.75889     648.8679        22     1.536     0.737 -37.85   0
       240   1022.8804    683.1190 307.5017545  +6.4128606     2313.709     2895.998     2779.574     76.00249     134.8804     246.2957      1.341     3.68     836.2307     54.75889     309.7906        16     1.198     0.768 -55.72  24
       241    335.5319    683.8290 307.7872172  +6.3896660     785.4454     1169.985     1104.286      77.6264     155.3764     310.6292      1.439     4.08       836.37     54.75889      114.493         7     1.182     0.403 -34.09   0
       242    271.1451    683.6390 307.8139649  +6.3875911     652.0051     787.9283     1148.489     77.87322     155.4381     310.6601      1.371     4.20      836.345     54.75889     110.4216         5     1.097     0.476 -52.97   0
       243    803.2903    679.8029 307.5930729  +6.4069306     20971.85     30905.47     32448.51     77.25468     155.0673     310.4129      1.565     3.85     838.8745     54.75889      3279.25        45     1.580     0.949 -39.40   0
       244    933.3540    679.5182 307.5390597  +6.4113735     3683.185     5776.956     6219.133     77.87323     155.3764     310.6601      1.735     4.02     837.8913     54.75889     515.7994        27     1.567     0.918 -44.52   0
       245    530.5599    679.6821 307.7063544  +6.3978923     978.9448     1579.023     1367.054     77.87323     155.4381     310.5983      1.700     4.63     838.3127     54.75889     168.0861         9     1.389     0.616 -59.29   0
       246    502.1288    680.4258 307.7181380  +6.3966364     1337.579     1797.012     1236.142     77.50269     155.2528     310.5983      1.466     4.37     838.3091     54.75889     207.1038        12     1.262     0.619 -35.76   0
       247    347.9751    679.7347 307.7821861  +6.3917726     714.1399     1012.056       854.36     77.50269     155.3764     310.5365      1.435     4.42     836.1212     54.75889      124.808         7     1.260     0.441 -44.74   0
       248    304.8734    679.5605 307.8000932  +6.3904033     672.0512     846.8259     473.6851     77.74991     155.3764     310.7218      1.559     5.49     836.2075     54.75889     128.7597        10     1.565     0.544 -29.84   0
       249    276.6876    673.5186 307.8120015  +6.3919553     6533.843      9463.82     10020.12      77.6264     155.5615     310.7527      1.526     3.83     835.6823     54.75889     1147.966        29     1.501     0.866 -38.51   0
       250    683.8363    672.5936 307.6429282  +6.4059300     7179.567     10766.06     11255.29     77.00587     155.1291     310.4438      1.566     4.05       838.96     54.75889     1083.242        29     1.529     0.834 -38.61   0
       251    666.3624    673.4860 307.6501563  +6.4049792     965.0403     1229.763     1146.451     77.87323     155.3146     310.6601      1.403     4.34       838.96     54.75889     171.7858        11     1.244     0.594 -47.26   0
       252    378.7156    672.8653 307.7696482  +6.3956365     957.0458     1350.321     1384.222     77.99635     155.6232     310.7218      1.579     4.15     836.3483     54.75889     153.1661        10     1.066     0.835 -54.55   0
       253    943.8300    665.1409 307.5351861  +6.4176583     1187.625     1801.469     1727.677      77.6264     155.3764     310.6292      1.601     4.85     837.2879     54.75889     177.5932        16     1.567     0.794 -50.93   0
       254    755.5560    661.1146 307.6135215  +6.4130585     3814.452      5555.98      6421.08     77.87322     155.2528     310.6292      1.559     3.87     838.5302     54.75889     546.2018        24     1.429     0.888 -42.77   0
       255    710.5085    661.4368 307.6322215  +6.4114253     996.0607     1409.377     1126.961     77.99635     155.3146     310.6909      1.445     4.11     838.5606     54.75889     194.0564        11     1.330     0.615 -49.16   0
       256   1021.7433    657.6327 307.5030730  +6.4233467     8739.285     13254.15     13450.74     77.74991     147.5851     262.6601      1.625     3.82     835.4095     54.75889     1149.188        33     1.503     0.997 -43.14  24
       257     20.8123    660.2049 307.9187169  +6.3888819     714.2249     891.9456      853.437     77.50269     155.1291     310.5365      1.387     4.12     834.0208     54.75889     117.2814         8     1.037     0.549 -35.21   0
       258    960.2086    658.1650 307.5286148  +6.4210830     2587.544     3939.343     3713.129     77.37878      155.191     310.4747      1.592     3.99     836.7401     54.75889     374.0845        21     1.417     0.818 -36.66   0
       259     40.5032    657.6087 307.9106261  +6.3906142     1962.611     3489.303     3687.999      77.6264     155.0054     310.4747      1.916     5.08     833.9747     54.75889     302.9363        24     1.725     0.990 -13.21   0
       260    574.6786    656.0658 307.6888177  +6.4091157     592.8331     965.9492     1047.416     77.99635     155.4998     310.6292      1.891     4.55     837.9084     54.75889     123.9372         7     1.317     0.447 -46.73   0
       261    457.5332    655.6932 307.7374859  +6.4053600      593.601     832.7845     182.0847     77.74991     155.5615     310.6601      1.558     4.70     837.1235     54.75889     86.75378         8     1.425     0.439 -39.60   0
       262     99.1280    652.5598 307.8864475  +6.3946641     27019.86     39685.96     40693.24     77.74991     155.3764     310.7218      1.560     3.94     833.8632     54.75889     4305.684        46     1.614     0.905 -39.26   0
       263    560.3597    653.4409 307.6948526  +6.4097219     2300.163     3194.845     3128.604      77.6264     155.3764     310.5365      1.459     3.76     837.6942     54.75889     395.4763        17     1.384     0.706 -39.86   0
       264    529.2504    650.6236 307.7078678  +6.4098473     1367.215     1801.362     2399.388     77.50269     155.3764     310.5674      1.322     3.11     837.4977     54.75889     300.5644        10     1.150     0.494 -44.25   0
       265    950.0742    649.6519 307.5331071  +6.4242616     1016.612     1580.444     1247.473     77.87322     155.4381     310.6909      1.716     5.17      836.721     54.75889     176.0149        14     1.445     0.734 -44.29   0
       266    569.1940    647.3602 307.6913860  +6.4125274      1080.48     1530.708     1123.059     77.13038     155.0673      310.382      1.517     4.23     837.5651     54.75889     177.5542        12     1.248     0.656 -34.70   0
       267    745.2021    644.6816 307.6183692  +6.4194993     3794.796     5474.182      5421.17     77.25468     155.0054      310.382      1.512     4.04     838.1102     54.75889     628.5682        22     1.435     0.792 -46.13   0
       268    767.1377    642.9852 307.6093145  +6.4209300      4190.33     6016.744     6076.988     77.37878     155.3146     310.4747      1.505     3.92     837.9955     54.75889     666.2002        23     1.476     0.772 -38.78   0
       269    598.6217    640.9917 307.6793756  +6.4161385       3397.5     5015.108     5121.745     77.50269      155.191     310.4438      1.444     3.60     837.4775     54.75889     540.6786        21     1.410     0.753 -39.80   0
       270    434.8945    641.4800 307.7473634  +6.4104727     1523.898     2250.033     2234.491      77.6264     155.6232     310.7218      1.483     4.29      836.045     54.75889      238.502        14     1.362     0.617 -38.09   0
       271    342.6020    639.9535 307.7857475  +6.4080189      1607.88     2351.442     1829.173     77.25468     155.0673     310.2892      1.492     4.12     834.4187     54.75889     229.9464        13     1.302     0.618 -38.37   0
       272    259.2645    640.4705 307.8203433  +6.4050181     1939.541     2497.165     2332.518     77.87322     155.4381     310.6601      1.488     4.85     834.1194     54.75889     279.1125        17     1.528     0.691 -35.73   0
       273   1005.4850    637.9850 307.5104786  +6.4309198     8056.576     12683.86     12676.41     77.50269     155.1291     310.5674      1.672     3.87     835.1907     54.75889     1117.818        34     1.602     0.987 -40.33   0
       274    558.7375    638.9570 307.6960095  +6.4156484     636.9758     1068.519     1089.279     77.87322     155.3146     310.7527      1.609     4.13     837.2747     54.75889     102.8622         7     1.138     0.429 -33.76   0
       275    725.2017    636.8200 307.6269384  +6.4220794     1029.824     1734.101     1934.798     77.50269     155.0054      310.382      1.660     4.99     837.8339     54.75889     165.4451        11     1.367     0.588 -41.37   0
       276    116.6259    634.9392 307.8797706  +6.4025260     904.5047     1429.047     1601.909     77.50269     155.3764     310.5674      1.724     6.17     833.4907     54.75889     140.8956        12     1.714     0.647 -49.46   0
       277    450.7698    632.4014 307.7410728  +6.4147516     3060.913     4570.644     4965.288     77.25468      155.191     310.4747      1.565     4.12     836.0489     54.75889     518.4893        20     1.463     0.734 -44.20   0
       278    163.9001    631.4767 307.8602523  +6.4055393     25240.62     37307.76     39208.79     77.37878     155.4998     310.6909      1.548     3.90     833.5035     54.75889     3963.926        45     1.603     0.902 -40.61   0
       279    832.2789    631.9744 307.5826234  +6.4276445     1131.309     1552.945     1536.085      77.6264     155.2528     310.6292      1.503     4.48     837.4879     54.75889      186.512        13     1.434     0.616 -35.38   0
       280    668.6349    631.5397 307.6506100  +6.4223753     541.2939     452.5234     935.9258     77.87323     155.3764     310.6292      1.194     4.00     837.3563     54.75889     103.9277         6     1.076     0.426 -54.53   0
       281    383.1400    626.5129 307.7693595  +6.4149236     800.9499     1044.377     1000.973     77.87322     155.4998     310.7527      1.414     5.07     834.3959     54.75889      117.494         9     1.278     0.569 -50.03   0
       282   1000.4176    620.9409 307.5131495  +6.4377895     6742.299     11378.92     12441.71     77.50269     155.2528     310.4129      1.821     3.74     834.8018     54.75889     845.0948        42     1.568     1.229 -27.40   0
       283     45.0383    620.2197 307.9099961  +6.4062041     1144.154     1601.391     1504.586     77.50269      155.191      310.382      1.428     3.39      833.098     54.75889     192.2889         9     1.107     0.511 -42.98   0
       284    593.9100    616.2238 307.6821585  +6.4262084      51314.5     73643.71     76051.97     77.87322      155.191     310.5056      1.484     3.83     836.4476     54.75889     8678.687        55     1.594     0.884 -39.36   0
       285    958.5892    617.6989 307.5306319  +6.4377387      669.177     1072.817     1403.974      77.6264     155.0054     310.4438      1.741     5.55     835.5933     54.75889      94.0882         9     1.373     0.633 -52.46   0
       286    237.0977    617.5352 307.8303174  +6.4137464     778.9174       1088.4     1712.187     77.87322     155.4381     310.6909      1.685     4.82     832.9858     54.75889     128.5975         9     1.149     0.572 -35.40   0
       287    552.9157    616.6895 307.6991704  +6.4246488     800.3027     1066.015      913.309      77.6264     155.6232     310.7527      1.494     5.02     836.6511     54.75889      125.564         9     1.150     0.619 -35.81   0
       288    818.7523    615.8616 307.5887780  +6.4338478     597.7646     884.6188     998.2125     77.74991     155.3146     310.7218      1.335     3.36      837.121     54.75889     103.0941         5     0.952     0.343 -43.25   0
       289      1.9022    615.4783 307.9280706  +6.4067150     868.3528     1305.077     1823.104     73.95492     131.9314     242.8827      1.581     4.00     832.9826     54.75889     171.9116         8     0.971     0.691 -17.60  24
       290    201.4374    613.0057 307.8452802  +6.4144230     2876.153     4063.537     4623.234     77.00587     155.1291     310.4129      1.541     3.89     832.8242     54.75889     460.0319        20     1.465     0.764 -43.38   0
       291   1005.6277    612.4849 307.5112662  +6.4414542     624.9655     1081.935     1153.748     77.99635     155.1291     310.5365      1.522     5.58     834.4105     54.75889     86.22931         8     1.323     0.663  -9.82   0
       292    523.9579    613.1245 307.7113173  +6.4251546     734.6713     1002.572     1097.973     77.74991     155.3764     310.6909      1.347     4.12     836.4548     54.75889     119.4352         7     0.964     0.502 -48.09   0
       293     93.8846    607.3890 307.8901389  +6.4131393     1481.101     2086.985     2245.939     77.50269     155.1291     310.5056      1.486     4.30     832.8358     54.75889     231.0134        12     1.397     0.598 -42.11   0
       294    491.1607    600.0419 307.7253766  +6.4294618     68090.15     97333.76     100709.8      77.6264     155.4381     310.5365      1.489     3.90     835.7346     54.75889     11838.45        67     1.596     0.930 -41.23   0
       295    677.2734    597.2401 307.6481647  +6.4368261     882.9557      1099.47     892.8076     77.74991     155.4381     310.7218      1.451     4.38      836.207     54.75889     151.1442         9     1.104     0.599 -42.01   0
       296    165.7283    595.0153 307.8607140  +6.4206555     1808.264     2929.657     3305.163     77.37878     155.2528     310.5365      1.729     4.53     832.8319     54.75889     266.9521        19     1.542     0.733 -44.74   0
       297    960.2653    593.3234 307.5307456  +6.4478596     505.7514     660.3543      565.239     77.99635     155.3764     310.6292      1.492     3.48     835.0456     54.75889     95.84045         5     1.152     0.303 -53.82   0
       298    444.7254    592.6467 307.7449110  +6.4309648     1012.191     1385.022     1624.666     77.74991     155.4381     310.6601      1.483     5.27     834.4208     54.75889      157.096        11     1.407     0.557 -42.35   0
       299    636.9099    592.0750 307.6651028  +6.4376136     891.6155     1428.149     1576.502     77.87322     155.6232     310.7218      1.558     3.74      835.877     54.75889     150.3094         9     1.054     0.686 -21.80   0
       300     34.4018    601.9902 307.9150250  +6.4133743     1889.282     2861.439     3149.648     77.25468     155.0673     310.4438      1.590     4.34     832.8165     54.75889     287.3292        20     1.655     0.748 -41.87   0
       301     37.3750    591.2493 307.9141503  +6.4179088     656.8319     852.4873     1171.298     77.50269     155.4381     310.5674      1.609     4.00     832.7728     54.75889     102.2291         6     1.055     0.435 -30.64   0
       302    336.4796    589.2957 307.7899839  +6.4287312     2108.729     2859.785     3504.949      77.6264     155.6232     310.7527      1.536     4.18     832.7092     54.75889     353.7402        17     1.385     0.736 -39.94   0
       303    488.7152    587.9740 307.7267953  +6.4343632     934.4352     1421.201     1232.745     77.99635     155.1291     310.5365      1.483     5.40     835.1823     54.75889     145.2046        10     1.493     0.552 -46.24   0
       304    763.2515    583.5001 307.6129089  +6.4453632     5560.418     7762.202     7738.371     77.87322     155.3764     310.8762      1.495     3.99     836.3964     54.75889     839.9539        24     1.470     0.763 -40.33   0
       305    816.7834    578.7643 307.5908302  +6.4491005     14628.82     21177.89     21478.58     77.50269     155.1291     310.4438      1.516     3.83     836.4647     54.75889      2255.37        35     1.520     0.870 -40.05   0
       306    558.9193    579.0014 307.6979340  +6.4404110     1306.235     2096.428     2187.455     77.13038     154.8815      310.382      1.606     3.84      835.525     54.75889     251.7314        13     1.461     0.514 -43.78   0
       307    640.6592    576.8900 307.6640516  +6.4440087     3080.321     4435.175     4538.041     77.74991     155.3764     310.7527      1.485     4.27      835.562     54.75889     514.8506        19     1.464     0.713 -41.33   0
       308     61.5570    578.4355 307.9045362  +6.4240105     859.4579      1214.91     943.8387      77.6264     155.3764     310.4747      1.448     4.79     832.7184     54.75889     141.6933        10     1.276     0.509 -40.86   0
       309    957.5670    573.1125 307.5325379  +6.4561155     1275.409     1920.539     2274.327     77.99635     155.2528     310.6601      1.571     3.69     834.7651     54.75889     208.2943        11     1.130     0.583 -38.93   0
       310    253.0676    570.6182 307.8252544  +6.4336531     1311.158     1763.338     1713.744     77.50269     155.3146     310.5983      1.522     3.90     832.0229     54.75889      204.712        16     1.388     0.724 -37.38   0
       311    217.1592    571.8076 307.8401293  +6.4319601     659.0027     1063.886     1671.058     77.25468     155.1291      310.351      2.439     5.59     831.9229     54.75889     114.6201         8     1.141     0.771   3.23   0
       312    399.3041    570.4937 307.7645174  +6.4385946     1062.239     1446.385     1312.679     77.87322     155.9927     310.5983      1.554     5.57     832.9254     54.75889     159.3923        12     1.460     0.600 -41.70   0
       313    892.8552    562.0687 307.5597859  +6.4585248     2930.797     4323.617     4539.355     77.87322     155.2528     310.6292      1.506     3.76     835.6865     54.75889     426.4427        21     1.408     0.806 -37.85   0
       314    187.6128    562.1819 307.8527238  +6.4349454     798.6157     1427.221     1889.537      77.6264     155.0673     310.5674      1.764     4.70     832.1565     54.75889     168.7026         9     1.548     0.405 -47.78   0
       315    851.5629    559.4989 307.5770241  +6.4582126     2535.848      3697.34     3706.108     77.87323     155.2528     310.8453      1.534     4.05     835.9876     54.75889      407.967        19     1.453     0.732 -40.41   0
       316    822.6211    555.3398 307.5891847  +6.4589672     2453.135     3842.563     4349.935     77.50269     155.3146     310.5983      1.699     5.00     836.0527     54.75889     370.9202        20     1.551     0.745 -35.74   1
       317    764.8569    555.8802 307.6131616  +6.4568215     603.5948     878.5259     1068.797     77.99635     155.3764     310.6601      1.521     3.50     835.6718     54.75889     123.2052         6     1.049     0.538 -27.34   0
       318    279.5399    554.4808 307.8147987  +6.4412020     8504.061     12054.13     12345.62     77.99635     155.3764     310.6292      1.518     4.19     831.8649     54.75889     1462.052        28     1.520     0.787 -41.75   0
       319    832.1331    550.6307 307.5853901  +6.4612281     165644.4     240145.7     249661.1      77.6264     155.3764     310.6292      1.527     3.92     835.9543     54.75889     26498.54       109     1.650     1.056 -41.32   0
       320    639.6241    553.1306 307.6652735  +6.4537848     435.5771     859.3013      991.811     77.50269     155.2528     310.5983      2.154     3.43     835.0266     54.75889     71.74768         5     0.780     0.435 -70.83   0
       321    213.7352    549.0708 307.8423126  +6.4412336     62586.02     91450.01     95723.66     77.87322     155.4381     310.6601      1.517     3.91     831.5828     54.75889     9835.026        70     1.641     0.974 -37.96   0
       322    761.4443    551.3784 307.6147290  +6.4585667     568.9523     708.1036     980.3519     77.37879     155.2528     310.4747      1.469     4.26     835.4806     54.75889     86.96912         6     1.123     0.460 -34.73   0
       323    137.7119    545.3083 307.8740156  +6.4402410     6607.718     9490.639     9922.035     77.87322      155.808     310.7836      1.500     4.09     832.4304     54.75889     1042.484        25     1.517     0.762 -37.11   0
       324   1003.0528    542.4906 307.5146604  +6.4702710     1459.096     2240.739     2302.133     77.74991      155.191     310.7836      1.693     4.52     833.0413     54.75889     174.8269        16     1.329     0.841 -38.75   0
       325   1023.1650    542.0919 307.5063189  +6.4711035     592.1498     698.3994      1015.41     73.69497     130.6892     242.0516      1.297     3.95     832.5103     54.75889     100.4562         6     0.964     0.464 -39.98  24
       326    251.8778    541.2398 307.8267317  +6.4457437     613.0803     881.1493    -912.4222     77.74991     155.3764     310.6909      1.518     5.10     831.3211     54.75889     99.72205        10     1.573     0.468 -46.68   0
       327    868.7388    537.9975 307.5706044  +6.4676623     4643.258     6844.149     6875.237     77.25468      155.191      310.382      1.530     3.97     835.4763     54.75889     710.5848        21     1.468     0.765 -38.52   0
       328    387.1024    536.1628 307.7707329  +6.4523624     18229.18     26072.16     26756.62     77.87322     155.2528     310.8145      1.470     3.77     831.7466     54.75889     3156.911        35     1.516     0.829 -38.85   0
       329    477.4052    536.2595 307.7332197  +6.4553390     830.7985     1059.895     1196.527     77.37878     155.2528     310.4438      1.434     4.22     832.8052     54.75889     148.5633         8     1.057     0.570 -30.63   0
       330    188.8143    535.1829 307.8531288  +6.4461335      2009.15     2881.124     3505.257      77.6264     155.0673     310.5983      1.789     4.51     831.5682     54.75889     344.9832        18     1.624     0.692 -32.19   2
       331    822.5980    531.2473 307.5899959  +6.4689147     6131.442     8848.582     9232.733     77.25468     155.0673     310.2583      1.498     3.75     835.4014     54.75889     1012.591        29     1.520     0.866 -42.16   0
       332    264.4148    532.7069 307.8218097  +6.4496865      1025.71     1627.342     1449.212      77.6264      155.191     310.5056      1.621     4.64     831.0076     54.75889     187.3158        12     1.222     0.828 -47.26   0
       333    126.0675    532.6542 307.8792762  +6.4450758     972.9303     1372.308     999.2219     77.87322     155.3146     310.5674      1.535     4.01     832.1802     54.75889     154.7313        10     1.059     0.738 -26.34   0
       334    553.4846    530.9633 307.7017941  +6.4600653     7100.395     10169.86     10573.18     77.87322     155.3764     310.6292      1.489     3.73     833.9065     54.75889     1120.677        29     1.508     0.826 -38.98   0
       335    411.6171    527.7082 307.7608325  +6.4566726     1449.382     1989.395     2142.591      77.6264     155.1291     310.5674      1.515     4.36     831.7249     54.75889     206.7194        12     1.212     0.633 -43.87   0
       336    200.4384    524.2491 307.8486666  +6.4510374     7302.745      10252.4     10737.61     77.87322     155.3764     310.5365      1.499     3.82     830.9693     54.75889     1155.041        27     1.484     0.789 -37.16   0
       337    598.2428    524.0825 307.6834315  +6.4643994     2641.557     3903.005     4041.521     77.87322     155.3764     310.6292      1.554     3.95          834     54.75889     426.4288        21     1.669     0.680 -34.57   0
       338     72.0513    522.9485 307.9020376  +6.4472727     5292.879     7990.629     8187.773     77.87322     155.2528     310.6601      1.548     3.87     832.2914     54.75889     872.6481        25     1.501     0.816 -41.94   0
       339    881.6151    524.0919 307.5657179  +6.4738325     630.6779     954.2333     1249.794      77.6264      155.191     310.5056      1.517     4.81     834.9129     54.75889     108.7275         8     1.192     0.550 -45.65   0
       340    839.1947    523.4896 307.5833597  +6.4726702     1400.044     2180.932     2125.077     77.37878     155.0673     310.4129      1.615     6.01     835.0817     54.75889     216.9601        15     1.697     0.610 -42.29   0
       341    295.7137    520.6631 307.8092119  +6.4557066     93873.62     134763.7     139399.2     77.99635     155.4998     310.6909      1.541     3.84     830.5089     54.75889     15329.23        75     1.616     0.967 -38.78   0
       342    585.1500    517.9792 307.6890737  +6.4664829     838.1896     1101.659     1044.322     77.37878     155.4381     310.5365      1.368     4.49     833.6534     54.75889     148.8887         8     1.125     0.510 -38.37   0
       343    279.4217    515.8538 307.8161401  +6.4571474     1655.276     2320.663     2928.307     77.37878     155.3764     310.4747      1.490     4.20     830.2355     54.75889     274.4939        13     1.437     0.579 -38.86   0
       344    995.1020    514.2798 307.5189003  +6.4816558     1708.038     2593.841     2881.761     77.74991     155.7464     310.6909      1.591     4.33     832.6687     54.75889     247.3905        18     1.557     0.726 -50.02   0
       345    818.8615    513.0139 307.5921548  +6.4763193     16812.81     24447.12     25096.92     77.37878      155.191     310.4438      1.497     3.94     834.7736     54.75889     2737.317        37     1.529     0.867 -40.58   0
       346    522.4828    511.4702 307.7153225  +6.4670797     43610.88     66881.31     69785.31     78.11927     155.6232     310.6909      1.683     3.85     832.6783     54.75889     6304.626        66     1.708     1.109 -30.33   0
       347    673.1688    509.9973 307.6527769  +6.4727133     1033.954     1880.483      1926.83     77.25468      155.191     310.4438      1.773     4.68     833.6635     54.75889     195.4117        13     1.442     0.658 -37.23   0
       348    746.5647    509.0374 307.6223199  +6.4755546     470.0513     705.5407     555.2558      77.6264     155.2528     310.4438      1.956     3.82     834.1454     54.75889     98.79816         5     1.336     0.313 -38.46   0
       349    234.8976    507.7393 307.8349059  +6.4590079     2038.187     2847.324     3223.483      77.6264     155.3764     310.7527      1.532     4.19     829.7971     54.75889     327.9647        15     1.365     0.654 -41.06   0
       350     70.3508    508.3520 307.9032333  +6.4532426      1373.89     1960.554     2067.444     77.87322     155.2528     310.6909      1.467     4.34     832.1182     54.75889     186.6376        14     1.248     0.773 -37.41   0
       351    682.5225    506.3448 307.6490130  +6.4745332     3204.095     4810.268     4650.896     77.99635     155.3764     310.6909      1.593     4.69     833.5982     54.75889     519.2601        20     1.511     0.694 -40.88   0
       352    120.8986    507.8770 307.8822533  +6.4551331     774.8416     1133.752     1060.441     77.50269     155.6232     310.6601      1.528     5.19     831.6059     54.75889     120.0806        10     1.227     0.620 -32.68   0
       353    692.7100    506.3539 307.6447808  +6.4748688     1494.156     2020.247     1864.605     77.87322     155.2528     310.7836      1.494     4.84     833.6685     54.75889     227.5266        13     1.292     0.671 -35.00   0
       354    744.5859    505.4442 307.6232615  +6.4769725     1162.823     1743.482     1398.881     77.25468      155.191     310.4129      1.389     3.46     834.0234     54.75889     228.3742        12     1.224     0.641 -25.00   0
       355    101.6121    503.9516 307.8903959  +6.4561075      648.791     1100.216     1539.747     77.25468     155.2528      310.351      1.616     4.25      831.655     54.75889     115.9338         6     0.798     0.644 -42.17   0
       356    420.0342    502.2374 307.7581872  +6.4674709     1869.907     2706.517     2865.136      77.6264      155.191     310.4438      1.410     3.57     830.6524     54.75889     323.8461        13     1.318     0.562 -40.62   0
       357    351.6147    500.4217 307.7866685  +6.4659339     4281.506     6060.182     6356.912      77.6264      155.191     310.5983      1.513     3.85     829.4473     54.75889     711.6437        22     1.426     0.746 -42.32   0
       358    166.8058    499.0781 307.8634796  +6.4603041        27223     40026.18     41405.08     77.50269     154.8815     310.4438      1.515     3.85     830.9106     54.75889     4419.397        44     1.581     0.892 -40.53   0
       359    531.6194    499.7641 307.7119179  +6.4722182     2272.548     3175.136     3283.597     77.37878      155.191     310.4438      1.472     4.09     832.3589     54.75889     389.4824        17     1.387     0.706 -33.86   0
       360    894.6014    499.2185 307.5611504  +6.4845350     1617.288     2404.324     2261.957     77.50269     154.9435      310.382      1.487     4.09     834.0535     54.75889     275.0377        13     1.304     0.605 -36.45   0
       361    436.6626    499.9373 307.7513567  +6.4689762     458.1864     791.7354     878.5146     77.87322     155.3764     310.6909      1.663     4.74     830.9236     54.75889     82.61932         5     1.012     0.629  16.66   0
       362    131.9995    497.3762 307.8779942  +6.4598408     2800.404     3997.851     3926.484     77.50269     155.0673     310.4438      1.498     4.34     831.2513     54.75889     423.1608        21     1.467     0.752 -39.96   0
       363     11.7358    497.3218 307.9279497  +6.4558311     2175.712     3104.487      2933.58     78.11927     155.4381     310.6601      1.489     3.82     832.9207     54.75889     318.9514        17     1.372     0.716 -44.48   0
       364    368.6190    495.6858 307.7797635  +6.4684579     1205.438     1837.401     1897.834     77.50269     155.1291     310.5674      1.627     3.92     829.5117     54.75889      194.175        12     1.204     0.649 -40.72   0
       365    992.3740    493.4927 307.5207241  +6.4901487     5135.801     7520.573     7264.653     77.99635     155.1291     310.5056      1.610     4.11     832.2964     54.75889     724.4068        27     1.492     0.881 -41.18   0
       366     66.4504    491.3234 307.9054243  +6.4601429     399.7509     515.2526     557.1542     77.74991     155.4381     310.6601      1.428     3.77     831.9777     54.75889     73.12012         5     1.382     0.296 -44.55   0
       367    565.4421    486.3044 307.6983170  +6.4789045     1652.428     2365.679      2438.83     77.87323     155.3146     310.7836      1.563     3.90     832.1415     54.75889     256.0583        14     1.261     0.680 -45.00   0
       368     31.0654    483.4556 307.9203860  +6.4622048     26436.58      38266.2     39928.56     77.99635     155.2528     310.6601      1.529     3.87     832.6187     54.75889     3799.108        44     1.605     0.879 -40.45   0
       369     13.6274    477.6843 307.9278228  +6.4640028     203092.1     296611.4       308165     77.99635     155.1291     310.5365      1.573     4.03     832.8157     54.75889     32170.04       113     1.681     1.031 -39.65   0
       370    440.7345    483.2035 307.7502243  +6.4760217      610.699     916.7945     837.0176     77.13038     155.1291     310.4438      1.736     4.90     830.3407     54.75889     99.31934         7     1.206     0.565 -12.57   0
       371    463.8239    480.1405 307.7407352  +6.4780577     45326.84     65195.49      67410.7     77.50269     155.3764     310.5056      1.484     3.67     830.8172     54.75889     8122.762        55     1.567     0.899 -38.45   0
       372    671.8348    479.8059 307.6543372  +6.4851353     13027.22     18649.77     19423.25     77.13038     155.1291     310.4438      1.484     3.84     832.6197     54.75889     2154.659        34     1.497     0.846 -37.31   0
       373    311.4836    480.3983 307.8040081  +6.4728597     1116.829     1639.794     1714.033     77.13038     154.9435      310.382      1.648     3.99     828.4363     54.75889     186.2658        11     1.215     0.699 -43.80   0
       374    228.9800    477.7988 307.8383662  +6.4711723     20144.67     31016.23      32281.8     77.50269     155.0054      310.382      1.633     3.69     828.5353     54.75889     3034.429        44     1.542     1.072 -36.69   0
       375    194.5314    478.9853 307.8526359  +6.4695291     1710.979     2552.784     2422.745     77.37878     155.2528     310.5674      1.460     4.39     829.4835     54.75889     248.8995        14     1.398     0.626 -44.49   0
       376   1005.5524    478.4735 307.5157483  +6.4967882     1193.638      1739.28      2264.51     77.74991     155.4381     310.6601      1.627     4.79     831.6509     54.75889     212.5132        13     1.468     0.600 -40.55   0
       377    934.4603    477.2636 307.5453221  +6.4949257     751.7203     1306.757     1237.919     77.87322     155.3146     310.6909      1.710     6.41     833.0412     54.75889     133.2591        13     1.744     0.661 -48.33   0
       378    846.0238    477.5964 307.5820497  +6.4918476     911.3862     1272.217     1232.819     77.50269     155.0673     310.5056      1.608     5.08     833.5078     54.75889     124.0977         9     1.194     0.610 -44.42   0
       379    593.6465    476.5439 307.6869263  +6.4838755      3117.86     4237.737     4026.787     77.87323     155.3764     310.7218      1.461     3.78     832.0822     54.75889     524.7988        21     1.381     0.778 -41.03   0
       380    967.5287    473.6254 307.5317055  +6.4975269     4778.252     6926.513     7503.598     77.50269     155.2528     310.5983      1.568     4.31     832.2354     54.75889     740.5599        26     1.486     0.832 -40.04   0
       381    640.5674    472.1852 307.6675801  +6.4872398     6997.099     9965.581     10167.39     77.50269     155.1291     310.5674      1.501     3.84     832.0657     54.75889     1147.131        25     1.448     0.790 -40.54   0
       382    128.2820    472.8251 307.8803610  +6.4698533     1268.793     1755.465     1370.277      77.6264     155.1291     310.6601      1.519     4.41     830.6562     54.75889     208.6902        12     1.337     0.582 -37.00   0
       383    539.6392    471.9576 307.7095144  +6.4839674      633.376     1038.244     1462.716      77.6264     155.4381     310.5365      1.788     4.84     830.9882     54.75889     95.42529         6     1.312     0.507  12.70   0
       384    239.5516    472.1740 307.8341632  +6.4738487     487.8075     550.5075     442.3889     77.50269     155.4381     310.5674      1.184     3.48     828.2715     54.75889     84.55951         5     0.812     0.430 -68.71   0
       385    990.0318    466.0160 307.5226099  +6.5014166      3566.74     5109.258     5235.481     77.50269     155.1291     310.5674      1.485     3.62      831.523     54.75889     594.0681        20     1.376     0.781 -39.45   0
       386    678.6101    465.1296 307.6520118  +6.4914212     577.4179     829.9796     776.8381     77.37878     155.0673     310.5056      1.316     3.52      831.844     54.75889     95.88757         5     0.822     0.436 -71.70   0
       387    552.8292    463.4027 307.7043206  +6.4879400     8124.878      11410.3     11943.54     77.37878     155.1291     310.4747      1.471     3.70     830.5027     54.75889     1353.448        30     1.495     0.789 -37.77   0
       388    455.6952    465.0323 307.7446165  +6.4840245     457.7433     631.0984     702.7335     77.99635     155.2528     310.7218      1.188     3.58     829.6723     54.75889     92.79352         5     0.814     0.495 -32.10   0
       389    428.7599    464.7869 307.7558138  +6.4832261      681.023     1053.362     1644.734     77.37878      155.191     310.4129      1.603     4.82     829.1086     54.75889     119.7017         7     1.420     0.463 -38.60   0
       390    398.8972    463.6141 307.7682580  +6.4827125     2978.489     4191.217      4797.21     77.74991     155.1291     310.4438      1.511     4.00     828.4788     54.75889     436.2483        18     1.423     0.706 -34.76   0
       391    909.3876    459.2630 307.5563364  +6.5015251     3446.095     5076.019     5685.244     77.37878      155.191     310.4438      1.592     4.10      832.254     54.75889     489.1786        24     1.485     0.871 -38.60   0
       392    561.9290    460.3105 307.7006436  +6.4895204     737.5562     1114.564     1639.086     77.74991     155.6232     310.6601      1.567     3.88     830.4418     54.75889     149.6466         6     1.018     0.424 -11.57   0
       393    257.1971    458.7520 307.8272826  +6.4799813      682.167     896.6169     1312.004     77.25468     155.1291     310.2583      1.325     2.64     827.6403     54.75889     124.9183         6     0.753     0.528 -47.26   0
       394    916.6552    453.7053 307.5535020  +6.5040616     2290.686     3190.486     3120.078     77.74991     155.3764     310.8762      1.451     3.63     831.9156     54.75889     355.1868        17     1.393     0.691 -42.36   0
       395    956.1394    453.0333 307.5371213  +6.5056514     1523.904     2313.355     2288.746      77.6264     155.4381     310.5983      1.532     3.86     831.4393     54.75889     230.1365        18     1.344     0.833 -40.21   0
       396    135.6147    452.8282 307.8779852  +6.4783557     758.0672     1155.447     1083.828     77.50269      155.191     310.5674      1.627     4.50     829.9866     54.75889     138.8624         8     1.308     0.440 -51.28   0
       397    740.6208    449.7353 307.6267640  +6.4998436     3218.135     4497.243     4428.161     77.50269     155.3764     310.5365      1.420     3.60     832.5021     54.75889     498.3589        19     1.375     0.711 -37.83   0
       398    102.3217    448.7604 307.8919510  +6.4789196     2007.368     2983.772      2902.15     77.74991     155.3764     310.6601      1.574     4.48     830.2242     54.75889     312.3482        17     1.391     0.726 -37.26   0
       399    451.4452    448.2939 307.7469411  +6.4907940     1147.735      1556.41     1262.572     77.74991     155.3146     310.7836      1.418     3.64     828.5438     54.75889     203.7144        12     1.171     0.641 -45.89   0
       400    411.5839    447.8203 307.7635157  +6.4896578     4078.009     5978.739     5935.305      77.6264      155.191     310.5674      1.531     4.03     827.9579     54.75889     631.3242        22     1.425     0.776 -44.02   0
       401    639.3166    444.3722 307.6690270  +6.4986825     10863.26     15602.65     16045.83     77.74991      155.191     310.5983      1.510     4.03     830.3402     54.75889     1612.176        30     1.486     0.826 -41.16   0
       402    802.2867    440.5789 307.6014511  +6.5056775     16558.86     24510.88      27162.4     77.87322     155.1291     310.5365      1.668     5.12     832.3284     54.75889     2925.979        52     2.181     0.852 -46.88   0
       403    321.8164    441.2405 307.8010256  +6.4893737      2786.01     4098.901     4216.564     77.37878      155.191     310.4747      1.510     4.36     826.4714     54.75889     484.0298        19     1.497     0.707 -43.18   0
       404    445.3992    440.8038 307.7497029  +6.4936848     629.7198     1000.427     989.1934     77.25468     154.9435     310.4129      1.642     4.69     828.0517     54.75889     113.4337         8     1.214     0.516 -43.94   0
       405    753.3970    439.3302 307.6218030  +6.5045655     512.1092     524.7928     826.1086     77.37878     155.0054     310.4747      1.476     3.79     832.2046     54.75889     98.16901         5     1.312     0.315 -44.68   0
       406    831.0439    438.0957 307.5895871  +6.5076598      1344.35     1900.818     1876.826     77.87322     155.3146     310.7836      1.436     4.09      831.929     54.75889     238.1086        13     1.334     0.635 -39.60   0
       407    404.8268    437.7759 307.7666583  +6.4935794     1733.482     2505.819     3153.037     77.37878     155.2528     310.5365      1.481     3.91     827.3447     54.75889      290.897        15     1.377     0.652 -42.39   0
       408    420.0442    437.9336 307.7603315  +6.4940228     519.3122     871.5594     584.4898     77.87322     155.3146     310.6909      1.581     3.74     827.6129     54.75889     90.43048         5     1.059     0.379 -34.24   0
       409    987.1721    435.9993 307.5247952  +6.5137162     1798.596     2889.765     2833.986     77.37878     155.1291     310.4747      1.648     4.12     830.4186     54.75889     280.6306        19     1.353     0.854 -38.46   0
       410    735.2528    435.0847 307.6294820  +6.5057143     623.8841     996.0621     1123.589     77.87322     155.3146     310.8145      1.744     4.82     832.0023     54.75889     105.5202         9     1.085     0.606 -35.83   0
       411    393.2686    433.7471 307.7715943  +6.4948567      693.595     797.8443     850.4948     77.74991     155.3146     310.5674      1.225     3.32     826.9145     54.75889      155.818         5     0.877     0.402 -44.65   0
       412    139.3324    432.9504 307.8771069  +6.4866878      4638.24     6894.917     7530.159     77.74991     155.2528     310.6601      1.538     3.79     829.3651     54.75889     769.2125        25     1.572     0.768 -40.24   0
       413    777.7817    431.7318 307.6119258  +6.5085149     2480.879     3798.686     3395.428     77.50269     155.2528     310.5983      1.516     4.48     832.0233     54.75889     403.0828        17     1.490     0.658 -40.32   0
       414    297.2351    430.0700 307.8116105  +6.4931638      1731.89     2622.323     2909.564     77.74991     155.3146     310.7527      1.529     3.57     825.9172     54.75889     287.0617        15     1.315     0.669 -44.96   0
       415    375.4027    427.6480 307.7792199  +6.4967779     3447.737     4939.522     5422.474     77.25468     155.0673     310.2583      1.509     4.14     826.2605     54.75889     576.7609        22     1.456     0.773 -35.09   0
       416    731.2469    425.3761 307.6314696  +6.5095897     1684.759     2411.494     2614.383     77.50269     155.3764     310.5365      1.481     4.74     831.5579     54.75889     250.9962        13     1.256     0.656 -50.55   0
       417   1005.0474    424.1613 307.5177623  +6.5191981     647.4609     977.9168     907.6318     77.74991     155.3764     310.4747      1.732     4.46      829.916     54.75889     118.0714         6     1.239     0.456 -46.08   0
       418    435.1053    423.5732 307.7545547  +6.5004556     613.7005     959.6337     934.9926     77.99635     155.1291     310.5365      1.652     3.78     827.0138     54.75889     151.6212         6     1.270     0.323 -41.84   0
       419    262.9992    423.5390 307.8260508  +6.4947150     950.3215     1349.011     1306.148     77.13038      155.191      310.351      1.480     4.40     826.0606     54.75889     171.6802         8     1.046     0.528 -42.72   0
       420    685.7395    421.4659 307.6505052  +6.5096882     492.7992     528.3195     325.5028     77.87322     155.3146     310.6601      1.072     3.33     829.6425     54.75889     104.6917         5     0.753     0.427 -24.60   0
       421    473.9365    419.0710 307.7385739  +6.5036116     645.7796     1062.171     951.8762     77.87322     155.3764     310.7218      1.513     4.92     826.8742     54.75889     105.2214         8     1.285     0.532 -24.16   0
       422    572.8823    418.0495 307.6975034  +6.5073360     1121.236     1673.465     1544.585     77.87322     155.3764     310.6909      1.413     4.55     827.7792     54.75889     179.6715         9     1.261     0.468 -33.51   0
       423    495.0234    416.5080 307.7298995  +6.5053740     1320.369     1925.727     2127.668     77.87322      155.191     310.5056      1.436     5.03     826.8298     54.75889     219.8297        13     1.363     0.605 -41.70   0
       424    857.5756    415.3565 307.5793214  +6.5179319     1616.574     2335.823     1861.753     77.50269     155.3146     310.4747      1.463     4.13     830.6179     54.75889     258.9484        13     1.393     0.586 -42.51   0
       425    642.5427    414.7838 307.6686733  +6.5110076     864.5887     1064.928     674.0642     77.25468     155.3146     310.4129      1.352     4.38     828.6368     54.75889     158.9144        10     1.332     0.498 -55.47   0
       426    843.0858    414.4885 307.5853699  +6.5178083       2209.8     3115.869     2818.722      77.6264     155.6232     310.7836      1.455     3.87     830.8182     54.75889     349.5532        17     1.409     0.704 -38.43   0
       427    740.4861    412.6296 307.6280559  +6.5151606        16120     22596.57     23101.95     77.99635     155.0673     310.5674      1.497     4.17     831.3699     54.75889      2635.48        33     1.521     0.801 -39.52   0
       428    661.6116    408.7354 307.6609530  +6.5141407     2674.256     3812.956     4462.215     77.37878      155.191     310.5056      1.393     3.91     828.5656     54.75889     431.7607        16     1.322     0.687 -40.60   0
       429    734.4700    407.3285 307.6307318  +6.5171492     676.0828      599.079     1040.298     77.99635     155.4998     310.5983      1.336     4.33     830.9631     54.75889     119.6094         7     1.045     0.511 -26.66   0
       430    636.7613    405.6860 307.6713784  +6.5145714      5750.05     8330.464     8998.604     77.87322     155.3764     310.6601      1.510     3.85      828.282     54.75889     928.2562        24     1.483     0.755 -37.29   3
       431    632.9688    403.1142 307.6730397  +6.5155069     15635.88     22063.12     23511.49     77.87322      155.191     310.5674      1.453     3.81      828.145     54.75889     2778.945        34     1.512     0.802 -39.71   2
       432    965.8017    402.4738 307.5347875  +6.5268495     3817.224     5624.805     5988.398     77.37878     154.8196     310.5365      1.575     3.89       829.25     54.75889     571.7514        21     1.461     0.780 -38.35   0
       433    404.8870    398.5480 307.7679442  +6.5097789      31084.7     44730.13     46388.57     77.87322     155.2528     310.7527      1.520     3.88     825.6024     54.75889     4918.085        47     1.594     0.877 -38.27   0
       434    442.1914    399.8877 307.7524023  +6.5104722     648.7629     921.5237      811.314     77.50269     155.0673     310.4438      1.383     4.39     825.9095     54.75889      107.696         8     1.104     0.496 -35.33   0
       435    921.5895    398.2388 307.5532963  +6.5271289     1402.216     2066.026     318.1505     77.25468      155.191      310.382      1.685     4.58     829.2291     54.75889     204.7593        12     1.278     0.637 -37.15   0
       436    150.8734    398.0938 307.8734807  +6.5014667     2450.841     3532.122     3610.163     77.74991     155.4998     310.6601      1.447     3.71     828.0201     54.75889     455.6278        19     1.406     0.720 -41.09   0
       437    918.5315    394.7574 307.5546825  +6.5284647     748.9407     1491.105    -658.3783     77.87322     155.3146     310.7527      1.808     6.32     829.1826     54.75889     105.0175        11     1.384     0.811 -46.53   0
       438    616.2878    394.3839 307.6802608  +6.5185555      635.006     883.4039     1006.684      77.6264     155.1291     310.5365      1.490     4.56     827.6697     54.75889     156.2243         6     1.240     0.475 -43.10   0
       439     84.2796    393.6935 307.9012916  +6.5010517     1429.099     2307.359     2796.408      77.6264     155.5615     310.7218      1.722     4.16     829.0273     54.75889     258.6191        13     1.453     0.600 -40.47   0
       440    934.5529    392.9094 307.5480878  +6.5297604     5227.486     7721.274     8201.209     77.87322     155.2528     310.7836      1.566     4.11     828.9869     54.75889     730.6083        27     1.459     0.849 -40.03   0
       441    990.4130    390.7136 307.5249534  +6.5325233     622.7218     812.7992     810.5189     77.50269      155.191     310.5674      1.463     5.41     828.9285     54.75889     101.0505         9     1.413     0.584 -35.52   0
       442    262.4146    389.1194 307.8274457  +6.5089074     14978.92     21500.71     22463.23     77.50269     155.1291     310.5056      1.518     3.76     825.1601     54.75889      2304.46        38     1.580     0.834 -39.56   0
       443     97.5169    383.2686 307.8961422  +6.5057999     855.7292     1230.141       1233.4     78.11927     155.6232     310.6909      1.454     4.16     828.7303     54.75889     142.9952         9     1.173     0.665 -63.42   0
       444    757.0919    382.9218 307.6221466  +6.5279805     704.3762     1130.215     712.2585      77.6264     155.6232     310.6909      1.475     3.98        830.1     54.75889     145.4968         7     0.985     0.460 -46.63   0
       445    985.6180    381.3381 307.5272570  +6.5362353     1145.859     1590.079     1824.181     77.50269     155.3146     310.5056      1.562     4.30     828.6361     54.75889     163.1947        11     1.111     0.709 -34.46   0
       446    725.3466    382.0060 307.6353656  +6.5273013     894.0845     1114.312     1653.851     77.37878     155.1291      310.382      1.461     4.44     829.4977     54.75889     184.5604         8     1.138     0.526 -51.17   0
       447    375.1447    378.9404 307.7809554  +6.5168809     1461.905     1965.595     1751.405     77.99635     155.3764     310.6601      1.405     3.49      824.531     54.75889     275.3041        14     1.294     0.651 -45.51   0
       448    208.2714    379.1613 307.8502710  +6.5112065     1007.549     1586.959     1889.207     77.74991     155.3764     310.7218      1.606     3.30     825.9657     54.75889     169.9755        10     1.007     0.675 -50.85   0
       449    402.6443    378.7321 307.7695382  +6.5178861     592.8831     907.6255     1102.421     77.87322     155.3146     310.6909      1.449     3.39     824.7666     54.75889     111.1659         5     0.725     0.467  79.17   0
       450    162.6388    377.7543 307.8692747  +6.5102591     5516.547      8030.08     8330.601      77.6264     155.3764     310.5674      1.518     3.81     826.9321     54.75889      890.616        25     1.533     0.767 -42.19   0
       451    267.5742    376.7303 307.8257168  +6.5141955      1496.39     2124.577     2478.781     77.50269     155.2528     310.5983      1.580     5.08     824.7934     54.75889     240.5049        14     1.424     0.617 -42.25   0
       452    655.9438    376.9058 307.6643688  +6.5270946     568.9993     689.8588      1228.51     77.74991     155.3764     310.8453      1.393     3.95     827.4753     54.75889     100.0662         7     0.894     0.557 -44.22   0
       453    459.8166    376.6305 307.7458572  +6.5206640     878.3044     1262.562     929.8174     77.50269     155.1291     310.5983      1.248     4.01     824.9822     54.75889     138.0683         7     1.321     0.349 -47.00   0
       454    848.6815    374.2969 307.5843825  +6.5345903     880.0797     1341.978     1578.079     77.74991     155.6848     310.7218      1.476     3.46     829.5254     54.75889     161.4998         9     1.095     0.538 -46.03   0
       455    184.5657    373.6534 307.8603033  +6.5126868     2643.797     4245.353     4559.173     77.74991     155.3764     310.5983      1.771     4.07     826.3032     54.75889     383.9777        23     1.510     0.868 -48.92   0
       456    579.8881    372.8277 307.6961017  +6.5262423     875.7347     1021.232     1183.487     77.99635     155.1291     310.5674      1.298     4.21      826.275     54.75889     154.6605         7     0.949     0.532 -37.56   0
       457      1.8821    369.4141 307.9363342  +6.5083127      2021.85     2522.209     2691.179     73.56465     131.3483     242.2498      1.307     4.00     829.7004     54.75889      396.693        13     1.078     0.816 -37.91  24
       458    996.6047    367.5869 307.5231494  +6.5422784     921.0417     1549.079     1384.912     77.50269     155.1291     310.5365      1.763     5.23     828.2561     54.75889     162.5667        12     1.481     0.609 -41.36   0
       459    408.1027    368.3868 307.7676164  +6.5223402     2187.615     3012.855     3657.056     77.74991     155.1291     310.4129      1.508     4.33     824.3476     54.75889      335.501        15     1.402     0.630 -42.59   0
       460    296.4051    368.8789 307.8140026  +6.5184021     852.2197     1373.362     1358.175     77.50269     154.8815     310.4438      1.614     4.16      824.246     54.75889     138.8101         7     1.071     0.461 -41.57   0
       461     27.2138    368.8936 307.9258287  +6.5093776     653.2485     982.2433     871.9681      77.6264     155.1291     310.5056      1.348     3.82     829.3865     54.75889     124.6653         6     0.956     0.437 -53.29   0
       462      9.0340    366.7486 307.9334527  +6.5096533     899.9344      1462.73     1296.135     77.74991     155.3146     310.5674      1.644     4.80     829.6233     54.75889     151.5417        10     1.261     0.621 -47.24   0
       463    341.9659    366.4026 307.7951581  +6.5209485     479.0503      1132.25     1228.263     77.13038      155.191     310.4438      2.074     4.45     824.0613     54.75889     75.20514         6     1.133     0.498 -52.45   0
       464    615.2654    364.8710 307.6816698  +6.5307077     581.3975     561.4619     736.8281     77.87322     155.4381     310.6601      1.351     4.28     826.5579     54.75889     103.0112         5     1.069     0.489 -53.13   0
       465     58.3020    362.8142 307.9131183  +6.5129305     3403.835      5453.76     5182.307     77.74991     155.1291     310.4438      1.650     4.74     828.9525     54.75889     566.3734        24     1.670     0.757 -42.93   0
       466    462.0233    361.8557 307.7454340  +6.5268384     7732.118     11131.38     11599.97     77.50269     155.3764     310.4747      1.485     3.86     824.3482     54.75889     1293.762        28     1.476     0.798 -39.59   0
       467   1018.2030    362.2690 307.5143527  +6.5451917     2014.293     2005.558     1995.499     77.25468     155.0054     301.5381      0.701     1.54     828.0807     54.75889     891.1788         5     0.639     0.405 -58.82  19
       468   1022.8245    360.5374 307.5124901  +6.5460602     3607.145     4418.842     4525.637      76.0025     135.3065     246.9571      1.209     4.67     828.0515     54.75889     970.5291        10     1.419     0.436 -15.48  27
       469    794.6458    360.9168 307.6072774  +6.5383170      2173.76       3214.7     3221.396     77.87322     155.3764     310.6601      1.556     3.80     829.6793     54.75889     328.6469        18     1.430     0.696 -37.05   0
       470    222.0672    361.6158 307.8451275  +6.5189130     554.4605     635.8218     477.8176     77.37878     155.2528     310.5674      1.414     3.26     825.2385     54.75889     121.5392         5     1.180     0.324 -47.87   0
       471    802.6577    359.2626 307.6040039  +6.5392667     13766.92      19627.7     20476.86     77.99635     155.3146     310.6909      1.502     3.88     829.6717     54.75889     2254.319        35     1.516     0.849 -37.15   0
       472    561.4415    360.7209 307.7041692  +6.5306259     526.6066     904.5971     470.0573     77.74991     155.3764     310.6601      1.583     4.16     825.5242     54.75889     97.53058         5     1.008     0.489 -84.44   0
       473    365.8086    357.5771 307.7855482  +6.5253898     1058.828     1586.949       1912.9     77.50269     155.1291     310.4747      1.606     4.57     823.8605     54.75889     157.3428         9     1.176     0.546 -64.46   0
       474     15.5596    348.9830 307.9313380  +6.5172075     977.5106     2586.259     3868.513     77.37878      155.191     310.4747      3.520     8.99     829.3929     54.75889     131.6083        26     2.285     0.988 -46.10   2
       475    977.5494    350.6813 307.5316280  +6.5486261     541.1578     890.2289     1450.988     77.87323     155.4381     310.6601      1.734     4.52     827.7032     54.75889     113.5056         8     1.304     0.445 -43.93   0
       476    210.8782    350.4309 307.8501502  +6.5231566     952.7529     1439.245     1630.395     77.74991     155.4381     310.6292      1.724     4.33     825.1367     54.75889     160.4797        10     1.374     0.541 -41.55   0
       477    926.9794    349.8642 307.5526654  +6.5472828     599.6741     771.1234     762.6052     77.50269     155.3764     310.5365      1.295     3.88     827.7451     54.75889     109.5157         6     0.943     0.457 -41.03   0
       478    416.5968    348.9603 307.7647369  +6.5306453     641.5677     980.3145      1438.13     77.00587     155.1291      310.382      2.048     3.74     823.6043     54.75889      99.8186         6     1.238     0.325 -38.62   0
       479    482.3689    345.9908 307.7375114  +6.5340686     2428.198     3565.722     3465.668     77.37878      155.191     310.4747      1.506     3.94     823.8369     54.75889     400.9799        17     1.344     0.705 -44.53   0
       480    938.6945    345.2088 307.5479529  +6.5495946     739.2117     1183.122     1063.062     77.50269     155.0054     310.4129      1.691     5.68     827.5117     54.75889     143.2783        11     1.496     0.607 -47.87   0
       481    510.2373    345.4254 307.7259525  +6.5352326     3316.917     4772.027     4946.267     77.50269      155.191     310.4438      1.490     4.03        824.2     54.75889     498.2361        17     1.430     0.663 -39.20   0
       482    867.9904    342.1169 307.5774311  +6.5485203     33823.89     51751.22      54185.8     77.50269     155.0673     310.5056      1.579     4.03     828.3204     54.75889     5196.757        55     1.648     0.986 -47.53   0
       483   1013.6650    341.9293 307.5169138  +6.5534397     527.3933     641.3685     415.2202     77.87322     155.4381     310.6601      1.213     3.44     826.9963     54.75889     98.27435         5     0.984     0.347 -44.79   0
       484    556.8625    341.4543 307.7067146  +6.5384285     482.4413     463.9157       427.39     77.99635     155.3146     310.6292      1.388     5.80     824.7278     54.75889     84.35608         7     1.199     0.790 -74.27   0
       485    453.1475    340.1954 307.7498449  +6.5354856     462.3598     680.4423     327.9561     77.25468     155.1291     310.2892      1.528     4.96     823.4973     54.75889     80.21472         6     1.037     0.672  -4.26   0
       486     85.4889    338.7894 307.9026301  +6.5237619     655.9756     1076.628     1138.296      77.6264     155.1291     310.4747      1.676     5.18     827.8788     54.75889     86.37616         9     1.243     0.610 -39.35   0
       487    360.1715    337.7363 307.7885535  +6.5333937     943.1078      1430.85     1512.654     77.50269     155.3764     310.5983      1.403     4.19     823.4078     54.75889     167.6808        10     1.299     0.506 -46.08   0
       488    639.8131    334.5291 307.6724833  +6.5440548     2912.468     4197.473     4245.084     77.37878     155.1291     310.5365      1.485     3.94     825.7662     54.75889     457.3196        20     1.477     0.709 -45.28   0
       489     47.5987    335.2491 307.9184892  +6.5239530     1265.621     1734.536     1667.432     77.25468     155.0054     310.2274      1.428     3.66     828.2651     54.75889     165.6878        12     1.117     0.751 -22.90   0
       490    724.4547    328.1263 307.6375313  +6.5495194      85363.8     120974.4     125586.6     77.74991     155.2528     310.5674      1.509     3.91     827.3715     54.75889     13160.16        78     1.607     0.960 -38.72   0
       491    171.5321    332.6460 307.8670914  +6.5291821     658.9367     1133.638     1239.249     77.87323     155.3146     310.6601      1.899     4.56      825.537     54.75889      110.226         7     1.283     0.461 -51.46   0
       492    882.4881    329.7308 307.5718198  +6.5541170     1365.283     1971.453     2252.408     77.87322     155.6232     310.6601      1.712     4.24     827.7513     54.75889     177.3406        15     1.247     0.816 -37.43   0
       493    103.6947    327.7911 307.8954357  +6.5289134     1500.397     2052.635      2395.55     77.50269     155.0054     310.4438      1.456     4.60     827.1065     54.75889     223.4863        12     1.300     0.600 -36.03   0
       494    586.8250    324.8774 307.6948196  +6.5462729      2886.76     4225.745     4395.125     77.50269     155.3146     310.6292      1.556     3.81     824.5225     54.75889     494.2545        18     1.378     0.722 -40.21   0
       495    413.8325    325.5804 307.7666666  +6.5402067     645.9109     774.1003     504.6093     77.37878      155.191     310.4747      1.291     4.21      822.957     54.75889     111.9998         6     1.075     0.470 -57.69   0
       496    124.1624    323.7756 307.8870674  +6.5312574     6807.705     9900.007     10233.44     77.50269      155.191     310.4129      1.509     3.78     826.5001     54.75889     1103.798        31     1.581     0.851 -39.97   0
       497    965.9324    325.0722 307.5373057  +6.5588146     849.4276     1096.495     1300.787     77.99635     155.4998     310.6601      1.393     4.44     826.3798     54.75889     169.5242        10     1.158     0.669 -46.06   0
       498    793.9283    323.0287 307.6088370  +6.5539377      463.243     575.4619     1004.753     77.74991     155.3764     310.6292      1.866     5.96     828.0171     54.75889     89.79285         6     1.528     0.655 -36.71   0
       499    784.9736    323.1415 307.6125536  +6.5535930     663.4435     987.8715     1454.901     77.50269     155.4381     310.4747      1.753     4.74     827.9419     54.75889     114.7283         7     1.100     0.689 -45.41   0
       500    570.2162    321.0868 307.7018464  +6.5472840     7765.832     11045.89     11120.16     77.50269     155.1291     310.5674      1.479     3.88     824.1362     54.75889     1356.784        28     1.484     0.822 -38.11   0
       501    299.1721    318.6588 307.8145333  +6.5392306     2908.468     4096.616     4034.874     77.50269     155.4381     310.5674      1.504     4.08     823.5773     54.75889      477.983        20     1.409     0.769 -37.91   0
       502    433.0792    316.2386 307.7589828  +6.5447071     27875.99      39993.1     41158.91     77.74991     155.4381     310.6601      1.493     3.78       822.69     54.75889     4565.356        44     1.563     0.863 -41.28   0
       503    699.4833    315.0107 307.6483431  +6.5541030     538.4811     718.4866       579.12     77.50269     155.1291     310.5056      1.321     3.75     826.3067     54.75889     83.39642         6     1.580     0.256 -54.01   0
       504    611.4821    315.7430 307.6848803  +6.5508671     741.3128     795.6866     356.5569     77.87322     155.3764     310.6909      1.340     4.33     824.4734     54.75889     126.1166         7     1.012     0.527 -37.95   0
       505    540.5996    315.0204 307.7143534  +6.5488006     1504.902     2210.034     2388.249     77.50269     155.0673      310.351      1.541     4.21      823.533     54.75889     237.4395        12     1.211     0.627 -44.66   0
       506    413.0356    314.3370 307.7673735  +6.5448225     1402.992     1728.671     2986.312     77.74991     155.3764     310.6292      1.402     3.39     822.6238     54.75889     216.5641        13     1.168     0.677 -40.18   0
       507    512.3224    311.6728 307.7262132  +6.5492389     1222.786     1690.628     2117.615     78.11927     155.6232     310.6601      1.375     3.73     823.0457     54.75889     233.0795         9     1.129     0.523 -45.12   0
       508    827.8615    308.6741 307.5952165  +6.5609944     970.3365     1343.716       1207.1     78.11927     155.3764     310.6601      1.494     4.77     827.3956     54.75889     117.9627        12     1.201     0.710 -45.16   0
       509    663.6498    308.6936 307.6634414  +6.5555172     752.5648     572.3475     390.3543     77.74991     155.2528     310.8145      1.023     2.85     825.2499     54.75889     136.4285         6     0.839     0.466 -46.74   0
       510    522.1677    306.6649 307.7222900  +6.5516354     9415.528     13431.23     13854.27     77.74991     155.3764     310.6292      1.489     4.01     822.9945     54.75889     1580.007        31     1.534     0.813 -39.47   0
       511    409.7515    308.9424 307.7689182  +6.5469402     886.0301     1291.275      1955.76     77.87322     155.3764     310.7836      1.576     4.32     822.5016     54.75889     144.4179         9     1.026     0.575 -38.92   0
       512    946.7340    304.9736 307.5459503  +6.5664757     888.0268     1223.839     1158.984     77.50269     155.3146     310.5674      1.444     4.82     825.7958     54.75889     157.3345        10     1.559     0.423 -45.56   0
       513    791.3597    305.2984 307.6104945  +6.5611733     3461.778     4999.857       5405.5     77.87322     155.2528     310.8762      1.544     4.32     827.1785     54.75889     521.1929        22     1.493     0.766 -37.70   0
       514    738.5074    305.4116 307.6324496  +6.5593667     945.9791     1399.482     1627.227      77.6264     155.0673     310.4747      1.583     4.09     826.9741     54.75889     172.3135        10     1.248     0.502 -47.05   0
       515    136.6112    304.5604 307.8825398  +6.5396085      446.237     684.8594     785.1614     77.25468      155.191     310.4129      1.304     4.27      825.817     54.75889     83.66882         5     0.982     0.529 -45.25   0
       516    348.5620    303.5251 307.7945207  +6.5471315     1186.655     1746.401      1398.31     77.74991     155.4381     310.7218      1.470     4.77     822.8011     54.75889     181.6625        12     1.462     0.531 -38.12   0
       517    106.9734    301.1905 307.8949654  +6.5400066     539.6774     566.2553     1016.142     77.50269      155.191     310.5365      1.399     3.93     826.1334     54.75889     78.46082         6     0.960     0.461 -34.99   0
       518    184.0825    297.1562 307.8630665  +6.5442562     1148.568     1867.742     1767.248     77.87322     155.3764     310.6292      1.657     4.64     824.9265     54.75889     203.3371         9     1.223     0.499 -41.19   0
       519    460.6795    296.5664 307.7481733  +6.5537519     515.4238     569.9048     764.9581     77.74991     155.3764     310.6601      1.493     4.97     822.1204     54.75889     92.69781         6     1.010     0.693 -69.05   0
       520    630.7272    295.6535 307.6775546  +6.5598040       536.42     819.8211     1310.899     77.74991     155.2528     310.6292      1.366     4.08     824.0645     54.75889     93.51562         6     0.901     0.529 -43.42   0
       521      7.0008    294.7331 307.9367138  +6.5393197     667.0852      1031.98      1079.56     77.13038     154.9435     303.0933      1.592     5.06     826.9429     54.75889     98.79834         8     1.125     0.644 -35.35  16
       522    412.0281    290.8799 307.7685761  +6.5544744     8118.385     11869.51     12347.22     77.74991     155.3146     310.6292      1.496     3.92     821.9865     54.75889     1387.053        29     1.513     0.815 -41.07   0
       523    700.1641    292.0058 307.6488270  +6.5636247     562.8633     661.1384     1027.463     77.00587     155.1291     310.4438      1.231     3.86      825.569     54.75889     97.23877         6     0.960     0.446 -50.97   0
       524    267.7552    291.4293 307.8284967  +6.5494225     2242.802     3201.535     3145.242     77.50269     155.4381     310.5365      1.449     4.02     823.6475     54.75889     409.9258        16     1.337     0.674 -36.93   0
       525    765.3074    291.0500 307.6217932  +6.5661893     1015.283     2221.801     2669.205     77.74991      155.191     310.8453      2.127     4.68      826.533     54.75889     190.9056         8     1.446     0.430 -43.61   2
       526    779.9226    286.6739 307.6158666  +6.5684829     57662.89     82081.67     84864.37     78.11927     155.6232     310.6909      1.495     3.96      826.387     54.75889     9287.739        59     1.569     0.920 -41.24   0
       527    451.4669    286.1307 307.7523494  +6.5577532     2566.303     3572.011     3435.953     77.87322     155.4381     310.6601      1.515     4.20     821.8089     54.75889     406.4401        19     1.443     0.725 -42.05   0
       528   1014.5518    283.7415 307.5184785  +6.5774960     1749.144     2868.362     2827.394     77.87322     155.3764     310.7527      1.703     4.93     823.0377     54.75889     241.1248        17     1.481     0.775 -44.08  16
       529    955.7866    282.8247 307.5429254  +6.5759222      2249.24     3397.211     3352.725      77.6264      155.191     310.5983      1.518     4.12     824.7056     54.75889     335.3405        19     1.460     0.826 -41.41   0
       530    597.5641    283.5909 307.6917353  +6.5636788     1323.231     1637.342      1929.58     77.37879     155.1291     310.4438      1.379     3.85     823.0363     54.75889     236.7066        11     1.155     0.669 -42.26   0
       531    438.1168    281.7516 307.7580423  +6.5591153     2045.573     2981.577      2712.53     77.87322     155.3764     310.6909      1.496     3.83     821.7479     54.75889     377.4525        20     1.527     0.831 -52.21   0
       532    488.5464    282.4500 307.7370671  +6.5605114     1348.244     1998.557     1971.244     77.99635     155.3764     310.6909      1.584     5.35     821.8036     54.75889     184.6776        14     1.335     0.705 -45.07   0
       533    318.0884    281.5073 307.8079176  +6.5552034     665.3539      1073.09      789.766     77.87322      155.808     310.7527      1.812     5.75     822.8804     54.75889     101.8092         9     1.489     0.626 -24.46   0
       534    859.2081    276.5553 307.5832614  +6.5752997     1079.514     1697.091     1572.171     77.37878     155.2528      310.382      1.577     4.95     826.1533     54.75889      176.981        10     1.351     0.513 -51.57   0
       535    487.9768    277.1770 307.7374799  +6.5626696     846.4836     1316.377     2017.854     77.37878      155.191     310.6292      1.403     5.00     821.6921     54.75889       131.91        10     1.386     0.510 -42.69   0
       536    778.3694    271.2738 307.6170248  +6.5747901     6497.813      9309.86      9296.93     77.74991     155.3764     310.6601      1.530     4.33     825.8398     54.75889     1034.679        28     1.520     0.834 -42.05   0
       537    469.0690    273.0632 307.7454729  +6.5637368     1240.422     1892.697     1776.526     77.87322     155.3764     310.7218      1.609     4.88     821.5418     54.75889     190.4989        12     1.361     0.616 -36.05   0
       538    214.6512    273.0634 307.8511737  +6.5552279     2524.995     3653.277      3768.55     77.87322     155.3146     310.6292      1.542     3.71      824.007     54.75889     407.0536        18     1.440     0.718 -40.17   0
       539    250.1043    271.4069 307.8365001  +6.5570989       817.67     1139.703     909.8893      77.6264     155.0673     310.4747      1.519     3.62     823.5105     54.75889     144.5487         8     1.113     0.539 -36.44   0
       540    368.5501    271.2484 307.7872959  +6.5611270     635.3856     711.6407     228.3351     77.87322     155.2528     310.5983      1.270     4.61      822.096     54.75889     97.58496         7     0.918     0.658 -14.77   0
       541    110.5282    270.4684 307.8945185  +6.5528107     1228.459     1733.655     1906.629     77.87323     155.4998     310.6292      1.525     3.85      825.518     54.75889     207.6603        11     1.185     0.602 -46.39   0
       542    916.7416    270.0313 307.5595737  +6.5799070      490.264     525.8609     376.6423      77.6264     155.3764     310.5983      1.292     3.70     825.1508     54.75889     88.80811         5     0.811     0.486 -37.28   0
       543    794.9539    269.0529 307.6102081  +6.5762593      2735.23      3898.72     4423.657     77.87322     155.3764     310.7218      1.474     3.85     825.7715     54.75889     500.7864        21     1.522     0.735 -38.44   0
       544    496.8217    268.7395 307.7340869  +6.5664489     644.8176      711.364     176.1821     77.50269     155.3146     310.5983      1.199     3.34     821.6488     54.75889     110.7134         5     0.922     0.351 -44.78   0
       545    384.1504    264.1729 307.7810511  +6.5645700     1823.215     3254.435     3624.374     77.50269     155.4381     310.5983      1.991     6.29     821.8419     54.75889     243.0712        26     1.788     0.960 -17.81   0
       546     98.0423    264.4176 307.8999086  +6.5548905     1457.993     1997.991     2138.742     77.37878      155.191     310.4438      1.544     3.95     825.6328     54.75889     205.7159        15     1.385     0.667 -41.68   0
       547    425.6570    263.2030 307.7638388  +6.5663578     470.6427      708.761      898.459     77.25468      155.191      310.382      1.583     4.96      821.433     54.75889     73.20667         5     1.113     0.625 -24.97   0
       548    511.0478    259.9311 307.7284704  +6.5705609     2201.535      3133.98     2825.734     77.87322     155.3146     310.6601      1.471     3.71     821.6566     54.75889     377.1889        19     1.438     0.765 -38.63   0
       549    273.6122    255.6231 307.8272619  +6.5644029     6143.984     8856.343     9113.445     77.50269      155.191     310.5674      1.503     3.96     822.9337     54.75889     1043.551        28     1.585     0.755 -41.12   0
       550    940.6724    255.3397 307.5501191  +6.5867689     544.2816      721.173     1123.629     77.99635     155.3764     310.6909      1.560     4.51      824.287     54.75889     94.09265         6     1.048     0.551 -52.52   0
       551    838.1372    253.9858 307.5927673  +6.5839180     660.3245     1083.839     1697.246     77.37878      155.191     310.4747      1.661     4.29     825.0993     54.75889     114.2224         6     1.210     0.433 -37.35   0
       552      3.9245    248.3902 307.9395471  +6.5583510     68860.84     103134.4     106721.8     77.50269     152.3833      271.392      1.559     3.90     826.2498     54.75889     10484.76        66     1.639     1.004 -39.32  24
       553    964.4669    250.5752 307.5403909  +6.5895271     589.2184     901.1803     958.8234     77.50269     155.2528     310.5674      1.282     3.80     823.8765     54.75889     101.9512         6     1.018     0.407 -72.01   0
       554    792.9326    249.1326 307.6117112  +6.5844174     879.8838      1065.01     865.1308     77.87322     155.3764     310.6909      1.331     4.54     825.0876     54.75889     177.4047         9     1.235     0.474 -32.09   0
       555    250.4359    248.5289 307.8371283  +6.5665563     628.7846     902.6418     701.1063     77.74991     155.3764     310.6909      1.712     4.64     823.1829     54.75889     110.2743         7     1.240     0.493 -51.84   0
       556    407.7289    246.3319 307.7718513  +6.5727248      1657.44     2834.977     2632.645     77.87322     155.4998     310.6292      1.696     3.46     821.2844     54.75889     279.0695        16     1.329     0.708 -46.42   0
       557    994.3850    245.1625 307.5281397  +6.5927562     1158.384     1693.971      2022.53      77.6264      155.191     310.4129      1.555     4.95     823.4719     54.75889     182.5705        12     1.346     0.600 -51.67   0
       558    330.0454    242.5088 307.8042546  +6.5717060     1268.473     1816.787     1801.774     77.87322     155.3146     310.7836      1.411     3.78     822.1356     54.75889     217.5347        13     1.283     0.656 -41.86   0
       559    213.9052    243.7204 307.8524664  +6.5673186     557.2036     888.4718     1085.213      77.6264     155.6232     310.7218      1.724     3.75     823.6795     54.75889     103.9045         5     1.166     0.347 -14.80   0
       560    177.3773    242.3075 307.8676897  +6.5666785     1924.035     2755.049     2470.774     77.87322      155.191     310.5056      1.471     3.64     824.1331     54.75889     319.3648        15     1.344     0.689 -36.31   0
       561    586.9106    238.2002 307.6976762  +6.5820656     2419.844     3291.229     3593.057     77.13038     154.8815     310.3201      1.501     3.52     821.8004     54.75889     423.0717        21     1.594     0.785 -53.94   0
       562    931.0012    237.0267 307.5547465  +6.5940092     1719.155     2541.339     2829.141     77.50269     155.0673     310.4438      1.553     4.19     823.8047     54.75889     258.2053        15     1.398     0.688 -48.99   0
       563    868.6323    238.0159 307.5806281  +6.5915268     451.6622     618.1279     820.1844     77.50269     155.1291     310.5365      1.552     4.83     824.1419     54.75889     70.67603         6     1.372     0.482 -65.22   0
       564    750.7126    235.4608 307.6297088  +6.5886569     5350.798     7560.062     7922.861     77.99635     155.5615     310.7218      1.483     3.78     824.6089     54.75889     897.5051        24     1.512     0.733 -41.36   0
       565    691.6805    235.2309 307.6542442  +6.5867851     2147.927     3176.172     3089.911     77.74991     155.3146     310.6292      1.517     4.63     823.5109     54.75889     384.1073        16     1.480     0.636 -40.82   0
       566    988.7614    234.9775 307.5308148  +6.5967749     796.4819     950.9855     1319.568     77.50269     155.1291     310.4438      1.337     5.30     823.4532     54.75889      115.626        10     1.347     0.588 -34.28   0
       567    405.6464    229.9980 307.7732626  +6.5793995     742.8478     1329.438     1208.173     77.25468     155.0673     310.2892      1.802     4.79     821.0601     54.75889     161.6227        10     1.391     0.544 -35.72   0
       568    946.3260    227.6074 307.5486921  +6.5984080      1049.57     1541.764     1558.373     77.50269     154.9435     310.5365      1.441     3.78     823.4688     54.75889     159.9423         8     1.033     0.525 -23.30   0
       569    892.8245    219.6774 307.5711863  +6.5999037     1941.974     2794.254     3006.158     77.50269     155.2528     310.6292      1.549     3.69     823.2654     54.75889     279.8549        18     1.332     0.774 -39.40   0
       570    250.3497    220.6108 307.8380988  +6.5780807     2418.969     3550.306     3645.478     77.25468     155.2528      310.351      1.457     3.91     822.7771     54.75889      431.181        16     1.387     0.647 -39.80   0
       571    783.3447    218.9460 307.6167003  +6.5965626     1676.088     2092.619     1841.867     78.11927     155.3146     310.6601      1.344     3.88     823.9832     54.75889     287.3485        14     1.267     0.705 -50.57   0
       572    272.2007    214.4549 307.8292263  +6.5813540     609.8568     936.3826     723.8212     77.13038     155.0673     310.2892      1.509     3.77     822.3129     54.75889     122.5533         6     1.244     0.329 -41.65   0
       573    604.2663    214.8224 307.6912450  +6.5922975     473.0014     653.5941     372.9787     77.50269     155.3764     310.5674      1.375     3.61     821.2045     54.75889     92.25836         5     0.991     0.379   3.24   0
       574    484.2007    210.6203 307.7412719  +6.5900252     24611.99     35695.91      36483.8     77.50269     155.0673      310.382      1.492     3.97     820.1937     54.75889     4188.221        42     1.565     0.884 -40.37   2
       575    489.8684    205.2379 307.7390968  +6.5924369     1645.781     2350.894     2806.732     77.74991     155.3764     310.7527      1.523     3.74     820.0768     54.75889     261.7346        15     1.304     0.701 -41.47   3
       576    345.0975    212.7492 307.7989963  +6.5844972     651.3234     1041.153       634.92     77.74991     155.3146     310.8453      1.504     4.18     821.6569     54.75889     102.7918         8     0.989     0.635 -10.50   0
       577    810.2675    209.6700 307.6058226  +6.6012891      13780.2     20259.68     21397.57     77.87322     155.4998     310.6292      1.563     4.38     823.4775     54.75889     2325.102        40     1.663     0.870 -37.15   0
       578    748.6769    205.2992 307.6315596  +6.6010431     874.9158     1183.302      995.359     77.50269     155.5615     310.6909      1.521     5.05     823.3212     54.75889     141.9936         9     1.097     0.657 -43.08   0
       579    172.2562    204.0173 307.8711003  +6.5823168     2598.608     3527.185     4040.182     77.37878     155.3146     310.4129      1.452     3.44     823.2856     54.75889     428.5554        20     1.393     0.768 -38.92   0
       580    146.7363    203.1672 307.8817316  +6.5818126     1292.871     1757.077     2232.643     77.74991     155.4381     310.6292      1.573     3.85     823.7512     54.75889     216.6625        12     1.121     0.766 -37.47   0
       581    802.8209    201.8891 307.6091758  +6.6042541     660.6436     1060.087     1280.877     77.74991     155.1291     310.5365      1.762     6.53     823.1649     54.75889     98.71991         9     1.375     0.870 -23.47   0
       582    199.3394    202.0337 307.8599144  +6.5840430     669.5333      880.564     1046.608     77.74991     155.4381     310.5983      1.458     4.58     823.0545     54.75889     108.8979         7     0.966     0.616 -33.60   0
       583    946.5858    200.0325 307.5495010  +6.6098028     1394.646     2195.256     2410.677     77.50269     155.1291     310.5674      1.550     4.51     822.2842     54.75889     201.8625        16     1.547     0.679 -36.41   0
       584     10.2940    197.3801 307.9386129  +6.5796263     5441.112     7848.254      8151.26     77.74991      155.191     310.5056      1.555     4.01     826.3829     54.75889     806.4245        26     1.544     0.796 -42.37   0
       585    608.2714    196.3225 307.6901982  +6.6000699     5073.308     7197.525     7316.866     78.11927     155.6232     310.6601      1.493     3.88     820.7054     54.75889      801.265        24     1.433     0.787 -38.83   0
       586    570.8353    196.4614 307.7057483  +6.5987636     2259.385     3301.635     3410.028     77.87322     155.3764     310.6292      1.522     4.07     820.4265     54.75889     358.3679        18     1.441     0.751 -38.99   0
       587    328.7078    197.2057 307.8063259  +6.5903669     1074.497     1559.347     1532.336     77.50269     155.0673     310.4129      1.502     4.05     821.6085     54.75889     201.3119        14     1.414     0.692 -36.80   0
       588    412.7374    195.5802 307.7714669  +6.5938478      1801.76     2440.597     1998.329     77.50269     155.3764     310.5365      1.474     3.75     820.3577     54.75889     271.8514        16     1.317     0.726 -42.27   0
       589    969.2349    193.3984 307.5403104  +6.6132948     2794.383     4158.549     4324.846     77.00587      155.191     310.4747      1.569     3.83     821.7947     54.75889     401.8522        22     1.445     0.807 -47.34   0
       590    915.3016    192.8417 307.5627394  +6.6117319     11670.57     16926.54     17078.66     77.87322     155.2528     310.8762      1.532     4.13     822.1875     54.75889     1879.738        31     1.534     0.840 -42.41   0
       591    589.9866    193.1316 307.6979020  +6.6007775     905.3607     1224.621       1532.3     77.37878     155.2528     310.5365      1.377     4.58     820.4755     54.75889      206.796         9     1.324     0.450 -40.20   0
       592    343.0078    193.4028 307.8005117  +6.5924154     988.7752     1425.729     1558.383     77.25468     155.0673     310.5056      1.401     4.68     821.4133     54.75889     179.1873        10     1.316     0.524 -41.90   0
       593   1001.9337    190.6750 307.5268139  +6.6155058     9716.822     14811.29     15020.49     77.99635     155.4381     310.6292      1.592     4.29     821.4069     54.75889     1436.156        33     1.537     0.910 -41.88   0
       594    234.4380    193.1114 307.8456305  +6.5889025      817.237     1187.106     1081.973     77.87322     155.2528     310.6909      1.589     5.48      822.611     54.75889     114.3079        10     1.315     0.645 -36.89   0
       595    713.2748    190.6577 307.6467573  +6.6059094      3006.92     4271.853     4511.548     77.87322     155.3764     310.6292      1.482     4.95     822.2441     54.75889     494.4927        21     1.431     0.823 -47.06   0
       596     41.4415    189.5801 307.9259340  +6.5838919     27229.48      39817.2     41394.69     77.50269      155.191     310.4747      1.577     4.10     826.0198     54.75889     4324.758        48     1.581     0.936 -40.11   0
       597    287.5774    190.4617 307.8236407  +6.5917754     1303.531     1942.174     2073.564     77.50269     155.3764     310.5674      1.550     4.30     822.0294     54.75889     205.7278        14     1.411     0.640 -35.85   0
       598    521.9010    185.6285 307.7264422  +6.6016033     2273.408     3059.195     2567.081     77.87322     155.1291     310.6292      1.398     3.79     819.6729     54.75889     387.6722        16     1.398     0.624 -44.22   0
       599    906.1198    181.3090 307.5669382  +6.6161887     2116.568     3223.655     2976.639      77.6264     155.6232     310.7218      1.598     4.36     821.7799     54.75889     312.0128        18     1.489     0.733 -40.91   0
       600    853.8370    182.2151 307.5886327  +6.6140755     2131.362     3056.183     2848.396     77.50269      155.191     310.4438      1.495     4.27     822.0769     54.75889     349.9885        17     1.422     0.706 -38.76   0
       601    533.9183    181.6278 307.7215826  +6.6036564     2774.505     3910.715     3381.112     77.74991      155.191     310.5983      1.401     3.52     819.5779     54.75889     458.5304        16     1.343     0.684 -37.89   0
       602    765.4794    178.8225 307.6254600  +6.6125353      42441.4     60629.02     62129.44     77.50269     155.0673     310.6292      1.505     4.16     822.0917     54.75889     6789.208        51     1.561     0.878 -41.17   0
       603    368.5504    178.2657 307.7904053  +6.5995198     6565.991     12141.04     13230.03     77.74991     155.2528     310.6292      1.976     6.42     820.7966     54.75889     964.1689        37     2.009     0.963 -62.87   0
       604    999.2471    177.6481 307.5283632  +6.6207956     2824.478     4089.776     3866.206     77.87322     155.2528     310.6909      1.548     4.06     820.6864     54.75889     444.3073        19     1.429     0.733 -35.41   0
       605    933.4294    175.8706 307.5557713  +6.6193423     7916.637     11513.44     11833.58     77.74991     155.3764     310.5983      1.565     4.45     821.4028     54.75889     1158.159        29     1.539     0.826 -40.92   0
       606    476.9424    175.0416 307.7454763  +6.6044734     5445.368     7893.102     8135.923     77.87322     155.3764     310.6909      1.481     3.57      819.178     54.75889      969.504        26     1.477     0.805 -35.09   0
       607    251.4802    171.9686 307.8392578  +6.5982029     839.0233     1075.222     672.2562     77.74991     155.3146     310.6292      1.325     4.00     822.1811     54.75889     140.6676         9     1.193     0.547 -41.82   0
       608    134.1467    166.5143 307.8881909  +6.5965244     5260.453     7442.646     7676.707     77.87322     155.3146     310.8145      1.523     3.69     823.4282     54.75889     786.3964        26     1.517     0.801 -41.73   0
       609    304.5612    163.1017 307.8174998  +6.6036406     37138.58     53554.85     55005.89     77.87322     155.2528     310.8762      1.511     3.84      821.726     54.75889     5691.287        51     1.554     0.928 -40.83   0
       610    953.5314    165.3701 307.5477675  +6.6243463     880.6007     980.6429     810.4692      77.6264     155.3764     310.6292      1.395     4.24     820.6337     54.75889      142.433         9     1.225     0.475 -37.45   0
       611    279.7990    164.1324 307.8277539  +6.6023863     7056.941     10240.45     10311.33     77.25468     154.9435     310.4438      1.492     3.68     822.0355     54.75889     1185.638        28     1.465     0.844 -41.51   0
       612    630.3869    164.9984 307.6820540  +6.6137414     649.7388     828.7761     1628.431     77.50269     155.0673     310.4438      1.304     4.09     820.1391     54.75889     137.6337         7     1.165     0.411 -32.98   0
       613    733.6615    162.1441 307.6392366  +6.6183622     1135.319     1443.484     867.1182     77.99635     155.3764     310.6909      1.562     4.86      821.253     54.75889     187.6036        12     1.349     0.664 -29.63   0
       614    428.6264    158.5553 307.7661027  +6.6096664     54254.56     78400.98     81038.27     77.37879     155.4381     310.5674      1.525     3.98     819.4536     54.75889     8984.414        58     1.585     0.911 -39.84   0
       615    184.5199    160.0034 307.8674798  +6.6009007      4333.46     6223.809     6595.351     77.25468     154.8815     310.4129      1.487     3.87     822.0604     54.75889     698.0438        21     1.465     0.721 -43.62   0
       616    631.3881    160.5946 307.6817848  +6.6155932     535.9626     925.6266     1170.965     77.50269     155.1291     310.5674      1.223     4.52     820.0335     54.75889     101.3472         5     1.310     0.442 -44.42   0
       617    446.0634    159.1369 307.7588381  +6.6100089     1676.276     2394.837      2362.27     77.87322     155.3764     310.6909      1.515     3.87     819.2015     54.75889     297.3055        18     1.451     0.826 -28.20   0
       618    565.5626    157.6435 307.7092348  +6.6146158     583.3866     847.2844     682.3842      77.6264     155.3764     310.5056      1.666     5.04      818.972     54.75889     88.49982         8     1.519     0.472 -46.41   0
       619    332.6393    156.2815 307.8060616  +6.6073960     19926.68     28843.86     29999.24     77.87322     155.4381     310.5983      1.514     3.85     821.3135     54.75889     3244.635        38     1.544     0.856 -39.53   2
       620    340.1584    155.7355 307.8029557  +6.6078730     2209.023     3789.482     4702.085     77.87322     155.3146     310.7218      2.023     6.20      821.192     54.75889     376.1754        26     2.126     0.950 -63.53   2
       621    767.9131    154.7248 307.6252515  +6.6225665     35238.28     50543.73      51651.3     77.87322     155.6848     310.7218      1.511     3.93     820.9676     54.75889     5804.458        47     1.571     0.880 -42.77   0
       622    599.1865    157.4373 307.6952705  +6.6158228     542.2205     872.6906     1061.349     77.37878      155.191      310.382      1.334     3.51     819.4583     54.75889     88.25696         5     1.237     0.287 -53.96   0
       623    715.8026    156.4953 307.6468457  +6.6200997     1140.763     1626.253     1339.413     77.50269     155.0673      310.351      1.500     3.68     820.7906     54.75889     189.4542        13     1.220     0.712 -35.66   0
       624    816.0732    155.2982 307.6052206  +6.6239332      1230.86     1787.388     2263.344     77.50269     155.4998     310.6292      1.501     4.97     820.9702     54.75889     186.6417        11     1.237     0.613 -42.94   0
       625     55.3228    155.6594 307.9213047  +6.5983631     619.4065     826.0127     425.1882     77.99635     155.4381     310.6292      1.421     4.10     825.7958     54.75889     113.9299         7     1.081     0.445 -28.19   0
       626     84.6711    152.0683 307.9092315  +6.6008302     9839.779     14094.83     13870.33     77.87322     155.4998     310.6292      1.494     3.76     824.9049     54.75889     1603.225        30     1.492     0.819 -40.79   0
       627    118.6114    150.1469 307.8951943  +6.6027616     1458.185     2236.642     2497.395     77.25468     155.3146      310.382      1.498     4.18     823.5872     54.75889     257.4191        14     1.499     0.572 -40.82   0
       628    993.5735    148.1048 307.5317026  +6.6328060     594.0833     736.6658     1130.664     77.99635     155.1291     310.5365      1.375     3.74     819.1215     54.75889     116.5308         5     1.230     0.327 -42.64   0
       629    752.2007    142.9638 307.6321723  +6.6268995     600.7872     590.2106     281.9364     77.00587      155.191     310.4747      1.254     5.17     820.4181     54.75889     105.6629         8     1.181     0.639 -12.99   0
       630    601.6310    139.4680 307.6948544  +6.6233240     888.1396     1227.057     1608.553     77.74991     155.3764     310.6292      1.465     4.25     818.7765     54.75889     184.3276        10     1.322     0.528 -41.02   0
       631     18.3523    137.2388 307.9372834  +6.6047283     1062.689     1482.704     1293.912     77.74991     155.4381     310.4747      1.500     4.50     826.5242     54.75889     168.2714        10     1.022     0.828 -28.76   0
       632    618.7430    131.1951 307.6880200  +6.6273108     2252.221     3326.059     3814.079     77.25468     155.2528      310.382      1.562     3.77     818.6782     54.75889     370.0115        20     1.446     0.873 -52.21   0
       633    610.4479    132.7695 307.6914143  +6.6263840     1134.069     1769.825     1918.012     77.50269     155.3764     310.5674      1.654     4.79     818.6284     54.75889     199.3969        13     1.414     0.667 -43.03   0
       634    362.8677    131.1931 307.7943409  +6.6187660      1062.62     1660.327      1813.67     77.37878     155.1291     310.4747      1.510     4.45     821.3342     54.75889     204.7754        13     1.462     0.582 -41.55   0
       635    303.3680    129.3549 307.8191250  +6.6175346     33339.81     47631.12     49755.44      77.6264     155.4381     310.5056      1.511     3.89     822.2564     54.75889     5273.545        58     1.730     0.937 -34.17   0
       636     48.7097    127.8855 307.9249842  +6.6096088     4825.047     7203.953     7488.428      77.6264      155.808     310.7836      1.569     3.76     825.2849     54.75889     751.8411        26     1.449     0.873 -39.34   0
       637    735.1244    125.8590 307.6398380  +6.6333934     8679.828     12350.04     12806.25     77.99635     155.4381     310.6292      1.479     4.07     819.6241     54.75889     1472.665        27     1.474     0.788 -43.18   0
       638    212.4305    127.2215 307.8569814  +6.6153711     919.5941     1110.021     1372.769     77.37878      155.191     310.5365      1.263     3.47     821.9081     54.75889      172.603         7     1.019     0.459 -42.07   0
       639    289.2137    124.1780 307.8251795  +6.6191985     883.1694     1161.379     1571.068      77.6264      155.191     310.5674      1.557     5.42     822.4458     54.75889     166.2529         9     1.252     0.661 -54.22   0
       640    145.8874    123.0409 307.8847700  +6.6148677     5338.321     7638.501     7545.816     77.87322     155.3146     310.6909      1.463     3.72     821.7515     54.75889     877.3851        21     1.426     0.743 -37.94   0
       641    441.6520    122.6843 307.7618894  +6.6249129     547.4363     773.7309      819.326     77.87322     155.3146     310.7527      1.530     3.56     818.6213     54.75889     138.3107         6     1.084     0.621 -43.88   0
       642    607.3857    121.4414 307.6930647  +6.6309593     777.8952     1192.169     1406.732     77.37879      155.191      310.382      1.636     3.88     818.0941     54.75889     137.6916         7     1.260     0.379 -53.65   0
       643    484.8751    120.2637 307.7440102  +6.6273563     1490.115       1926.6     1880.854     78.11927     155.3764     310.6292      1.407     3.82     817.7761     54.75889     270.8972        13     1.363     0.586 -43.66   0
       644    416.5474    119.0404 307.7724426  +6.6255785     4147.759     6740.715     7332.821     77.74991     155.4381     310.6601      1.777     4.19     819.0486     54.75889     545.7981        32     1.659     1.023 -52.27   0
       645    673.7301    119.8426 307.6655499  +6.6338318     927.9761     1451.719     1352.104     77.74991     155.3764     310.7218      1.424     4.91     819.1013     54.75889     167.6998        12     1.395     0.606 -32.78   0
       646    659.0980    119.9048 307.6716279  +6.6333183     485.7835     565.6972     705.0958     77.87322     155.9312     310.5056      1.524     3.59     818.8727     54.75889     91.05347         5     1.004     0.369 -33.42   0
       647    380.9597    117.9875 307.7872651  +6.6248236     3522.225     5023.191     5084.344     77.37878      155.191     310.4438      1.456     3.95     820.7697     54.75889     596.0991        21     1.468     0.732 -38.97   0
       648    135.4522    117.7489 307.8892833  +6.6167030     2005.518     2944.586     3223.309     77.99635     155.2528     310.6909      1.532     3.97     821.9367     54.75889     298.4894        18     1.358     0.744 -36.72   0
       649    593.3368    117.9032 307.6990205  +6.6319516     881.3652     1308.452      1671.85     77.74991     155.4998     310.6909      1.551     5.24     817.8467     54.75889     125.0864        10     1.319     0.588 -36.04   0
       650    963.0084    117.1251 307.5454336  +6.6445823     528.3929     736.3658     368.9831     77.50269     154.9435     310.5056      1.526     5.50     817.6813     54.75889     86.61975         6     1.317     0.648 -16.53   0
       651    771.0271    116.2393 307.6252396  +6.6385613     506.7861     740.4193     826.6385     77.50269      155.191     310.5056      1.576     3.02     819.1958     54.75889     96.16956         5     0.784     0.493 -56.32   0
       652    697.1055    115.7347 307.6559736  +6.6363071     796.9255     1278.287     1303.247     77.87322     155.4381     310.6909      1.464     4.72     819.0403     54.75889     158.1893         9     1.496     0.422 -34.90   0
       653     73.0395    114.4450 307.9153263  +6.6159744     576.2871     781.8568     564.1824      77.6264     155.3764     310.5674      1.310     3.69      823.904     54.75889     100.3337         6     1.132     0.346 -48.93   0
       654    232.7911    106.8743 307.8492030  +6.6244543     6088.234     8698.368     8665.333     77.50269     154.9435     310.5056      1.479     3.87     822.1047     54.75889      989.403        26     1.493     0.788 -42.31   0
       655    115.4637    106.9762 307.8979497  +6.6204809     2148.088     3254.057     3123.253     77.50269     155.3764     310.5983      1.517     3.97     822.0888     54.75889     349.9611        20     1.469     0.854 -50.79   0
       656    694.6190    105.6385 307.6573434  +6.6403930     6897.344       9771.1     9802.339     77.50269      155.191     310.4438      1.494     4.06     818.6495     54.75889     1047.079        24     1.474     0.734 -41.36   0
       657    842.6910    105.4096 307.5958209  +6.6454186     1197.382     1690.898     1756.631      77.6264     155.0673     310.4129      1.512     4.74     818.1912     54.75889     197.2217        12     1.343     0.613 -48.12   0
       658    646.8529    102.8916 307.6772836  +6.6399349     10143.85     14469.75     15579.73     77.74991      155.191     310.8145      1.490     3.77     818.0437     54.75889     1798.967        31     1.520     0.806 -40.58   3
       659    650.3676     94.4351 307.6761052  +6.6435438     57832.54     82611.98     85503.01     77.50269     155.1291     310.4129      1.514     4.22     817.7924     54.75889     9009.557        60     1.572     0.907 -40.88   2
       660    281.5322    103.6806 307.8290574  +6.6274047     765.1794      1073.42     868.5477     77.99635     155.6232     310.6909      1.551     3.98      822.605     54.75889     118.3672         6     0.850     0.532 -51.02   0
       661     45.5306    102.0585 307.9271717  +6.6201658     1017.487     1618.402     1641.038     77.99635     155.3764     310.6601      1.870     5.59     824.8231     54.75889     134.6187        13     1.350     0.651 -45.98   0
       662    585.0378    102.3194 307.7029891  +6.6381093     584.1395     751.6376     971.5091     77.74991     155.4381     310.6292      1.372     3.47     817.1769     54.75889     134.7894         5     1.035     0.336 -42.51   0
       663    373.9281     98.6531 307.7908335  +6.6325716     4039.153     6172.791     6267.318     77.74991     155.3146     310.6292      1.609     4.49     821.4037     54.75889      631.709        23     1.607     0.771 -45.39   0
       664    555.6940     98.0417 307.7153252  +6.6388964     2014.869     2845.488      3409.21     77.99635     155.3146     310.7836      1.529     3.78     816.8756     54.75889      322.023        17     1.411     0.692 -45.51   0
       665    753.4534    112.4095 307.6326698  +6.6395574     644.4681     1124.955     622.0387     77.25468     155.3146      310.382      1.723     2.63     819.0024     54.75889     124.7476         5     0.723     0.457 -22.60   2
       666   1020.0829     97.5083 307.5223683  +6.6545787     835.1664     1283.726      1251.82      77.6264     155.6848     283.4628      1.654     4.56      816.535     54.75889     128.7148         8     1.050     0.562 -43.53  16
       667    329.3711     88.2925 307.8096946  +6.6353592     3898.722         5464     5923.089     77.99635     155.1291     310.5674      1.496     3.81     822.7568     54.75889     598.6741        22     1.444     0.749 -42.34   0
       668    524.3686     85.4391 307.7287628  +6.6430544     735.7048     1329.283     1063.372     77.50269      155.191     310.5056      1.719     4.42     816.8046     54.75889     117.9819         6     1.282     0.434 -42.80   0
       669    607.8358   1015.7558 307.6630574  +6.2616998     150163.2     244332.1     256997.7      77.6264     155.3146     310.5674      1.725     3.95       848.34     54.75889     19399.67       103     1.784     1.196 -39.23  19
       670    700.7064     81.6831 307.6556125  +6.6504873     1448.439     1928.622      1743.98      77.6264     155.6848     310.7836      1.452     4.37     817.8171     54.75889     241.1304        14     1.382     0.630 -45.55   0
       671    714.7076     78.4073 307.6499036  +6.6523064     3349.406     4634.771     4639.498     77.50269     155.0673     310.4747      1.483     4.09     817.6873     54.75889     536.7015        19     1.356     0.772 -43.71   0
       672    729.3737     82.6721 307.6436669  +6.6510341     1108.284       1630.7     1657.979     77.50269     155.2528     310.5674      1.303     4.31     817.8495     54.75889     173.3091        12     1.402     0.545 -34.65   0
       673    456.5636     69.4266 307.7574732  +6.6474013     4714.024      6851.85     6633.319     77.50269      155.191     310.4747      1.536     3.95     817.6614     54.75889     754.2837        25     1.500     0.787 -40.08   0
       674    911.1124     65.6473 307.5687114  +6.6641130     2225.428     3069.835     3318.886     77.87322     155.2528     310.6909      1.509     4.26     815.7928     54.75889     366.3976        18     1.456     0.731 -42.72   0
       675    929.0721     64.7713 307.5612772  +6.6650719     4026.474     5869.529     6260.502     77.74991     155.3764     310.6292      1.552     4.32     815.4826     54.75889     631.5599        21     1.525     0.727 -40.07   0
       676    608.9086     65.2885 307.6943056  +6.6541959      908.205     1409.734     1401.821     77.87322     155.8696     310.7527      1.690     4.76      816.512     54.75889     140.2348         9     1.329     0.529 -42.88   0
       677    621.1420     63.3696 307.6892861  +6.6553964     1898.121      2759.04     2809.765      77.6264     155.3764     310.5674      1.416     3.79     816.6107     54.75889       322.49        14     1.321     0.597 -44.64   0
       678    266.8159     62.6007 307.8365478  +6.6438738     902.5469     1413.777     1728.358     77.50269     155.0054     310.4129      1.642     4.14     822.1843     54.75889      139.446         8     0.965     0.680 -70.39   0
       679    109.8890     62.9899 307.9017410  +6.6384554     602.6241     973.6193     995.8203      77.6264     155.0673     310.4747      1.427     3.97     820.2305     54.75889     96.18097         6     0.934     0.483 -57.74   0
       680    419.9609     61.1824 307.7729586  +6.6495822     2146.688     3231.428     3200.252     77.50269     155.2528     310.4438      1.511     3.96     818.5998     54.75889     336.3914        19     1.471     0.717 -37.58   0
       681    167.7719     58.1925 307.8778506  +6.6423765     3526.092     5312.652     5593.151     77.50269      155.191     310.4747      1.531     3.82     819.7369     54.75889     592.4274        22     1.449     0.830 -41.82   0
       682     49.6853     56.0684 307.9269887  +6.6392939      13404.6     19846.22     20854.89     77.99635     155.6232     310.6909      1.529     3.80     822.8115     54.75889     2031.379        38     1.540     0.939 -38.31   0
       683    316.0816     56.6116 307.8162769  +6.6479955       1457.8         2220     2686.152     77.50269     155.1291     310.5056      1.559     4.53     822.7568     54.75889     260.6683        12     1.417     0.538 -39.20   0
       684    589.0225     55.7145 307.7028888  +6.6574857     727.1132     857.9246     823.9377     77.87322      155.191     310.5674      1.394     4.87     816.3073     54.75889     104.9455         8     0.995     0.675 -67.74   0
       685    576.4617     55.9686 307.7081000  +6.6569616     886.6119     1201.299     1002.248      77.6264     155.4381     310.5983      1.471     4.36     816.2838     54.75889     153.8053         8     1.061     0.509 -44.34   0
       686    784.5941     55.0554 307.6216401  +6.6642765     745.6113     1150.807     1541.479     77.37878      155.191      310.351      1.585     4.11     816.9299     54.75889     129.4082         7     1.123     0.430 -32.38   0
       687    179.1093     54.5863 307.8732605  +6.6442454     656.0389     827.8582     568.3124      77.6264     155.1291     310.4747      1.153     3.36     819.8845     54.75889     127.2268         5     0.778     0.420 -23.17   0
       688    918.1215     51.8444 307.5662579  +6.6700454     756.1464      679.073     843.5938     77.74991     155.3764     310.6909      1.208     4.15     815.2479     54.75889     129.6306         8     1.050     0.519 -53.17   0
       689    851.4164     50.4698 307.5940240  +6.6683942     6678.696     9606.205     10051.79     77.37879     155.2528     310.5674      1.542     4.42     816.1885     54.75889     1020.052        28     1.497     0.834 -41.83   0
       690    796.5576     50.8792 307.6168077  +6.6663993     3382.176     4928.308     4671.097     77.74991     155.3764     310.6601      1.500     4.17     816.7912     54.75889     518.5031        22     1.492     0.770 -42.37   0
       691    441.4733     51.4580 307.7643444  +6.6543163     1202.502     1724.003     2035.241     77.99635     155.3764     310.6292      1.338     3.73     818.0027     54.75889     229.6873        12     1.341     0.621 -52.53   0
       692    121.2088     51.4822 307.8974234  +6.6435864     635.1436     813.9727     952.0427     77.50269     155.0054     310.5056      1.569     4.19     819.6108     54.75889     92.39801         6     1.119     0.447 -60.63   0
       693     74.2918     49.2270 307.9169939  +6.6429441     1053.634     1563.909     1757.704     77.99635     155.1291     310.5365      1.561     5.18     821.0552     54.75889      201.561        13     1.474     0.656 -47.91   0
       694    783.1232     49.9223 307.6224223  +6.6663471     594.2724     1018.372     1227.839     78.11927     155.6232     310.7218      1.681     3.89     816.7623     54.75889     96.99512         5     1.006     0.431 -43.74   0
       695    558.9034     48.8377 307.7156343  +6.6593200     1284.938     1848.382     2026.007     77.87322     155.2528     310.8145      1.576     4.98     816.1495     54.75889     226.4792        10     1.299     0.560 -44.12   0
       696     89.9727     47.8960 307.9105228  +6.6440196     3478.087     4908.542     4790.669     77.99635     155.1291     310.5983      1.476     3.59      820.028     54.75889     529.4611        20     1.398     0.755 -42.97   0
       697    677.9137     48.4066 307.6661936  +6.6634677     602.0796     955.9327     782.6951     77.37878     155.0673     310.4129      1.478     3.48     816.7141     54.75889     99.24237         5     0.809     0.431 -20.11   0
       698    451.2370     47.2730 307.7604271  +6.6563706     1150.798     1694.022     2059.249     77.74991     155.3764     310.7218      1.673     3.89     817.7065     54.75889     201.2355        14     1.268     0.717 -48.01   0
       699    613.5683     44.4141 307.6930659  +6.6629705     1358.249     1771.328     1733.263     77.50269     155.1291     310.5983      1.355     4.03     816.1554     54.75889     225.0206        11     1.319     0.529 -48.42   0
       700     32.3734     43.3485 307.9346089  +6.6439649     2755.385     4055.464     4558.276     77.50269     155.4998     310.5983      1.569     3.95     823.3957     54.75889     400.7269        20     1.461     0.765 -40.66   0
       701    104.8015     39.1231 307.9046554  +6.6481392      835.873     1248.057     1270.116     77.25468     154.8196     310.4747      1.409     4.80     819.1286     54.75889     129.1325        10     1.325     0.522 -37.63   0
       702    791.1869     38.3020 307.6194585  +6.6714137     2165.902     3179.696     3149.155     77.74991     155.1291     310.4129      1.580     3.90     816.3534     54.75889     361.1854        18     1.491     0.715 -38.47   0
       703    431.7562     38.5876 307.7688125  +6.6593058     1105.067     1724.166     1496.093     77.37878     155.2528     310.4129      1.651     4.07     818.2161     54.75889     169.8013        12     1.282     0.619 -41.39   0
       704    682.9254     38.0714 307.6644557  +6.6679022     563.6105     513.4377     363.9979     78.11927     155.4998     310.6909      1.214     4.05     816.3897     54.75889     93.56018         7     0.922     0.510 -44.92   0
       705    128.8663     37.4900 307.8947107  +6.6496203      950.085     1220.542     1583.392     77.99635     155.4998     310.6909      1.345     4.16     819.0018     54.75889     159.4803         7     1.098     0.451 -47.20   0
       706    117.7589     32.2117 307.8995031  +6.6514273     9976.485     15162.85     16014.51     77.25468      155.191      310.382      1.570     3.97     818.7974     54.75889     1601.134        36     1.569     0.925 -41.64   0
       707    446.8336     31.9222 307.7627700  +6.6625618     2734.495     4139.188     3738.459     77.74991     155.3764     310.6292      1.499     3.82     817.7507     54.75889     466.5334        18     1.394     0.710 -41.14   0
       708    268.2096     30.9375 307.8370289  +6.6569940     623.1163     821.6544     1316.257     77.25468      155.191     310.4747      1.968     6.89     821.9236     54.75889     109.6051        10     1.358     0.979 -59.14   0
       709    689.7992     25.8997 307.6620050  +6.6731571     569.7029     561.4982     44.60005     77.37878     155.0054      310.382      1.331     4.12     816.0004     54.75889     93.68616         5     1.340     0.361 -82.30   0
       710    284.4013     26.2700 307.8304569  +6.6594632     1562.534     2370.329      2941.48     77.37878     154.9435     310.5056      1.612     4.23     822.5478     54.75889     249.2907        13     1.312     0.612 -37.23   0
       711    660.5111     24.1345 307.6742350  +6.6729096      20012.2     28765.84     29545.85     77.87322     155.5615     310.6909      1.494     3.89     815.8998     54.75889     3274.561        42     1.538     0.878 -40.69   0
       712    560.2853     20.2540 307.7160145  +6.6711684     5548.866     8065.708     8149.498     77.87322     155.3146     310.8145      1.522     4.23     815.7203     54.75889     862.6558        26     1.504     0.803 -39.92   0
       713    278.6056     20.4420 307.8330604  +6.6616755     2140.749     3060.068     3752.006     77.25468     155.0673      310.382      1.576     4.58     822.3131     54.75889      366.382        18     1.317     0.811 -38.88   0
       714    715.9662     19.6943 307.6513378  +6.6765914     560.6506     911.5146     1459.146     77.99635     155.2528     310.7527      1.949     5.10     815.8057     54.75889     92.48474         8     1.268     0.581 -44.48   0
       715    648.0818     17.8688 307.6796092  +6.6750823      895.079     1155.224     1632.305     78.11927     155.6232     310.6909      1.434     5.08     815.6986     54.75889     154.6099         9     1.218     0.599 -38.30   2
       716    609.5812   1008.5834 307.6625717  +6.2647196     71833.59     114317.6     121119.5      77.6264     155.1291     310.5983      1.748     3.96     848.1179     54.75889     9018.635        86     1.800     1.175 -38.61   3
       717     27.5075     18.7551 307.9374562  +6.6539558     1301.304     1815.682     838.1821     77.87322     155.3146     310.7836      1.416     3.72     822.7563     54.75889     217.3672        11     1.039     0.726 -36.72   0
       718    241.6951   1018.5769 307.8149922  +6.2483084      3854.54      5868.47     6237.401     77.87323     155.1291     298.6283      1.686     3.80     845.9105     54.75889     495.0202        27     1.524     0.928 -38.33  16
       719    424.8227   1018.9744 307.7389418  +6.2542649     799.8356     1275.584     1388.847     77.37878      155.191     294.9751      1.571     3.90     848.3199     54.75889     132.7529         8     1.019     0.730 -43.31  16
       720    783.4716   1017.8804 307.5900566  +6.2666721     812.3658     1291.284     1619.508     78.11927     155.6232     304.0415      1.614     6.09     845.9709     54.75889     117.8204        10     1.377     0.757 -34.21  16
       721    687.0892     17.2084 307.6634211  +6.6766555     439.8417     503.8422     523.7059     77.37878     155.0673      310.382      1.135     3.86     815.7084     54.75889     86.53101         5     0.820     0.522 -49.99   0
       722    550.6597     16.2625 307.7201478  +6.6724952     638.9095     1002.818     795.0268     77.87322     155.3146     310.6909      1.757     5.32     815.6729     54.75889     99.78308        10     1.523     0.524 -39.55   0
       723    346.4022     16.4121 307.8050228  +6.6656081     1102.374     1708.775     1685.989     77.50269     155.0673     310.4438      1.642     4.44     822.7568     54.75889     158.4976        11     1.203     0.619 -49.74   0
       724    989.5707   1014.7935 307.5045778  +6.2747980     649.8505     1258.086     1397.448     77.37878     155.1291     310.4747      2.422     4.45     842.8836     54.75889     88.15259         5     0.968     0.582 -42.78   0
       725    579.0648     15.3588 307.7083739  +6.6738164     736.1178     928.8284     362.4139     77.87322     155.3146     310.7527      1.292     4.60     815.6191     54.75889     137.9766         7     1.285     0.468 -44.29   0
       726    818.7565   1012.5695 307.5755815  +6.2700390     6087.522     10611.56     11080.53     77.50269     155.3764     310.5365      1.855     4.09     845.6272     54.75889     717.6912        40     1.582     1.261 -42.94   0
       727    916.7040   1009.3389 307.5350166  +6.2746296     1338.968     2259.263     1889.322      77.6264     155.4381     310.7218      1.793     4.67     843.9259     54.75889     184.0967        21     1.395     1.106 -20.55   0
       728    239.2231   1007.9296 307.8163747  +6.2526220     2254.218     3563.424     3336.909     77.50269     155.2528     310.6292      1.615     3.88     845.5989     54.75889     322.9727        19     1.379     0.810 -38.97   0
       729    742.6340   1005.1099 307.6074389  +6.2705861     6810.089     11183.44     11699.03     77.99635     155.2528     310.6601      1.754     3.98     846.0811     54.75889      873.314        37     1.660     1.087 -39.88   0
       730   1007.5953   1006.7788 307.4973590  +6.2787059     492.4134     981.0657     772.8936     77.50269     155.1291     310.4747      2.045     4.49     842.4143     54.75889     84.06323         5     0.845     0.678 -47.12   0
       731    775.3481   1006.6249 307.5938042  +6.2710493     669.1099     1149.893      1335.19     77.50269     155.3764     310.5674      1.864     4.87      845.768     54.75889     98.94214         7     1.028     0.840 -17.10   0
