#   1 NUMBER                 Running object number                                     
#   2 X_IMAGE                Object position along x                                    [pixel]
#   3 Y_IMAGE                Object position along y                                    [pixel]
#   4 ALPHA_J2000            Right ascension of barycenter (J2000)                      [deg]
#   5 DELTA_J2000            Declination of barycenter (J2000)                          [deg]
#   6 FLUX_APER              Flux vector within fixed circular aperture(s)              [count]
#   9 FLUXERR_APER           RMS error vector for aperture flux(es)                     [count]
#  12 FLUX_RADIUS            Fraction-of-light radii                                    [pixel]
#  13 FWHM_IMAGE             FWHM assuming a gaussian core                              [pixel]
#  14 BACKGROUND             Background at centroid position                            [count]
#  15 THRESHOLD              Detection threshold above background                       [count]
#  16 FLUX_MAX               Peak flux above background                                 [count]
#  17 ISOAREA_IMAGE          Isophotal area above Analysis threshold                    [pixel**2]
#  18 A_IMAGE                Profile RMS along major axis                               [pixel]
#  19 B_IMAGE                Profile RMS along minor axis                               [pixel]
#  20 THETA_IMAGE            Position angle (CCW/x)                                     [deg]
#  21 FLAGS                  Extraction flags                                          
         1    717.1259     22.4205 307.6452445  +6.6898385     7832.111     11110.34     11448.38     78.24818     156.7462     313.5859      1.526     3.32     837.5904     55.28561     1036.523        29     1.282     1.047 -77.13   0
         2    437.4812     17.8130 307.7615797  +6.6823683      6666.77      9681.74      10455.5     78.24818     156.6213     313.4923      1.582     3.30     840.8408     55.28561     877.8279        32     1.390     1.039 -66.77   0
         3     38.5013     17.4787 307.9273412  +6.6690873     9071.468     13437.68      13858.1     78.37309     157.1823     313.6794      1.644     3.47     851.4811     55.28561     1291.242        32     1.388     1.070 -67.38   0
         4    334.0304     12.8946 307.8047237  +6.6809246     13397.17      20271.6     21460.65     78.74658     156.6213     313.6483      1.598     3.51     848.6697     55.28561     1729.559        45     1.524     1.143 -60.98   0
         5    107.6508     13.1108 307.8987625  +6.6732201     2736.613     4249.681      4675.77     78.62228     156.6837      313.773      1.687     3.84     849.1346     55.28561     335.6134        24     1.410     1.016 -81.14   0
         6    428.9388     13.6237 307.7652697  +6.6838110     867.5804     1312.751     1544.744     78.24818     156.8085     313.5547      1.861     4.44     841.1041     55.28561      125.568         7     1.053     0.534 -69.03   0
         7     99.0042     11.9947 307.9023923  +6.6733896     1621.837     2649.383     2796.615     77.99779     156.5589     313.5235      1.766     3.77     849.0823     55.28561     213.1115        17     1.217     0.943 -54.42   0
         8    802.2231     11.7962 307.6102461  +6.6970713     999.6467     1477.301     1535.093     78.24818     156.5589     313.4923      1.563     4.46      833.544     55.28561     204.9286        10     1.130     0.721 -27.69   0
         9    400.3513     10.6568 307.7772464  +6.6840761     2577.847     3734.555     4113.632     78.62228     156.8709      313.773      1.623     3.74     843.0319     55.28561     331.8958        21     1.317     0.945 -82.10   0
        10    661.0825      6.3420 307.6690688  +6.6946002     11498.46     16726.33     17531.55     78.74658     156.8709     300.7537      1.563     3.36     837.2189     55.28561     1570.102        40     1.394     1.119 -68.57  16
        11    995.5286      7.6765 307.5300705  +6.7052292     860.9055     1055.138     733.1072     78.87069     157.1201     310.6087      1.222     3.78     828.6177     55.28561     142.2714         7     0.956     0.491 -83.82   0
        12    538.6282      6.0139 307.7199550  +6.6906325     1450.616       2173.6     1814.959     78.24818     156.6837     297.6482      1.573     4.01      837.284     55.28561     205.1044        15     1.215     0.840 -65.13  16
        13     79.1183      6.9891 307.9108226  +6.6747862     647.7955     1056.997     1531.744     78.24818     156.6213     305.9128      1.974     5.00     849.4764     55.28561     137.8832         7     1.256     0.563 -47.68  16
        14    825.8246      5.7007 307.6006450  +6.7003769     1753.639     2662.922     3190.406     78.74658     156.6213     294.4435      1.756     3.42     833.3407     55.28561      271.507        15     1.134     0.879 -75.38  16
        15    896.0667      3.6103 307.5715312  +6.7035872     1586.714     2351.932     2253.947     78.12309     151.9942     270.0474      1.561     3.57     833.3012     55.28561     221.1091        19     1.292     0.920 -81.81  24
        16    261.0109      3.2645 307.8353840  +6.6824458     6429.509     9820.066      10540.7     78.12309     148.8077     265.1128      1.659     3.43     852.0917     55.28561     898.3701        33     1.448     1.115 -47.70  26
        17    682.7473      1.7414 307.6602225  +6.6972249     6391.406     8625.577     9188.978     73.07745     130.6052     242.5319      1.384     3.47     837.2466     55.28561     1252.083        27     1.615     0.802 -13.34  24
        18    652.6673      2.1897 307.6727046  +6.6960326     9348.716     12053.73     12349.73     76.73356     136.6796     249.4894      1.396     3.73     837.0947     55.28561     1509.626        30     1.266     0.986 -34.74  24
        19    437.8375      3.5683 307.7619115  +6.6882609     527.0304     853.0042     886.2304     78.24818      151.414     269.2857      1.719     4.17     840.7165     55.28561     89.02722         5     0.930     0.534 -49.83  16
        20    422.4991      2.1721 307.7683309  +6.6883224     8171.698     10536.99     10755.58     76.86092     136.4648     249.1756      1.417     3.54     841.2874     55.28561     1184.974        26     1.220     0.980 -31.09  24
        21    964.3173      2.9452 307.5431967  +6.7061408     574.1459     728.9591     936.8358     78.62228     145.8199     260.7981      1.419     3.31     830.5738     55.28561      111.791         5     0.803     0.395 -69.42  16
        22    738.0571      1.3996 307.6372544  +6.6992172     1202.061      1260.31     1093.768     68.80338     125.4094     236.9012      1.038     2.81     837.3486     55.28561     266.1935         7     0.881     0.466 -11.71  24
        23    120.3912    987.9901 307.8605527  +6.2711897     702.5215     1007.984      596.902     78.12309     156.6837     313.5547      1.608     4.58     870.2299     55.28561     120.5891         7     0.970     0.613  43.27   0
        24    371.5512   1023.2439 307.7551061  +6.2650738     1636.269     1918.106     2005.416     73.21117       130.68     242.7737      1.242     3.19     872.4347     55.28561     281.1591        12     1.095     0.695 -18.82  24
        25    823.0351    984.3213 307.5689885  +6.2962596     2248.512     3625.541     3637.315     78.49778     156.9332     313.6483      1.722     3.76      866.042     55.28561     286.8052        21     1.310     1.002 -82.36   0
        26    771.2340    982.2910 307.5905616  +6.2953668     6596.766     10632.51     11899.08     78.74658     156.7462     313.6483      1.786     3.59     867.9236     55.28561     858.9264        47     1.784     1.201 -70.78   0
        27    557.9130    981.7818 307.6791371  +6.2884391     1058.297     1776.845     2022.135     78.37308     156.6213     313.5235      1.844     6.14     870.0674     55.28561     145.9311        13     1.434     0.740 -89.90   0
        28    240.6108    981.1337 307.8108794  +6.2780620     1452.224     2130.701     2263.943     78.12309     156.6837     313.4923      1.565     3.75     871.4523     55.28561      211.631        16     1.246     0.879 -79.77   0
        29    205.2876    980.3295 307.8255697  +6.2772069     1022.968     1585.848     1688.524     78.74658     157.1201     313.6483      1.800     3.89     870.9185     55.28561     150.1785        12     1.095     0.793  66.05   0
        30     65.5390    979.2519 307.8836170  +6.2729515     2768.044     4138.791     3917.652     78.62228     156.8085     313.6483      1.599     3.44     870.3021     55.28561     403.2543        21     1.301     0.923 -66.30   0
        31    959.4837    977.3586 307.5125747  +6.3036898     6670.693     10810.62     11317.33     78.62228     156.8085     313.5859      1.783     3.75     863.1189     55.28561     763.2469        37     1.496     1.196 -74.55   0
        32    215.4149    973.5560 307.8215941  +6.2803436     658.9128     1003.804     756.1366     77.99779     156.6837     313.3987      1.746     4.70     871.0378     55.28561     100.5767         7     0.908     0.690 -65.92   0
        33    641.7315    971.8730 307.6446734  +6.2953364     772.2462     1204.801     1298.546     78.74658     156.9956     313.6483      1.701     4.06     869.6028     55.28561     128.1683         8     0.931     0.614 -75.01   0
        34    933.1754    969.0338 307.5237754  +6.3062488      2010.62     3291.217     3689.207     78.12309     156.6837     313.4299      1.707     3.85     863.8445     55.28561     277.8726        23     1.321     1.100 -71.32   0
        35    792.5257    965.5142 307.5822847  +6.3030048     1376.831     2176.042     1967.175     78.74658     157.1823     313.6794      1.725     4.78     866.8143     55.28561     163.1777        15     1.284     0.864 -58.53   0
        36    653.9636    964.8903 307.6398297  +6.2986286     4613.265     7034.807     7497.404     78.74658     156.8085     313.6794      1.567     3.50     869.4229     55.28561     641.9891        28     1.363     1.054 -67.95   0
        37    266.0565    965.0684 307.8008577  +6.2855492     4514.096     6677.359      7054.41     78.74658     156.8085     313.5859      1.553     3.46     871.6605     55.28561     575.3404        27     1.431     0.981 -59.41   0
        38   1003.2224    964.6661 307.4948408  +6.3103889     626.1843     1330.112     1496.259     78.24818     156.8709     313.5547      2.126     6.00     861.4989     55.28561     97.49536         9     1.097     0.922 -28.33   0
        39    476.1004    963.3401 307.7137203  +6.2933112      1095.67     1590.236     1367.248     78.37308     156.8709      313.773      1.597     4.71     870.7439     55.28561      162.632         8     1.094     0.576 -59.07   0
        40     34.7686    962.2596 307.8969637  +6.2789307     2208.878     3623.463     3445.445     78.37308     156.9332     313.6171      1.715     3.90     870.0263     55.28561     281.4901        22     1.331     1.008 -81.16   0
        41    885.7897    961.3854 307.5437040  +6.3078247     977.6472     1476.759     1427.176     78.37308     156.6213     313.5547      1.699     5.80     864.5447     55.28561     109.4344        13     1.155     0.923 -31.16   0
        42    978.0800    959.7325 307.5054440  +6.3115872     612.2802      802.376     769.8246     78.74658     157.1201     313.6483      1.412     3.98     862.2433     55.28561     112.0932         6     0.782     0.580 -43.91   0
        43    957.1732    958.7845 307.5141555  +6.3112811     712.1037     1136.707     1058.517     78.24818     156.6837     313.5547      1.586     4.25     862.8525     55.28561     105.5988         7     0.899     0.574  31.70   0
        44    578.6722    957.4684 307.6713358  +6.2991721     1927.305     2532.171     2163.927     78.74658     156.9956     313.6483      1.552     3.44     869.6517     55.28561     268.6831        18     1.166     0.961 -79.41   0
        45    302.1724    958.3396 307.7860918  +6.2895401     1040.484     1607.164     1461.321     78.24818     156.9332     313.5547      1.625     3.93     871.8257     55.28561     171.8507        12     1.068     0.855  71.98   0
        46   1009.6151    957.4608 307.4924278  +6.3135769     706.8724     1222.127     1195.298     78.12309     156.8085     313.3987      1.737     3.84     861.2925     55.28561     120.5005         7     0.869     0.676 -76.73   0
        47    618.0068    953.5500 307.6551377  +6.3021069      1286.01      1942.25     1625.699     78.12309     156.6213     313.2738      1.629     3.75     869.1694     55.28561     199.7791        13     1.192     0.745 -67.56   0
        48    297.8302    951.3843 307.7881286  +6.2922657     1520.844     2331.631      2515.07     78.24818     156.6213     313.5859      1.622     3.61     871.7482     55.28561     229.1959        13     1.163     0.730 -69.28   0
        49    565.3994    949.5962 307.6771104  +6.3019776     564.2397     849.2823     643.7939     77.99779     156.4339     313.3987      1.578     4.14     869.7844     55.28561     80.71863         5     0.999     0.490 -89.28   0
        50    764.5936    948.1057 307.5944645  +6.3092583     860.4381      1267.51     776.2802     78.37308     156.5589     313.4611      1.491     4.11     867.4976     55.28561     124.5836        10     0.967     0.833 -73.92   0
        51    902.0682    944.2892 307.5375182  +6.3154265     7085.708     11098.09     11526.81     78.74658     157.0578     313.6171      1.689     3.41     863.9504     55.28561     941.2172        35     1.407     1.159 -66.53   0
        52    438.0918    941.3967 307.7302371  +6.3010960     2194.954       3362.5     3511.505     78.24818     156.5589     313.3987      1.602     3.62     870.5163     55.28561     352.1597        20     1.365     0.866 -50.65   0
        53    339.6186    939.6088 307.7711774  +6.2985302     10116.24     15287.66     16255.94     78.37308     156.5589     313.4611      1.631     3.51     871.3772     55.28561     1400.636        40     1.460     1.183 -73.62   0
        54     67.4722    954.4075 307.8836533  +6.2832731     766.5943     1196.378     1782.081     78.12309     156.4339     313.5547      1.685     5.00     869.7572     55.28561     118.7308         9     1.136     0.623 -61.24   0
        55    259.7468    938.5998 307.8043689  +6.2962645     7388.867     11091.28     10944.54     77.87229     156.4964     313.2114      1.610     3.39     871.3454     55.28561     1030.779        32     1.361     1.072 -65.59   0
        56    772.3202    933.1050 307.5917596  +6.3157097     680.1802     992.7912     1520.064     78.37308     157.1201     313.7106      1.641     4.52      867.024     55.28561     106.4027         7     0.890     0.652 -65.03   0
        57    587.8425    933.0157 307.6683501  +6.3095745     1310.952     1781.119     2082.497     78.12309     156.6213     313.4299      1.418     3.33     869.1338     55.28561     197.9344        11     0.957     0.805 -11.96   0
        58    918.0222    929.4529 307.5313913  +6.3220843     988.5709     1651.128     1361.069     78.12309     156.8709     313.4611      1.861     5.04     863.1511     55.28561     141.5374        12     1.203     0.701 -82.49   0
        59    150.1803    929.2338 307.8501690  +6.2964483     756.7104     1001.093       600.37     78.12309     156.6837     313.4611      1.463     5.05     870.0941     55.28561     95.58417         8     0.946     0.763 -80.90   0
        60    873.7740    928.3438 307.5497990  +6.3210649     718.7993     1185.083     1250.317     78.24818     156.8709     313.4611      1.795     5.54     864.6251     55.28561     83.94513         9     1.093     0.791 -56.63   0
        61    417.2040    927.4141 307.7393789  +6.3061681     617.0012     1078.095     1013.025     78.24818     156.5589     313.5235      1.734     5.83     870.3799     55.28561     76.84521         8     1.067     0.897 -58.58   0
        62    984.7155    925.4225 307.5038371  +6.3259737     692.5479     1310.551     994.1339     78.49778     156.5589     313.5547      1.998     5.91      861.715     55.28561     115.8936         9     1.306     0.751 -84.27   0
        63    754.2582    922.3539 307.5996187  +6.3195445     1714.305     2601.305     2690.273     78.62228     156.8709     313.7418      1.627     4.77     867.1933     55.28561     195.8342        18     1.284     0.985 -66.76   0
        64    577.9823    923.1397 307.6727753  +6.3133216     613.3749     1091.802     1183.436     78.24818     156.8085     313.4299      1.828     4.42     869.2059     55.28561     126.1052         6     1.345     0.413 -71.43   0
        65    847.1589    922.6016 307.5610411  +6.3225468     505.9898     535.0619     738.1327     77.99779     156.5589     313.3363      1.250     3.41     865.2374     55.28561      75.4444         5     0.783     0.430 -20.94   0
        66      4.7532    919.2030 307.9108778  +6.2956950     942.3825     1478.951     1314.876     77.99779     156.6213     284.0626      1.546     3.30     868.8196     55.28561     153.3068         9     0.973     0.632 -57.85  16
        67    985.5405    918.2975 307.5037329  +6.3289428     1257.467     1922.132     2407.128     78.37308     156.8709      313.773      1.786     4.40     861.5616     55.28561     168.9335        12     1.049     0.827 -45.77   0
        68    629.9581    918.6927 307.6513464  +6.3168978     707.6343     971.8425     693.6088     78.62228     156.8085     313.7418      1.590     5.01     868.4436     55.28561     108.0641         8     1.067     0.666 -70.31   0
        69    618.4623    918.5934 307.6561224  +6.3165539     954.7553     1396.114     1423.946     77.99779     156.6837     313.4299      1.449     3.91     868.4609     55.28561     137.0101        10     1.081     0.665 -69.92   0
        70    539.1767    918.2463 307.6890501  +6.3140419     1227.748     1704.653     1478.514     78.24818     156.8709     313.5235      1.490     4.88      869.846     55.28561     187.5158        12     1.154     0.748 -63.91   0
        71    672.7407    915.7990 307.6336818  +6.3195242      2673.18     3859.326     3815.399     77.99779     156.6213     313.3363      1.575     3.60     868.3461     55.28561     377.8509        21     1.313     0.919 -70.56   0
        72   1023.4189    914.8573 307.4881217  +6.3316264     404.4421     530.8339     779.7964     71.17902     128.2626     239.8555      1.484     4.82     860.8351     55.28561     78.01758         5     1.413     0.467 -83.13  24
        73    570.5474    912.2675 307.6762272  +6.3175611     603.8582      808.556     1133.378     78.49778     156.8085     313.5547      1.523     4.81     869.1591     55.28561     88.66315         7     0.995     0.687 -83.67   0
        74     69.2967    911.5379 307.8843431  +6.3010325     2989.703      4710.64     4548.547     78.37308     156.9332     313.7106      1.706     4.51     868.9995     55.28561      360.006        26     1.545     0.995 -73.60   0
        75    950.8171    910.8516 307.5183984  +6.3308585      794.319     1467.461     2065.068     78.12309     156.9332     313.3675      2.252     6.01     862.0626     55.28561     144.4273        11     1.299     0.782 -77.34   0
        76    833.6754    911.7469 307.5670027  +6.3265777      805.933     1315.526     1447.803     78.62228     156.8709     313.6483      1.918     4.62     865.2941     55.28561     119.6506         9     1.137     0.735 -35.50   0
        77    213.0419    910.6279 307.8247005  +6.3062429     2503.193     3560.412      3422.28     78.24818     156.8085     313.5235      1.486     3.57      870.759     55.28561      351.066        18     1.215     0.937 -54.92   0
        78     87.0362    910.7857 307.8770044  +6.3019400     1956.018     2674.033     2747.589     78.24818     156.6837     313.4299      1.493     3.33     869.0518     55.28561     290.2095        16     1.146     0.898 -58.41   0
        79    246.9739    907.3651 307.8107239  +6.3087302      689.313     1160.475     641.4342     77.99779     156.6213     313.4299      1.731     4.05     871.1115     55.28561     136.1929         7     1.139     0.412 -57.01   0
        80    804.8571    906.0488 307.5791583  +6.3279674     756.7061     1008.137     782.8099     78.62228     156.8709      313.773      1.384     4.30     865.6024     55.28561     134.6678         9     1.157     0.553 -66.50   0
        81    667.3602    904.8561 307.6362829  +6.3238620     7195.236     10766.77     10717.26     78.62228     156.9332     313.6794      1.594     3.36     868.2287     55.28561      930.572        32     1.375     1.042 -68.83   0
        82    351.7557    906.4174 307.7672562  +6.3126404     795.6909     1072.326     1792.157     78.24818     156.7462     313.4299      2.012     3.76     871.0056     55.28561     130.6116        10     1.148     0.723 -58.48   0
        83     27.3975    903.1541 307.9020197  +6.3030831     1210.155     1687.167     1478.054     77.99779     156.5589     313.2738      1.430     3.14     868.7507     55.28561     189.0267        12     1.095     0.689 -44.50   0
        84    905.1333    901.1565 307.5376899  +6.3333364     2849.618     4462.745     4903.556     78.62228     156.8085     313.6794      1.701     3.33     863.1918     55.28561     427.8025        23     1.373     0.967 -72.55   0
        85    456.8459    902.3046 307.7237661  +6.3178639     617.8128     760.2244     527.8151     78.62228     156.8085      313.773      1.570     4.79     869.8529     55.28561     85.54156         7     1.007     0.646 -88.92   0
        86    779.4394    902.1143 307.5898429  +6.3287423     559.2846     679.2587     175.9429     78.62228     156.8709     313.6483      1.339     4.42     866.0939     55.28561     92.41833         7     0.933     0.595   8.14   0
        87     40.5439    901.2309 307.8966272  +6.3043196     1240.567     1560.512     1652.905     78.49778     156.9332     313.5859      1.478     3.84     868.7704     55.28561     166.9467        11     1.072     0.678 -44.27   0
        88    350.4044    897.9292 307.7681030  +6.3160993     17017.56     25385.71     26773.22     78.24818     156.4964     313.4923      1.587     3.37     870.9843     55.28561     2350.615        46     1.443     1.157 -71.32   0
        89     85.0375    899.0787 307.8782292  +6.3067058     1348.136     2214.834     2407.423     78.49778     156.9332     313.6483      1.795     4.44     868.8666     55.28561     167.5513        16     1.296     0.857  81.99   0
        90    221.2472    897.7256 307.8217291  +6.3118452     1283.696     1815.904     1670.252     78.49778     156.9332     313.6483      1.483     4.69      870.865     55.28561     192.4751        13     1.383     0.617 -71.17   0
        91    401.2146    896.6486 307.7470521  +6.3183330     627.6187     940.7576      1116.22     77.99779     156.8085     313.3675      1.567     3.73     870.2453     55.28561     125.8735         5     0.896     0.446 -47.82   0
        92    681.9913    884.6069 307.6308881  +6.3327115     761.1616     1221.424     1861.449     77.99779     156.6837     313.4923      2.736     4.60      867.808     55.28561     131.8746        10     1.148     0.790 -72.67   2
        93    113.5808    888.7682 307.8667279  +6.3119227     1705.944     2447.068     2376.018     78.12309     156.6837     313.5235      1.543     3.88     868.9958     55.28561     215.8117        17     1.291     0.817 -63.78   0
        94    428.0695    888.4434 307.7361791  +6.3226213     1034.128     1597.155     1351.498     78.62228     156.8709     313.7106      1.504     4.89     869.8118     55.28561     160.1802        12     1.283     0.787  85.29   0
        95    508.7931    885.2485 307.7027732  +6.3266468     814.3281      1308.52      1802.83     78.12309     156.6837     313.2738      1.895     5.40     869.1895     55.28561     104.4919         9     1.108     0.743 -71.24   0
        96    895.5222    882.9315 307.5422905  +6.3405398     2070.544     3196.329     3451.939     78.74658     157.0578     313.6483      1.673     3.64     863.2988     55.28561      280.587        21     1.364     0.917 -68.00   0
        97    865.6921    883.4960 307.5546566  +6.3393107     3787.935     5685.407     5649.332     78.62228     157.3689     313.6171      1.764     6.62     864.5078     55.28561     2608.704        20     1.843     0.667 -65.64   0
        98    829.6900    881.8066 307.5696606  +6.3388056     3149.281     5065.047     5003.211     78.12309     156.5589     313.4299      1.706     3.66     864.7876     55.28561     394.8403        27     1.444     1.043 -68.87   0
        99     97.2920    881.9711 307.8737194  +6.3141807     2534.778     3948.079     4209.026     78.74658     156.6213     313.5547      1.632     4.04      868.631     55.28561     353.4511        24     1.417     1.017 -70.86   0
       100    565.5153    873.1793 307.6796295  +6.3335301     351282.9     515221.7     539851.5     78.37308     156.5589     313.5547      1.582     3.50     868.4868     55.28561      50824.7       164     1.618     1.317 -69.90   4
       101    460.0392    879.9664 307.7231917  +6.3271932      593.611     983.0294     1491.905     78.37308     156.6837     313.4611      1.557     3.81     869.4128     55.28561     101.6089         5     0.696     0.599  89.40   0
       102    653.1840    876.2733 307.6431278  +6.3351880     1191.117     1703.079     1759.115     78.12309     156.6837     313.5859      1.536     4.60     867.9393     55.28561     202.1088        13     1.253     0.739 -79.58   0
       103    409.7724    875.6911 307.7442045  +6.3272723     8139.355     11856.02     12484.01     78.74658     156.6213     313.5235      1.561     3.46     869.8692     55.28561     1192.226        30     1.386     0.997 -69.92   0
       104    352.9835    874.1093 307.7678342  +6.3260197      13251.4     19617.22     20703.64     78.37308     156.6213     313.5547      1.560     3.33     870.8557     55.28561     1890.535        41     1.435     1.090 -70.02   0
       105    671.3706    870.5211 307.6357702  +6.3381714     3717.707     5266.748     5431.543     78.49778     156.8085     313.6483      1.545     3.38     867.8231     55.28561     492.2682        22     1.261     0.926 -68.20   0
       106    903.8859    869.3223 307.5392737  +6.3464377     5243.826     8187.696     9329.239     78.62228     157.1823     313.7418      1.703     3.62     862.7795     55.28561     686.9003        31     1.394     1.143 -84.13   0
       107    197.2855    868.4122 307.8326650  +6.3231415        10161     15197.96     14597.38     78.24818     156.6837     313.4923      1.446     4.57     870.2689     55.28561     4126.047        20     1.463     0.895  76.94   0
       108    742.9932    867.2253 307.6061445  +6.3419278     803.9838     1117.004     709.8838     78.12309     156.7462     313.4611      1.402     5.07      866.178     55.28561      125.606         9     1.100     0.661 -45.22   0
       109    646.2119    864.5067 307.6464175  +6.3398125     3538.491     4994.784     5253.762     78.37308     156.6213     313.4611      1.525     3.51     867.8444     55.28561      460.392        20     1.262     0.911 -68.70   0
       110    834.5704    863.8406 307.5682364  +6.3463860     1701.486     2632.031     2516.927     78.24818     156.6837     313.5235      1.634     4.16     864.4156     55.28561     210.2543        14     1.149     0.823 -70.50   0
       111    961.6047    862.5895 307.5155347  +6.3511437     796.0283     1339.906     1373.105     78.24818     156.6213     313.5547      1.830     6.10     860.9656     55.28561     115.2515        11     1.548     0.675 -51.74   0
       112    638.3760    860.2638 307.6498132  +6.3413019     1816.036     4111.431       5107.5     78.24818     156.8709     313.5859      2.413     8.39     867.6392     55.28561      348.512        28     2.517     0.782 -62.29   0
       113    344.9368    880.0508 307.7709748  +6.3232967     851.6774     1305.523     1637.794     78.62228     156.8085     313.6794      1.595     5.62     870.9427     55.28561     132.1776        11     1.197     0.743 -76.55   0
       114    922.7656    857.2853 307.5318380  +6.3520375     3345.453     5173.289     5445.853     78.62228     156.7462     313.6171      1.648     3.54     861.7277     55.28561     428.5292        26     1.406     1.013 -62.40   0
       115    332.6813    858.2529 307.7767968  +6.3318843     862.1044     1094.488     1077.793     78.62228     156.8709     313.7106      1.508     5.12     870.7719     55.28561     116.3712        11     1.188     0.703 -50.69   0
       116    380.8680    853.0797 307.7569655  +6.3356374     2802.057     4001.077     3940.073     78.74658     157.1201     313.6483      1.531     3.68     869.8886     55.28561     372.1682        22     1.357     0.935 -63.06   0
       117    800.1790    849.8510 307.5829842  +6.3510125     525.0907     986.9681     1523.183     78.12309     156.9332     313.5235      2.341     4.38     864.1393     55.28561     77.80774         5     0.861     0.634 -44.95   0
       118    517.0363    842.9182 307.7007738  +6.3443990     3273.177     4708.571     4965.026     78.62228     156.8709     313.6171      1.522     3.64     867.8126     55.28561     458.8882        21     1.289     0.942 -57.26   0
       119    861.7580    842.1329 307.5576756  +6.3562562     927.7641     1372.841     1669.421     78.62228     156.8085     313.7106      1.822     3.59     863.3041     55.28561     155.4619        10     1.130     0.740  87.21   0
       120    582.6033    840.9100 307.6736191  +6.3474247      831.938     1242.994     1337.242     78.12309     156.5589     313.3363      1.411     4.89     867.1508     55.28561     110.5253        10     1.237     0.620 -56.35   0
       121    563.9178    838.9902 307.6814415  +6.3475915     6332.529     9560.854     10719.37     78.24818     156.4964     313.4923      1.601     3.35     867.1494     55.28561     924.7505        33     1.403     1.075 -78.64   0
       122    570.7912    838.5328 307.6786031  +6.3480105     1375.942     2134.209     2774.435     78.12309     156.6213     313.5547      1.859     4.14      867.118     55.28561     211.4097        15     1.215     0.817 -58.17   0
       123    481.9161    837.9203 307.7155230  +6.3452852     1644.235     2363.667     2384.093     78.49778     157.1823     313.7418      1.494     3.83     868.1581     55.28561     235.2839        17     1.295     0.849 -77.88   0
       124    275.2712    838.7529 307.8012883  +6.3380067     651.0545     966.1531     490.0392     78.62228     156.8709     313.6483      1.446     4.31     870.7362     55.28561     83.92902         8     0.921     0.642  85.27   0
       125    899.8043    836.9059 307.5420539  +6.3596847     1427.817      1975.95     1918.752     78.37308     156.5589     313.3987      1.458     4.55     861.9717     55.28561     201.2745        14     1.279     0.759  88.23   0
       126    123.3316    837.0793 307.8644242  +6.3335897     1404.686     2274.216      2253.63     78.74658     157.1201     313.6483      1.689     4.32      868.224     55.28561     216.0844        16     1.262     0.832 -70.69   0
       127    699.6821    835.8134 307.6251805  +6.3534478     725.6767     929.4227     768.6084     78.24818     156.6213     313.4923      1.405     5.39      865.801     55.28561     109.1907         9     1.116     0.733 -69.30   0
       128    534.6208    832.8443 307.6938117  +6.3491473     20715.25     30432.62     31525.47     78.12309     156.7462     313.4611      1.550     3.30     867.1146     55.28561     2959.344        45     1.433     1.114 -65.15   0
       129    375.9246    834.2255 307.7596525  +6.3432553     728.7929     1143.493     1015.195     78.24818     156.6837     313.6171      1.609     5.07     869.3395     55.28561     84.06982         9     1.090     0.666 -88.20   0
       130    948.2629    831.2444 307.5221233  +6.3636396     3940.864     5728.004     5752.096     78.62228     156.8085     313.7106      1.588     3.33     860.6069     55.28561     544.3512        26     1.327     1.021 -71.21   0
       131     44.8516    823.0805 307.8974782  +6.3367275      1532.67      2189.52     2454.369     78.62228     156.8709     313.6483      1.561     3.64     867.9439     55.28561     248.9298        14     1.190     0.836 -81.00   0
       132    327.2516    821.6115 307.7802850  +6.3468291     3347.164     5057.407     4850.971     77.99779     156.7462     313.3987      1.599     3.64     869.8719     55.28561     421.8978        23     1.372     0.929 -70.81   0
       133    792.8013    817.4376 307.5871340  +6.3641479     57286.05     84552.35     88470.26     77.74659     156.6837     313.4299      1.597     3.48     863.4031     55.28561     8540.944        68     1.496     1.188 -70.08   0
       134     27.2246    819.6191 307.9049130  +6.3375630     2122.092     3028.546     2894.534     78.24818     156.6837     313.5859      1.541     3.40     868.0347     55.28561     300.7278        19     1.272     0.868 -73.44   0
       135    918.0216    812.7944 307.5352974  +6.3702475     8759.275     13350.66     14017.53     78.24818     156.6213     313.4611      1.628     3.54       860.83     55.28561     1172.289        37     1.520     1.082 -73.74   0
       136    436.0919    815.7764 307.7352932  +6.3528906     848.4001     1216.098     1013.203     78.62228     156.6837     313.4923      1.622     6.78     867.9471     55.28561     111.0604        13     1.323     0.997 -62.15   0
       137    249.5032    793.7703 307.8135025  +6.3557115     783644.4      1746664      1939527     78.74658     156.6213     313.6483      2.272     5.47     869.1251     55.28561     63284.86       647     2.785     2.170  88.92   4
       138    714.7378    808.5360 307.6198446  +6.3652129     93297.44       135357     141507.5     78.62228     156.8709     313.6794      1.600     3.48     864.5165     55.28561     14035.56        83     1.554     1.183 -72.59   3
       139    359.5667    809.3388 307.7672818  +6.3529806     21835.45      32341.7     34087.43     78.37308     156.9332     313.5859      1.613     3.35     868.7395     55.28561     3209.575        51     1.458     1.170 -66.70   0
       140    721.0130    812.1062 307.6171194  +6.3639488     22424.05     33941.44     36277.57     78.37308     156.6213     313.4923      1.607     3.42     864.6153     55.28561     3040.568        54     1.518     1.201 -73.95   3
       141    421.4876    807.2281 307.7416443  +6.3559298     23324.19     34189.39     35952.48     78.74658     156.6213     313.5235      1.592     3.40     867.7897     55.28561     3298.455        50     1.483     1.105 -70.32   0
       142    408.8669    809.2920 307.7468148  +6.3546544      1515.66     2274.586     2210.104     78.49778     157.0578     313.6794      1.540     3.76      868.001     55.28561     212.0151        12     1.088     0.741 -83.00   0
       143    648.6441    808.6653 307.6472824  +6.3629481     946.3013     1304.148     1454.496     78.62228     156.8085     313.6483      1.604     4.29     865.0555     55.28561     150.0977        10     1.187     0.586 -59.07   0
       144    958.5801    806.2398 307.5186764  +6.3743072     2008.744     3098.979     2912.264     78.24818     156.6837     313.3987      1.664     3.68     859.9022     55.28561      274.212        20     1.308     0.893 -66.36   0
       145    915.0084    804.1374 307.5368384  +6.3737210      6803.88     10378.38     10634.54     77.99779     156.6213     313.4611      1.600     3.49     860.6525     55.28561     920.8157        33     1.418     1.084 -77.95   0
       146    888.0803    804.7284 307.5479994  +6.3725780     816.8615      1241.08     1058.207     78.87069     157.1201     313.6794      1.777     5.41     861.1074     55.28561     110.9753         9     1.149     0.718 -47.10   0
       147    655.5301    803.1632 307.6446081  +6.3654501     6764.723     9976.947     10388.53     78.49778     156.9332     313.7418      1.577     3.35     864.6249     55.28561     1041.857        32     1.379     1.054 -56.56   0
       148    145.6022    803.6411 307.8563066  +6.3481434     542.5559     938.7613     1141.491     77.99779     156.6213     313.3987      1.848     4.92     867.8381     55.28561     100.9636         6     1.201     0.571 -29.45   0
       149    395.3732    802.7970 307.7526358  +6.3568830     524.3909     668.2771     899.6046     78.12309     156.6213     313.4611      1.426     4.24     868.0178     55.28561     74.93097         6     1.239     0.414 -58.42   0
       150    444.2525    800.9790 307.7324029  +6.3592733     1785.604     2811.048     2897.889     78.12309     156.8709     313.4611      1.569     3.39     867.4493     55.28561     244.9369        15     1.157     0.771 -64.24   0
       151    169.4163    800.5417 307.8465243  +6.3502238     745.1805     1063.017     973.8702     77.99779     156.8085     313.3987      1.549     3.71     868.0233     55.28561     125.6651         8     1.003     0.651 -55.23   0
       152    608.5631    795.1950 307.6643763  +6.3671675     1110.864     1632.311     2047.334     77.74659     156.6213     313.4611      1.636     4.41     865.2846     55.28561     141.4388        12     1.132     0.790 -23.20   0
       153    883.2711    794.8937 307.5503256  +6.3764777     815.0404     1042.983     1038.849     78.62228     156.9332     313.6483      1.473     5.69     860.8926     55.28561     106.4438        10     1.033     0.884  44.33   0
       154    690.6443    793.1619 307.6303642  +6.3707541      2492.91     3774.119     4122.057     78.37308     156.8709     313.5235      1.619     3.58     863.9695     55.28561     387.9788        20     1.340     0.891 -59.60   0
       155    159.6514    794.0222 307.8507983  +6.3525869     1056.604     1497.033     1605.421     78.12309     156.8709     313.5235      1.551     5.11     867.8043     55.28561     154.4243        12     1.144     0.835 -54.80   0
       156    135.0023    793.8295 307.8610384  +6.3518373     1189.593     1723.943     1552.656     78.12309     156.6837     313.4611      1.429     3.38     867.5676     55.28561     219.5342        13     1.115     0.814  80.11   0
       157    424.4234    789.9120 307.7410081  +6.3631772     56295.45     82959.46     87201.41     78.62228     156.6837     313.5235      1.581     3.36     867.1956     55.28561     7536.335        78     1.534     1.226 -64.28   0
       158    228.9624    790.6218 307.8221367  +6.3563210     749.9619     2510.709     6432.371     78.24818     156.6213     313.4299      5.717     7.70     868.5483     55.28561     121.0976        11     1.759     0.942  74.42   3
       159    967.1775    791.9315 307.5155856  +6.3805013     702.0659     968.9415     1003.708     78.24818     156.8085     313.6171      1.393     3.62     859.4951     55.28561     109.1294         8     0.847     0.747  88.99   0
       160    542.1309    788.9176 307.6921699  +6.3675339     7282.843     10882.98     12162.22     78.87069     157.1201     313.6794      1.594     3.58     865.2138     55.28561     943.3291        31     1.446     0.989 -68.40   0
       161    458.9879    787.5546 307.7267364  +6.3653097     4817.103     6999.166     7832.194     78.12309     156.6837     313.3675      1.544     3.38     866.8627     55.28561     691.0998        28     1.338     1.013 -69.90   0
       162    787.3884    785.6470 307.5904473  +6.3770919     12140.07     17774.77     18576.03     78.12309     156.7462     313.3363      1.604     3.52      862.682     55.28561     1676.579        35     1.402     1.038 -69.26   0
       163     16.8313    781.9044 307.9105020  +6.3527827     1055.317     1750.303     1821.291     78.74658     156.6837     313.7418      1.710     4.64     868.0056     55.28561      152.659        11     1.186     0.631 -76.42   0
       164    455.6406    780.8176 307.7283528  +6.3679787     2404.486     3616.045     3340.729     78.24818     156.6837     313.4611      1.593     3.36     866.6255     55.28561     362.1235        21     1.295     1.038 -44.42   0
       165    809.1289    779.6057 307.5816229  +6.3803127       1442.9     2085.208     2100.741     78.12309     156.4964     313.5547      1.470     3.79     862.0399     55.28561     209.7536        17     1.315     0.816 -79.87   0
       166    145.1375    777.4581 307.8573830  +6.3589369     11919.34     17558.53     18935.03     78.74658     156.8085     313.6794      1.604     3.47     867.4172     55.28561     1542.207        38     1.437     1.075 -71.37   0
       167    153.1263    777.7617 307.8540559  +6.3590803     3169.892     4858.068     4977.188     78.49778     156.8709     313.7106      1.599     3.62     867.4769     55.28561     424.6105        25     1.466     0.966 -77.64   0
       168    137.3819    774.8116 307.8606922  +6.3597686     2999.378     5047.027     5838.617     78.24818     156.5589     313.5547      1.871     3.76     867.3489     55.28561     397.2919        29     1.452     1.208 -74.58   3
       169    137.4283    768.4081 307.8608890  +6.3624138      2120.29     3346.914     3722.122     78.24818     156.6837     313.4611      1.770     4.38     867.2614     55.28561     276.5826        22     1.501     0.901 -63.78   3
       170    932.9276    774.1158 307.5304032  +6.3867137      6665.67      10067.5     10482.97     78.74658     157.1823     313.6794      1.568     3.34     859.7897     55.28561     952.9449        33     1.399     1.114 -79.17   0
       171    982.1834    774.0048 307.5099547  +6.3884031     1445.791     2313.224     3177.074     78.24818     156.5589     313.4923      1.845     4.49     858.9161     55.28561     169.5221        17     1.238     0.969 -69.33   0
       172    688.4692    771.8029 307.6319842  +6.3794995     1779.467     2554.209     2992.887     77.99779     156.4964     313.4611      1.453     2.93     863.3895     55.28561     299.7426        15     1.098     0.794 -79.40   0
       173    575.2341    770.9901 307.6790278  +6.3760442     2418.655     3670.011     3806.118     78.12309     156.6837     313.4923      1.550     3.20     864.7215     55.28561     323.3221        22     1.297     0.964 -56.08   0
       174    423.2103    770.4105 307.7421680  +6.3711875     1121.228     1742.966     1542.023     78.24818     156.6837     313.5859      1.596     4.52     866.4948     55.28561     160.7076        13     1.251     0.858 -81.45   0
       175    706.8456    768.8307 307.6244538  +6.3813413      581.976     528.0093     729.3415     78.24818     156.9332     313.5235      1.246     3.65     863.2977     55.28561     97.21729         6     0.911     0.590 -65.05   0
       176    927.2521    766.1287 307.5330272  +6.3898218     3007.149     4579.495     4712.952     78.49778     156.8709     313.6794      1.604     3.78     859.7321     55.28561     363.4555        24     1.377     0.999 -68.27   0
       177    679.5273    765.3414 307.6359138  +6.3818679     1388.691     2313.429     2723.005     78.74658     156.8709     313.6171      1.811     4.53     863.2004     55.28561     240.7466        16     1.529     0.718 -71.72   0
       178    987.5901    765.5994 307.5079910  +6.3920537     1984.045      2688.53      3050.75     77.99779     156.5589     313.3987      1.531     3.89     858.6786     55.28561     237.7819        16     1.116     0.933 -76.61   0
       179    956.6492    765.7307 307.5208341  +6.3909673     3077.612     4611.583     5165.363     78.62228     156.8085     313.6794      1.662     3.56     859.2196     55.28561     416.8926        23     1.238     1.061 -69.66   0
       180    826.4796    763.7905 307.5749486  +6.3874218     1046.308     1600.864     1685.917     78.24818     156.4964     313.4923      1.703     5.83     861.2565     55.28561     149.0944        14     1.409     0.814 -74.97   0
       181    901.9096    761.9330 307.5436906  +6.3907080     736.3438     1191.173      1203.96     78.74658     156.9956     313.6483      1.828     6.78     859.9468     55.28561      109.614        12     1.318     0.979 -45.10   0
       182    251.8978    760.2219 307.8136391  +6.3696420     2014.881     3108.303      3960.83     78.49778     156.6213     313.4611      1.793     3.84     868.2808     55.28561      259.796        19     1.335     0.875 -52.82   0
       183    944.7457    755.8715 307.5261068  +6.3946405     1219.057     2018.849     1913.176     78.49778     156.7462     313.6171      1.809     5.55     859.2455     55.28561     191.0306        14     1.409     0.911 -70.83   0
       184    272.3006    755.4885 307.8053276  +6.3722817     639.4622     1006.815     887.6776     78.62228     157.3067     313.6171      1.385     3.86     868.3081     55.28561     118.7809         6     0.934     0.457 -87.16   0
       185    168.0244    755.2209 307.8486310  +6.3688870      842.149     1288.233     1016.676     78.24818     156.6837     313.6483      1.616     4.14     867.1939     55.28561     140.3024        11     1.048     0.879 -21.59   0
       186    971.6503    753.5425 307.5150132  +6.3964997     2521.512     3783.675     4202.568     78.62228     156.8709     313.6483      1.608     3.95      858.753     55.28561     330.7525        23     1.301     1.040 -63.86   0
       187    918.7070    754.6503 307.5369597  +6.3942755     1191.533     1770.459     1724.364     78.49778     156.7462     313.8353      1.633     3.56     859.6105     55.28561      175.938        14     1.071     0.887 -58.47   0
       188    691.2368    752.4031 307.6314862  +6.3876013     1056.555     1677.146     2478.586     77.74659     156.6837     313.4611      2.059     3.91     862.8348     55.28561     152.5197        10     1.106     0.652 -53.77   0
       189    412.0111    748.4039 307.7475585  +6.3798971     749.6044      1253.62     1143.614     78.24818     156.5589     313.5547      1.733     4.52     865.8243     55.28561      106.928         8     1.185     0.489 -64.34   0
       190   1013.4056    746.8107 307.4979003  +6.4006719     1620.942      2175.47     2514.917     78.24818     156.6837     313.5547      1.557     3.64     857.9548     55.28561     208.2662        15     1.099     0.903 -64.57   0
       191    814.5535    745.2673 307.5805215  +6.3946707     1378.658      1993.92     1823.684     78.62228     156.8085     313.6483      1.597     4.08     860.9978     55.28561     185.9469        17     1.282     0.924 -83.77   0
       192    639.6975    746.7515 307.6530759  +6.3882097     621.1918     808.1133     624.1992     78.62228     156.8085     313.8041      1.448     5.45     863.4037     55.28561     105.1967         7     1.075     0.779 -27.26   0
       193    901.0857    742.7872 307.5446739  +6.3985850     1417.538     1998.162     2386.104     78.24818     156.7462     313.4923      1.516     3.84     859.5627     55.28561     217.9373        14     1.191     0.819 -82.87   0
       194    875.0723    737.5493 307.5556510  +6.3998788       960.17     1491.754     1432.795     78.62228     156.8709     313.6794      1.671     5.00     859.7234     55.28561     140.7922         8     0.912     0.776 -67.40   0
       195    661.3425    736.9575 307.6444174  +6.3929777     611.9606     834.7976     1166.204     78.49778     156.8085     313.6794      1.575     5.02      862.692     55.28561     80.63794         7     1.078     0.661 -79.19   0
       196    857.6608    734.0942 307.5629965  +6.4007238     1541.706     2348.645     2373.767     78.49778     156.9332     313.6794      1.570     3.42     859.8705     55.28561     244.6227        15     1.221     0.806 -61.17   0
       197    120.9518    731.8411 307.8689639  +6.3769555     789.7823     1829.175     1971.421     78.62228     156.8085     313.5235      2.343     8.14     866.8486     55.28561     105.6699        17     2.107     0.879  89.09   0
       198     56.8354    732.8735 307.8955494  +6.3743713     2520.739     3586.882     3939.155     78.49778     156.8709     313.5859      1.533     3.21     867.4905     55.28561     387.8677        17     1.241     0.788 -63.15   0
       199    469.1836    732.3181 307.7243612  +6.3884557     541.2122      642.043      771.199     78.24818     156.5589     313.5235      1.545     4.51     864.7779     55.28561     89.31195         7     1.233     0.468 -69.69   0
       200    712.2942    725.2679 307.6236532  +6.3995086      463.444     889.5195     590.8781     78.49778     157.0578     313.6794      1.777     4.18      862.114     55.28561     83.44159         6     1.112     0.448 -85.40   0
       201    669.5099    721.4303 307.6415473  +6.3996614     6715.155     9367.896     10476.54     78.74658     156.6837     313.6171      1.599     3.36     862.1359     55.28561     1019.052        26     1.308     0.952 -69.87   0
       202    616.4197    720.8900 307.6636100  +6.3981073     1617.458     2264.979     2577.973     78.49778     156.6213     313.4923      1.512     3.37     863.0691     55.28561     235.4404        16     1.126     0.901 -63.93   0
       203    538.0291    720.9330 307.6961582  +6.3954638     574.5324      819.815     575.1025     78.37308     156.8709     313.6171      1.419     5.67     863.7462     55.28561     92.48535         7     1.266     0.716 -75.18   0
       204    526.9653    720.8810 307.7007538  +6.3951145     876.4312     1288.167     1025.087     78.49778     156.9332     313.6483      1.510     4.60     863.8849     55.28561     129.3325        11     1.058     0.822  82.39   0
       205    643.3992    717.1961 307.6525314  +6.4005356     2207.142     3400.699     3566.359     77.99779     156.4339     313.3987      1.684     3.55     862.4844     55.28561     324.0137        22     1.353     0.959 -78.62   0
       206    132.5037    717.2016 307.8646617  +6.3833879     4031.673     6285.782     6506.925     78.12309     156.6213     313.3051      1.671     3.78     866.4575     55.28561     529.4637        26     1.413     0.968 -82.67   0
       207   1006.6564    716.7821 307.5017075  +6.4128443     2612.448      4156.54     4226.746     78.12309     156.8085     313.3987      1.674     4.00     856.8713     55.28561     338.5874        23     1.295     1.109 -53.59   0
       208    319.1618    716.9450 307.7871694  +6.3897680     715.5829       1135.2     1277.253     78.62228     156.9332     313.6794      1.907     5.39     866.1137     55.28561     94.03296         9     1.180     0.694 -79.66   0
       209    254.8620    717.2203 307.8138579  +6.3874943     723.4062     1083.617     889.6254     78.24818     156.8709     313.5547      1.341     4.63      866.668     55.28561     114.6884         8     0.893     0.703  86.50   0
       210    786.4152    713.5737 307.5932681  +6.4068151     21367.74     30889.12     32116.07     78.37308     156.7462     313.5859      1.580     3.32     860.8306     55.28561     3029.729        47     1.454     1.114 -71.92   0
       211    916.4141    713.3255 307.5392957  +6.4112602     3891.992     5613.148     5709.545     78.12309     156.6213     313.4923      1.598     3.55     858.8403     55.28561     520.9783        23     1.305     0.986 -70.67   0
       212    485.2982    713.8069 307.7182927  +6.3966383     1498.887     2061.736     2238.459     78.37308     156.4964     313.4299      1.489     3.76     864.2897     55.28561     204.3232        16     1.219     0.842 -70.07   0
       213    514.1336    713.5082 307.7063297  +6.3977282     1069.851     1476.115     1176.351     78.62228     157.0578     313.6483      1.479     3.50     863.8983     55.28561     154.4802        11     1.030     0.700 -67.77   0
       214    331.1629    713.1219 307.7823152  +6.3917494     744.8196     1138.425     1032.382     78.49778     156.9332     313.6483      1.410     4.42     865.7618     55.28561     128.2992         8     0.890     0.623 -44.21   0
       215    259.9124    707.1265 307.8121012  +6.3918312     6542.118     9490.846     9805.309     78.62228     157.1823     313.6483      1.533     3.45     866.1619     55.28561     917.4153        28     1.342     0.996 -65.95   0
       216    666.9467    706.3566 307.6431177  +6.4057988     7641.617     11193.59     11829.84     78.62228     156.8709     313.6483      1.560     3.45     861.8348     55.28561     1152.983        32     1.341     1.078 -66.14   0
       217    649.3442    707.2591 307.6503965  +6.4048371     946.0333     1457.602     1954.307     78.74658     156.8709     313.6794      1.769     4.23     862.1063     55.28561     140.3393         8     1.056     0.550 -72.30   0
       218    362.1569    706.3192 307.7696752  +6.3955984     674.8643     928.0881     1640.879     78.62228     156.8709     313.6171      1.471     5.23     865.1838     55.28561     88.29962         9     1.069     0.723 -80.27   0
       219    927.0375    698.8956 307.5353676  +6.4175723     1358.387     2314.933     2546.521     78.74658     156.7462      313.773      1.880     3.97     858.5084     55.28561     229.8427        18     1.321     0.965  83.85   0
       220    738.5957    694.8398 307.6137529  +6.4129506     3862.375     5734.057     5896.308     77.87228     156.6213     313.3675      1.603     3.63     861.2891     55.28561     532.5555        25     1.465     0.924 -78.28   0
       221    694.0514    695.2420 307.6322360  +6.4112945     1142.171     1304.413     929.2172     78.62228     156.8709     313.6483      1.327     4.69      861.451     55.28561     167.6724         9     1.037     0.602 -57.50   0
       222   1005.0424    691.3753 307.5032278  +6.4232799     9132.416     13999.29     14913.46     78.24818     156.8085     313.4299      1.637     3.48     855.6066     55.28561     1301.967        35     1.397     1.127 -71.55   0
       223    943.4100    691.8140 307.5288061  +6.4210424     2496.544      3738.42     2089.007     78.37308     156.6213     313.5859      1.584     3.91     857.8735     55.28561     350.7244        19     1.269     0.880 -70.32   0
       224    746.0236    693.0251 307.6107294  +6.4139482       525.84     1014.106     1775.704     78.12309     156.7462     313.6171      2.052     3.82     861.1046     55.28561     89.75702         5     1.063     0.394 -33.00   0
       225      4.4275    693.2193 307.9186483  +6.3889767     787.1555     956.0919     962.6131     78.24818     156.6837     280.3542      1.309     4.47     867.6265     55.28561      139.941         7     0.928     0.612 -13.58  16
       226     23.6925    691.0867 307.9107216  +6.3905061     1751.992     3082.007     3201.597     78.62228     157.3067     313.7418      1.875     5.24      867.368     55.28561     259.1315        23     1.690     1.060 -11.97   0
       227    557.7970    689.3537 307.6890114  +6.4091635     698.0632      838.888      786.988     77.99779     156.6213     313.3051      1.227     4.93     862.6669     55.28561     121.2606         7     1.042     0.659 -67.55   0
       228    441.2302    689.4856 307.7374090  +6.4052014     544.8593     719.2197     603.3679     78.62228     156.6837     313.5235      1.152     4.70     864.3792     55.28561     80.86407         6     1.139     0.550 -47.07   0
       229    543.5283    687.1754 307.6950095  +6.4095847     2110.906     3140.083     2682.451     78.24818     156.7462     313.5859      1.587     3.58     862.8098     55.28561     309.4871        18     1.254     0.876 -64.24   0
       230     82.3173    686.1266 307.8865482  +6.3945277     26379.28     39509.08     41133.67     78.87069     157.1823     313.6794      1.614     3.46     866.6366     55.28561     3361.396        53     1.471     1.175 -66.54   0
       231    512.2799    684.5430 307.7080733  +6.4096243     1447.618       2034.7     1892.657     78.62228     156.8709     313.6483      1.536     4.59     863.3094     55.28561     174.9576        14     1.278     0.731 -66.90   0
       232    933.4681    683.3470 307.5332180  +6.4242063     1116.934     1646.419     1313.798     78.49778     156.8085     313.5859      1.600     3.81     858.0591     55.28561     175.3181        11     1.158     0.651 -54.87   0
       233    552.7494    680.8351 307.6913937  +6.4125113     1027.764     1652.324     1892.563     78.49778     156.8085     313.5547      1.633     4.25     862.5187     55.28561     169.1735        12     1.186     0.827  81.38   0
       234    728.2816    678.5124 307.6185836  +6.4193464     3740.961     5339.379     5481.293     78.37308     157.0578     313.7418      1.545     3.18     860.9607     55.28561     540.5962        22     1.304     0.891 -72.15   0
       235    750.3669    676.7976 307.6094703  +6.4207930     4232.751     6017.939     6032.165     77.87229     156.6837     313.4299      1.542     3.41     860.6339     55.28561     627.6635        24     1.277     0.963 -67.63   0
       236    581.7804    674.5667 307.6795496  +6.4160718     3537.439     5260.515     5699.375     78.12309     156.6837     313.4611      1.620     3.61     861.8823     55.28561      515.665        24     1.328     0.970 -66.14   0
       237    417.7784    675.0418 307.7476329  +6.4103777     1387.422     1974.007     2030.733     78.24818     156.6837     313.4923      1.481     3.96     864.4355     55.28561     180.6899        14     1.163     0.789 -84.71   0
       238   1022.9263    672.9823 307.4964168  +6.4314700     4823.936     6663.502     6558.551     75.83606     135.2408      247.719      1.459     3.64     853.9038     55.28561     639.5305        25     1.380     0.903 -82.51  24
       239    242.4572    674.1177 307.8204616  +6.4048719     1875.929     2605.442     2763.595     78.62228     156.8709     313.7106      1.544     3.37     864.5144     55.28561     282.6115        17     1.152     0.900 -62.48   0
       240    988.6320    671.7631 307.5106986  +6.4308295     8264.413     12541.67     12746.68     78.24818     156.6213     313.3987      1.629     3.42     855.3784     55.28561     1160.881        36     1.376     1.145 -78.29   0
       241    325.9676    673.5184 307.7858065  +6.4079248     1432.372     1990.151     1940.491     78.49778     156.8085     313.6171      1.522     3.77      864.453     55.28561     208.9161        15     1.170     0.873 -67.57   0
       242    708.5475    670.3130 307.6270533  +6.4220714      1099.03     1334.859     1242.665     78.62228     156.7462      313.773      1.391     4.56     860.8201     55.28561     146.1332        10     1.024     0.707 -86.35   0
       243    100.3584    668.3889 307.8796563  +6.4024577     862.6953     1223.041     1459.581     77.99779     156.6837     313.3987      1.507     3.92     866.1112     55.28561     132.1951         9     1.012     0.797 -59.74   0
       244    815.3410    666.0832 307.5828491  +6.4273885     1299.491     2003.869     2254.241     78.74658     156.9332     313.7106      1.639     4.56      859.153     55.28561       201.54        15     1.361     0.814 -64.59   0
       245    433.9540    666.0826 307.7412178  +6.4146191     3003.858     4534.087     4822.997     78.62228     156.8709     313.6483      1.595     3.55     863.9295     55.28561     420.2866        21     1.309     0.898 -60.30   0
       246    147.0881    665.0264 307.8603671  +6.4054183      25119.5     37686.46     39448.31     78.74658     156.6213     313.5235      1.576     3.41     865.0919     55.28561     3456.732        57     1.489     1.216 -72.00   0
       247    366.2427    660.2994 307.7695284  +6.4147344     688.3785     1108.139     986.8439     78.62228     156.7462     313.8665      1.376     3.68     863.8823     55.28561     122.4164         5     0.928     0.420 -83.87   0
       248    608.7798    659.5242 307.6688437  +6.4231863     499.4551     540.0312     373.3972     78.24818     156.6213     313.5859      1.117     4.86     861.1079     55.28561      92.8208         5     1.029     0.651 -72.31   0
       249    983.5124    654.7943 307.5133925  +6.4376644     6874.833     11185.28     12325.51     78.12309     156.5589     313.3987      1.764     3.51     855.1737     55.28561     941.5847        40     1.473     1.235  80.92   0
       250    577.0626    649.9376 307.6823363  +6.4260818     50563.29     73490.62      76481.3     78.62228     156.8709     313.6794      1.533     3.30     861.3085     55.28561     6954.196        63     1.469     1.152 -68.00   0
       251    220.9969    651.5940 307.8301318  +6.4134491     678.9636     858.7051     1131.598     77.99779     156.5589     313.5235      1.447     6.50     864.2751     55.28561      90.2088        10     1.367     0.867 -56.13   0
       252    941.3878    651.3098 307.5310020  +6.4376974     658.7169     937.6782      528.643     78.37308     156.6213     313.4611      1.453     5.47     856.6387     55.28561     94.53308         9     1.310     0.645 -88.86   0
       253    536.0878    649.6226 307.6993615  +6.4248389     613.2632     881.7883      680.827     78.62228     156.6837     313.5547      1.729     6.00     861.8587     55.28561     103.3062         8     1.439     0.703  87.16   0
       254    184.6572    646.7500 307.8453843  +6.4142270     2922.402     4102.275     4152.136     78.62228     156.8709     313.6483      1.570     3.60     864.4931     55.28561     425.5342        19     1.262     0.875 -64.16   0
       255    507.1123    646.5204 307.7114977  +6.4251485     741.2814     997.8459     1384.751     78.37308     157.1201      313.773      1.736     6.29     862.2445     55.28561     91.14758        11     1.267     0.877 -53.26   0
       256     28.3903    653.5101 307.9100407  +6.4061771     1133.011     1724.688     1405.563     78.37308     156.5589     313.4611      1.670     3.60     867.0873     55.28561     177.7972        11     1.051     0.802 -67.53   0
       257     77.1926    640.7712 307.8902076  +6.4130794     1367.856     1912.076     1752.176     78.24818     156.6837     313.4611      1.509     3.63     865.8871     55.28561      233.104        14     1.274     0.675 -66.82   0
       258    474.3259    633.7230 307.7255425  +6.4293326     64944.61        95211      99727.3     78.87069     157.1201     313.6794      1.580     3.42     862.2661     55.28561      8947.69        70     1.512     1.179 -68.55   0
       259     17.9720    635.1584 307.9149866  +6.4134022     1783.747     2675.857     3093.935     78.24818     156.8085     313.4923      1.595     3.67     867.3485     55.28561     219.5719        15     1.119     0.881 -68.67   0
       260    148.7695    628.7552 307.8608930  +6.4204488     1599.671     2432.932     2099.077     78.24818     156.9332     313.4923      1.589     3.79     864.6342     55.28561     248.6066        17     1.395     0.771 -64.04   0
       261    943.7238    626.5265 307.5308618  +6.4480073     591.9711     803.6097     681.8948     78.87069     157.1201     313.6794      1.215     4.74     855.5978     55.28561     148.4327         6     1.096     0.625 -49.10   0
       262    428.2452    626.6318 307.7449160  +6.4307146     797.8519     1154.115     1236.357     78.37308     156.9332     313.4923      1.482     3.18     862.4238     55.28561     122.8087         7     0.832     0.606 -77.76   0
       263    620.4224    625.6407 307.6651473  +6.4375649     884.3478     1205.015     1248.646     78.24818     156.6837     313.4299      1.550     5.14     860.3569     55.28561     124.4863         9     1.121     0.666 -50.63   0
       264    660.1664    630.7726 307.6484710  +6.4367768     820.2067     1099.091      898.523     78.12309     156.6213     313.4299      1.353     4.40     860.1763     55.28561     117.3433         8     1.084     0.509 -52.53   0
       265    319.7538    622.7906 307.7900957  +6.4286586     2056.531     3150.739     3512.477     78.12309     156.7462     313.3051      1.642     3.89     862.5052     55.28561      304.058        19     1.441     0.880 -83.49   0
       266    502.0275    624.9892 307.7143333  +6.4338671     656.7376     894.5538     1454.142     78.24818     156.6837     313.5235      1.514     4.21     861.5544     55.28561      91.6615         7     0.925     0.546 -49.58   0
       267    472.0369    621.5473 307.7269027  +6.4342825     794.4529     1197.083     1559.382     78.49778     156.8709     313.6794      1.703     4.53      861.836     55.28561     121.7836         9     1.029     0.768  77.50   0
       268    746.3890    617.2911 307.6131185  +6.4452273     5511.068     7901.478     8040.603     78.37308     156.5589     313.4611      1.540     3.41     859.3536     55.28561     808.9037        29     1.369     0.999 -72.40   0
       269    799.9631    612.5377 307.5910303  +6.4489810     14683.51     20949.94     21407.34     78.62228     156.9332     313.6483      1.530     3.41     858.1609     55.28561     2256.606        39     1.384     1.058 -69.35   0
       270   1017.0291    613.0417 307.5008713  +6.4560203     968.2406     1030.676     656.8667     78.24818     156.7462     311.8971      1.396     3.97     853.3643     55.28561     136.6266        13     1.190     0.756 -81.97  16
       271    542.4947    612.3651 307.6979536  +6.4404353      1402.46     2252.168       2659.5     78.74658     156.7462     313.7418      1.928     4.20     860.5421     55.28561     204.7654        16     1.208     0.930 -46.93   0
       272    623.8540    610.5007 307.6642310  +6.4439304     2999.165      4449.88     4410.197     78.49778     156.8709     313.8976      1.554     3.54     860.0224     55.28561     476.1946        22     1.296     0.947 -67.41   0
       273     45.2760    611.4180 307.9044516  +6.4241226     697.5145     1014.955      395.037     78.12309     156.6213     313.5859      1.579     3.30     866.4468     55.28561     147.1697         6     1.074     0.614  70.34   0
       274    941.0670    606.6954 307.5326292  +6.4561060      1122.47     2039.476     2860.711     78.62228     157.0578     313.6483      2.173     3.87     854.9071     55.28561     182.1626        11     1.150     0.632 -72.23   0
       275    382.1757    604.2141 307.7648010  +6.4384236     1027.637     1435.305     1977.114     78.37308     156.6837     313.5859      1.717     4.15     861.5961     55.28561     134.0034        11     1.120     0.677 -73.41   0
       276    236.3079    604.1255 307.8253750  +6.4335606     1362.396     1963.211     2227.929     78.62228     156.9956     313.6483      1.542     3.61     863.2649     55.28561     170.4006        13     1.127     0.763 -79.44   0
       277    199.9480    604.9684 307.8404446  +6.4319902     710.8895     740.7255     241.8602     78.49778     156.9956     313.5859      1.306     3.69      863.868     55.28561     114.4341         5     1.049     0.374 -34.29   0
       278    875.9056    595.7755 307.5600552  +6.4584387     3068.538     4439.316     4412.245     78.74658     156.6213     313.5235      1.538     3.55     856.5693     55.28561     464.7883        21     1.258     0.941 -64.03   0
       279    171.4533    595.5341 307.8525950  +6.4349267       872.08     1434.073     1793.451     78.62228     156.8085     313.6171      1.859     6.14     864.0291     55.28561     115.5237        11     1.140     0.930  66.63   0
       280    834.6810    593.2468 307.5772596  +6.4581055     2527.257     3560.616     3945.508     78.62228     156.8709     313.6794      1.531     3.37     857.2099     55.28561     382.9871        20     1.251     0.931 -71.24   0
       281    815.3177    584.4183 307.5855968  +6.4611033     167398.3     240388.4     252152.8     78.24818     156.5589     313.5859      1.577     3.27     857.2546     55.28561     24222.47       123     1.574     1.264 -71.31   0
       282    805.7776    589.1912 307.5893985  +6.4588140     2672.032     4165.579     5316.483     78.24818     156.6213     313.4611      1.768     3.57     857.5338     55.28561     429.0202        23     1.386     0.984 -69.54   0
       283    747.4135    589.3978 307.6136289  +6.4567774      749.329     1245.409     1322.307     78.24818     156.5589     313.4611      1.945     5.54     858.5634     55.28561     117.7714         8     1.030     0.840  13.01   0
       284    262.7542    588.0788 307.8149344  +6.4410741     7948.063        11795     11856.86     78.62228     156.8709     313.6171      1.579     3.34     862.0322     55.28561     1104.718        33     1.408     1.060 -69.45   0
       285    196.9243    582.5977 307.8424549  +6.4411239     60241.76     90463.39      95850.1     78.12309     156.3713     313.5547      1.609     3.41     863.1759     55.28561     8100.866        84     1.610     1.244 -64.50   0
       286    120.8453    578.8795 307.8741716  +6.4400996     6509.818     9743.442     9502.077     78.62228     156.8709     313.6483      1.557     3.52     864.0619     55.28561      923.884        34     1.406     1.066 -59.99   0
       287    986.3640    576.4233 307.5148316  +6.4701156     1488.483     2030.167     1532.821     78.24818     156.6213     313.4299      1.495     3.86     852.7038     55.28561     186.4292        13     1.051     0.852 -71.31   0
       288   1006.9384    575.5798 307.5063154  +6.4711501     659.5415     1044.455     923.1201     78.24818     156.8709     313.5547      1.506     3.68     852.0887     55.28561      108.447         6     1.186     0.328 -51.57   0
       289    235.6988    574.0578 307.8266419  +6.4459531     869.2969     1031.434     1278.828     78.37308     156.8709     313.8353      1.238     3.58     861.9381     55.28561     139.4715         8     0.903     0.652 -68.73   0
       290    851.9125    571.7649 307.5708238  +6.4675501     4628.567     6658.418      6873.23     78.62228     156.7462     313.6483      1.539     3.53     856.0905     55.28561     669.4714        30     1.376     1.022 -71.05   0
       291    370.3737    569.7935 307.7708610  +6.4522377     17616.74     26230.16     27759.38     78.12309     156.7462     313.4611      1.605     3.43     860.3105     55.28561     2391.669        43     1.423     1.129 -68.73   0
       292    461.0811    570.2224 307.7331790  +6.4551043     727.3362     1062.228     1229.367     78.37308     156.5589     313.5859      1.593     3.16     860.2288     55.28561     138.3971         7     0.953     0.594 -86.54   0
       293    172.1773    568.5728 307.8532042  +6.4460816     2037.916     2937.041     3744.156     78.12309     156.6837     313.5859      1.634     3.37     863.4635     55.28561     274.8804        15     1.093     0.865 -71.89   0
       294    805.8179    565.1166 307.5901891  +6.4687546     6135.865     8896.195     9404.764     78.24818     156.5589     313.5859      1.551     3.64     856.9695     55.28561     872.6911        27     1.320     1.009 -64.18   0
       295    536.6011    564.7528 307.7020018  +6.4598944     6901.812     10183.17     10411.29     77.99779     156.4964     313.2114      1.593     3.47     859.7859     55.28561     991.3151        32     1.388     1.043 -66.53   0
       296    247.5526    566.4608 307.8219757  +6.4494879     1053.805     1542.658     1519.894     78.49778     156.8085     313.7106      1.496     4.30     861.4244     55.28561      183.697        11     1.248     0.684 -43.25   0
       297    109.8370    565.6343 307.8791900  +6.4451971     836.1039     1406.192     1622.507     78.37308     156.6213     313.4299      1.847     5.82     863.9364     55.28561     116.1416        11     1.277     0.746 -42.08   0
       298    177.7336    565.5464 307.8509990  +6.4475179     743.5167     1234.269     2571.422     78.62228     156.8085     313.6171      2.345     4.10     863.2132     55.28561     104.8916         7     0.982     0.490  -5.89   0
       299    394.7572    561.6879 307.7610084  +6.4564025     1512.372     2212.724     2269.482     78.62228     156.7462     313.6794      1.535     4.24     860.0429     55.28561     228.2817        15     1.325     0.786 -39.93   0
       300    581.3702    557.8634 307.6836419  +6.4642387     2404.718     3966.378     3829.924     78.37308     156.8709     313.5859      1.784     4.75     859.2117     55.28561     360.5559        26     1.643     0.976 -43.22   0
       301    183.6732    557.8297 307.8487930  +6.4509034     7111.137     10806.78     11771.22     78.49778     156.8709     313.6171      1.652     3.57     862.8124     55.28561     951.5477        36     1.440     1.105 -61.98   0
       302    822.4207    557.3827 307.5835535  +6.4725024     1415.406      2210.42     2917.523     78.37308     156.6837     313.5547      1.693     3.93     856.3239     55.28561     219.4544        14     1.241     0.858 -63.39   0
       303    499.9548    558.7983 307.7174203  +6.4611242     488.6191     592.6219     146.1523     77.99779     156.4964     313.2738      1.320     3.86      859.797     55.28561     76.10077         5     0.820     0.522 -58.02   0
       304    278.9344    554.2704 307.8093552  +6.4555752     88699.11     133173.3     139975.7     78.62228     156.9332     313.6483      1.608     3.43     860.6244     55.28561     11941.82        86     1.556     1.247 -67.80   0
       305     55.3178    556.5822 307.9021344  +6.4470986     5261.069     7773.402     8059.301     78.24818     156.5589     313.6171      1.600     3.43     865.4471     55.28561     671.4253        29     1.333     1.066 -72.76   0
       306    864.9442    557.7925 307.5658801  +6.4737540     610.3937     938.9077     1016.263     78.12309     156.6837     313.3987      1.395     4.00     855.1408     55.28561     111.4457         6     0.939     0.488 -39.23   0
       307    568.6934    551.9525 307.6891049  +6.4662543     933.3378     1256.894     1597.225     78.49778     156.8085      313.773      1.433     4.28     859.2472     55.28561     128.0281        11     1.041     0.768 -46.93   0
       308    978.5659    548.3321 307.5190104  +6.4814530     1704.632      2587.28      2501.95     78.49778     156.9332     313.7418      1.653     4.04     851.8663     55.28561      253.071        19     1.351     0.927 -72.61   0
       309    262.6974    549.2127 307.8162683  +6.4571176     1601.173     2336.677     2836.044     78.49778     156.6213     313.3987      1.597     3.68     860.6005     55.28561     230.5869        15     1.167     0.813 -58.47   0
       310    802.0830    546.7940 307.5923547  +6.4761943     16563.72     24280.15     25597.61     78.24818     156.4964     313.4299      1.557     3.33     856.6765     55.28561     2242.407        45     1.413     1.126 -73.62   0
       311    505.7146    545.1522 307.7154873  +6.4669511     41177.08     66735.13     71100.73     78.62228     156.8085     313.6483      1.757     3.52     859.4548     55.28561     5197.776        74     1.597     1.402 -50.91   0
       312    656.2175    543.4261 307.6530442  +6.4727055     992.8689     1454.317     2461.315     78.24818     156.6213     313.5547      2.011     4.48     857.5355     55.28561     145.8677        13     1.314     0.695 -71.90   0
       313    218.0562    541.4796 307.8350668  +6.4588095     1928.508     3094.955     3928.577     78.74658     156.8709     313.6483      1.713     4.28     860.9463     55.28561      275.098        21     1.549     0.844 -71.31   0
       314     53.7187    541.7742 307.9032987  +6.4531580     1259.764     1721.429     1672.783     78.49778     156.6837     313.6483      1.532     4.33     865.2637     55.28561     185.9185        12     1.170     0.742 -62.56   0
       315    665.5438    540.1790 307.6492801  +6.4743583     3065.668     4572.171     5017.789     78.24818     156.8709     313.4611      1.605     3.46     857.2774     55.28561     495.3816        22     1.334     0.907 -65.52   0
       316    675.9600    540.1236 307.6449562  +6.4747298     1585.352     2376.665     2921.915     78.49778     156.8709     313.7106      1.633     4.13     857.1493     55.28561      206.802        15     1.140     0.941 -60.32   0
       317    727.9744    539.2302 307.6233852  +6.4768390     1264.952     1784.024     1705.709     78.12309     156.6837     313.4923      1.464     3.13      857.242     55.28561     224.7426        11     1.010     0.701 -70.94   0
       318     84.9955    538.0134 307.8904381  +6.4557637     623.3716     1018.617     1663.547     78.24818     156.6213     313.5235      2.239     7.01     864.1115     55.28561     99.31744         6     1.977     0.696  11.15   2
       319     82.0521    535.3143 307.8917515  +6.4567789     493.7818     852.5325     1433.867     78.62228     156.8085     313.7418      1.661     2.85     864.1752     55.28561     102.4441         4     0.837     0.495  12.36   3
       320    403.3606    535.6517 307.7583123  +6.4674401     1918.075     2952.382     2732.149     78.49778     156.8709     313.6483      1.662     3.78     859.0853     55.28561     265.5663        16     1.197     0.865 -77.56   0
       321    334.9394    534.0081 307.7867811  +6.4658216      3936.67     6070.928     6327.613     77.99779     156.6837     313.4299      1.612     3.61      859.136     55.28561     547.1423        27     1.345     1.056 -73.00   0
       322    514.9279    533.4680 307.7120543  +6.4720837     2346.555     3424.416     3565.658     78.74658     156.9956     313.6483      1.575     3.55     859.0286     55.28561     340.7233        18     1.335     0.838 -64.10   0
       323    150.0134    532.6206 307.8636212  +6.4601783     26544.55     39197.47     40604.98     78.37308     156.5589     313.5547      1.590     3.41     863.2803     55.28561     3444.629        54     1.495     1.148 -64.94   0
       324    877.9274    532.9083 307.5613222  +6.4844612     1677.162     2232.461     2368.053     78.49778     156.9956     313.6794      1.481     3.69     853.9968     55.28561     253.7599        16     1.247     0.806 -76.29   0
       325    115.2014    530.9042 307.8781351  +6.4597154      2843.74     4334.646     4213.562     78.12309     156.6213     313.2738      1.586     3.66     863.5272     55.28561     361.9921        22     1.320     0.940 -57.51   0
       326    975.6541    527.3388 307.5209225  +6.4900231     5351.185     7603.802     7202.937     78.74658     156.8085     313.6171      1.539     3.47     851.4137     55.28561     768.9775        30     1.392     1.018 -80.84   0
       327    351.9959    529.2693 307.7798576  +6.4683507     1136.918     1819.462     2332.737     77.99779     156.4964     313.4299      1.645     3.83     858.7433     55.28561      170.843        11     1.022     0.770 -58.12   0
       328    548.9742    519.6310 307.6983806  +6.4789374     1425.118     2173.964     2035.968     78.12309     156.6837     313.4923      1.496     3.98     858.4434     55.28561     230.2495        14     1.281     0.730 -80.07   0
       329     14.3093    516.9089 307.9205038  +6.4620956     25725.04     38620.15     40456.38     78.62228     157.3689     313.7418      1.605     3.35      865.522     55.28561     3218.877        52     1.470     1.165 -67.32   0
       330    655.0936    513.5497 307.6545143  +6.4850023     12589.55     18154.58      18663.5     78.49778     156.7462     313.8353      1.565     3.42     856.9087     55.28561     1670.643        41     1.442     1.103 -65.13   0
       331    447.0302    513.7999 307.7409128  +6.4779266     42452.61     64606.94     67777.91     77.87228     156.6213     313.4611      1.615     3.36     858.3539     55.28561     5900.343        66     1.530     1.206 -68.69   0
       332    294.9285    514.0389 307.8040695  +6.4727217     972.9548     1339.987     1469.236     78.49778     156.8709     313.7106      1.471     3.80        858.6     55.28561     173.9087         9     1.015     0.665 -86.23   0
       333      1.5008    510.9187 307.9260250  +6.4641370     2021.786     3501.893     4982.765     70.48861     127.5745     238.8338      2.337     5.97     865.4818     55.28561     424.5052        23     2.197     0.681 -85.01  24
       334    212.1850    511.3682 307.8385207  +6.4710431      19050.7     30114.96     31651.78     78.24818     156.6213     313.5859      1.705     3.41     860.5529     55.28561      2510.16        52     1.460     1.298 -76.24   0
       335    178.0786    512.3705 307.8526502  +6.4694823     1597.991     2226.727     1469.009     78.49778     156.9332     313.6483      1.517     3.65     862.0396     55.28561      251.939        13     1.064     0.817 -68.91   0
       336    988.9427    511.6376 307.5159293  +6.4969488     1150.962     1665.545     1866.517     78.62228     156.9332     313.6483      1.553     3.66     850.6832     55.28561     161.5137         9     0.875     0.746  70.99   0
       337    917.7471    511.4055 307.5455054  +6.4946685     727.6443     992.6852     923.8076     78.12309     156.6213     313.3363      1.345     4.84     852.5201     55.28561     109.2875         9     1.244     0.533 -49.07   0
       338    829.1301    511.5842 307.5823027  +6.4916347     1011.596     1368.453     1134.846     78.12309     156.8085     313.5547      1.440     3.40     854.7249     55.28561     148.6923        11     1.029     0.698 -78.66   0
       339    576.8754    510.3269 307.6871062  +6.4837134     2802.396     4114.502     3866.416     78.87069     157.1201     313.7106      1.553     3.51     857.6845     55.28561     453.9023        19     1.293     0.871 -62.10   0
       340    950.7592    507.5432 307.5319245  +6.4973650       4968.9     6971.461     7214.739     78.62228     156.8709     313.6794      1.546     3.54      851.595     55.28561     726.8435        26     1.370     0.914 -69.01   0
       341    623.8419    505.8383 307.6677521  +6.4871396     6715.885         9907     10079.22     78.37308     156.8709     313.5235      1.561     3.35     856.9826     55.28561      926.924        31     1.414     1.008 -68.53   0
       342    111.5081    506.2885 307.8804999  +6.4697532     1243.849     1757.667     1240.016     78.62228     157.3067     313.7418      1.502     3.87     863.3387     55.28561     170.2549        15     1.187     0.828 -61.50   0
       343    973.3351    499.8925 307.5228045  +6.5012770      3617.66     5393.804     5842.452     78.62228     157.0578     313.6794      1.579     3.50     850.8109     55.28561     514.5731        23     1.252     0.975 -70.54   0
       344    535.9957    497.0919 307.7045284  +6.4878076     7364.093     11079.57     11318.98     78.24818     156.5589     313.4299      1.567     3.61     857.6572     55.28561     976.4451        33     1.397     1.074 -64.57   0
       345    381.9358    497.2860 307.7685015  +6.4825599     2720.322     4074.246     4361.995     78.74658     156.9956     313.6483      1.630     3.87     857.5686     55.28561     326.5433        20     1.273     1.005 -62.81   0
       346    105.1879    496.6865 307.8834487  +6.4735045     671.3568     859.1469     1098.118     78.24818     156.6213     313.5235      1.317     4.16     863.3754     55.28561      101.282         6     0.758     0.653  50.64   0
       347    892.5081    493.1636 307.5565986  +6.5013569     3259.323     4795.041      5766.26     78.74658     156.7462     313.6794      1.588     3.44     852.4905     55.28561      499.898        23     1.338     0.969 -73.30   0
       348    412.3535    498.1848 307.7558392  +6.4832097      713.597     1030.132     1037.039     77.99779     156.6837     313.3987      1.561     3.79     857.6487     55.28561     119.6078         6     1.004     0.410 -74.47   0
       349    240.2561    492.1181 307.8275128  +6.4799340     699.8764     1078.779     770.4165     78.62228     156.8709     313.6794      1.755     5.01      859.089     55.28561     91.06293         8     1.058     0.672  81.06   0
       350    939.3882    487.0209 307.5373343  +6.5054582     1285.757     1805.391     1789.526     78.24818     156.5589     313.5547      1.511     4.84     851.1727     55.28561     187.8146        14     1.228     0.853 -75.33   0
       351    899.9927    487.2922 307.5536869  +6.5040309     2307.615     3309.944     3665.161     78.24818     156.5589     313.4611      1.513     3.83     852.1234     55.28561     287.7722        17     1.175     0.899 -68.01   0
       352    119.5573    486.4454 307.8778274  +6.4782160     745.8831     934.8078      432.062     78.62228     156.8709     313.5547      1.402     4.06     863.0179     55.28561     116.4833         7     0.865     0.671 -79.11   0
       353    277.5836    485.1111 307.8122476  +6.4840814     675.3412     1066.123      1233.78     78.37308     156.6213     313.5235      1.767     3.94     857.5275     55.28561     123.1312         6     1.000     0.481 -82.85   0
       354    723.8444    483.2787 307.6269783  +6.4998004     2938.067     4318.468     4222.564     78.62228     156.8709     313.6483      1.534     3.31     856.1895     55.28561     427.3041        22     1.309     0.928 -63.64   0
       355    435.2249    481.9885 307.7468862  +6.4906637     1093.872     1687.338     1993.052     78.24818     156.6837     313.5859      1.632     4.99     857.1478     55.28561     144.4894        15     1.250     1.006  87.16   0
       356    394.7993    481.4241 307.7636936  +6.4895401     3685.406     5530.806      5516.68     78.24818     156.5589     313.4299      1.583     3.58     856.9778     55.28561     494.9948        25     1.345     0.966 -65.16   0
       357     85.7353    482.0935 307.8920197  +6.4788740     1907.898     2853.368     2706.598     78.49778     157.0578     313.6794      1.630     3.79     863.4907     55.28561     265.3043        17     1.238     0.852 -65.16   0
       358    622.5413    478.0518 307.6692259  +6.4985676     10063.85     14795.01     15386.88     78.62228     156.8709     313.6483      1.564     3.46     856.0226     55.28561      1480.04        34     1.387     1.063 -64.61   0
       359    785.2493    474.7000 307.6017639  +6.5053957     17137.99     24790.04     26065.45     78.62228     156.8709     313.8041      1.564     3.35     854.5709     55.28561     2346.227        49     1.477     1.139 -62.47   2
       360    789.3900    469.7764 307.6002093  +6.5075669     1428.485     2008.993     2130.961     78.24818     156.6837     313.5235      1.439     3.17     854.1999     55.28561     196.5476        11     0.967     0.803 -89.46   3
       361    305.0744    475.0512 307.8011702  +6.4891581     2636.924     3964.459     4178.495     78.62228     156.9332     313.6794      1.582     3.97     856.7835     55.28561      353.011        20     1.290     1.023 -72.67   0
       362    428.7191    474.2660 307.7498480  +6.4936336     665.2628     939.3766     402.2674     78.87069     157.0578     313.6483      1.616     4.79     856.7052     55.28561     134.9874         7     1.486     0.437 -66.26   0
       363    814.2265    471.6910 307.5898301  +6.5076066     1356.257     1968.005     1916.298     78.74658     156.6213     313.4923      1.512     4.29     853.7191     55.28561      189.717        13     1.263     0.737 -54.78   0
       364    388.0748    471.3129 307.7668268  +6.4934887     1520.271     2540.482     3128.065     78.62228     157.1823     313.7106      1.658     4.20     856.5715     55.28561      229.958        17     1.405     0.864 -74.74   0
       365    914.7873    472.2059 307.5480479  +6.5107533     557.8235     689.8277     765.0176     78.24818     156.6837     313.5235      1.470     4.55     851.3233     55.28561     91.30286         6     1.032     0.570 -36.44   0
       366    403.6232    471.5677 307.7603610  +6.4939054     517.9088     847.4711     892.3024     78.12309     156.6837     313.4299      1.744     5.26     856.5934     55.28561     73.85602         5     0.994     0.786  85.17   0
       367    970.4312    469.7377 307.5250203  +6.5136297      2297.72     3174.021     3195.433     78.37308     156.9332     313.6171      1.503     3.47     849.9554     55.28561     320.8551        17     1.221     0.848 -62.84   0
       368    718.6619    468.6189 307.6296227  +6.5056793     683.5891     866.0643     617.1293     78.24818     156.8085     313.5235      1.259     4.48     855.4306     55.28561     109.1324         7     0.900     0.635 -22.76   0
       369    376.6017    467.2479 307.7717284  +6.4947818     685.4749     1026.833     924.4114     77.99779     156.4964     313.2426      1.414     4.12      856.439     55.28561     110.0245         7     1.196     0.405 -75.82   0
       370    122.6834    466.3393 307.8772081  +6.4866216     4510.121     6486.436     7166.834     78.74658     156.9332     313.6794      1.573     3.54     862.2488     55.28561     618.2288        27     1.304     1.012 -67.80   0
       371    760.8869    465.5360 307.6121895  +6.5083644     2337.001     3383.136     3884.691     78.62228     156.9956     313.6794      1.592     4.55     854.6282     55.28561     367.4987        20     1.390     0.915 -65.75   0
       372   1023.4001    464.2357 307.5032050  +6.5176683     2621.787     3365.863      3133.54     70.90366     128.4912     240.1814      1.385     4.72     848.2978     55.28561     422.4302        15     1.309     0.704 -87.26  24
       373    280.5028    463.7591 307.8117552  +6.4929943     1481.576     2214.956      2400.48     78.62228     156.7462     313.8665      1.676     4.65     856.8282     55.28561     211.0574        16     1.297     0.896 -74.08   0
       374    358.7409    461.2248 307.7793488  +6.4966687     3209.218     4737.654     4634.453     78.24818     156.8709     313.4923      1.613     3.34     856.2893     55.28561     460.9803        24     1.334     0.992 -70.85   0
       375    714.7209    459.2079 307.6315754  +6.5094328     1642.275     2205.966     2275.589     78.24818     156.3713     313.4611      1.432     3.53      854.849     55.28561     240.2628        11     1.033     0.720 -70.19   0
       376    988.9187    457.9166 307.5177377  +6.5191270     580.6537     780.2574     1040.844     78.37308     157.1201     313.7106      1.316     3.93     848.9297     55.28561     92.61719         6     0.982     0.451 -39.24   0
       377    246.4325    457.3600 307.8261201  +6.4944910     829.0585     1278.743     1267.943     78.24818     156.6837     313.4923      1.419     3.46     857.7686     55.28561     138.1887         9     1.061     0.602 -58.84   0
       378    556.0138    451.5890 307.6977448  +6.5072641     1051.961     1405.362     1109.582     78.37308     156.6213     313.5859      1.541     4.15     855.1539     55.28561     141.1343        11     1.010     0.796 -66.45   0
       379    478.3655    450.1919 307.7300399  +6.5052378     1482.018      2198.12      2264.78     78.12309     156.6837     313.4299      1.593     3.97     855.0142     55.28561     197.9702        14     1.212     0.736 -61.70   0
       380    840.8456    449.2981 307.5795254  +6.5177411     1519.108     2234.173     2578.866     78.62228     156.7462     313.8353      1.738     3.46     852.1368     55.28561     244.2404        14     1.139     0.779 -84.78   0
       381    826.3726    448.1651 307.5855745  +6.5177252     2055.932     2861.829     2483.192     78.12309     156.6213     313.4299      1.516     3.36     852.3475     55.28561     267.7853        18     1.180     0.900 -79.32   0
       382    723.7382    446.4080 307.6282601  +6.5150189     15378.28     22172.03     23170.53     77.99779     156.6837     313.4611      1.568     3.32     854.0024     55.28561     2416.058        41     1.418     1.058 -69.35   0
       383    625.8600    448.3546 307.6688454  +6.5109392     799.6161     929.1401     1198.077     78.49778     156.8085     313.7418      1.305     4.15     854.5245     55.28561     116.5945        10     0.880     0.854  -8.95   0
       384    644.8551    442.3586 307.6611578  +6.5140507     2626.006     3893.225     4346.641     78.49778     156.8709     313.6483      1.591     3.51     854.2249     55.28561     401.7644        22     1.317     0.945 -81.60   0
       385    717.2981    441.3953 307.6311030  +6.5168730     621.3458     931.8354     1098.872     78.37308     156.5589     313.3363      1.380     3.43     853.7611     55.28561     137.2911         5     1.206     0.281 -53.09   0
       386    620.0150    439.4769 307.6715712  +6.5144086     5497.839      8147.12     9007.263     78.24818     156.5589     313.4923      1.589     3.59      854.075     55.28561     770.0363        24     1.374     0.937 -59.23   3
       387    616.2432    436.8120 307.6732273  +6.5153825     14850.43     22820.47     24349.55     78.12309     156.6837     313.3675      1.621     3.49     853.9752     55.28561     1908.091        45     1.454     1.195 -65.97   3
       388    949.0370    436.4364 307.5350212  +6.5266643     4046.701     5904.403       5721.7     78.37308     156.7462     313.4299      1.576     3.77     849.4971     55.28561     585.5498        26     1.353     0.977 -74.74   0
       389    388.1187    432.1972 307.7681260  +6.5096387     28954.45     44263.86     46133.92     77.99779     156.4339     313.3987      1.623     3.40     855.0206     55.28561     3702.614        58     1.522     1.180 -66.52   0
       390    904.6565    431.7893 307.5536097  +6.5271012      1510.45     2372.635     3313.387     77.99779     156.8085     313.3363      1.985     3.34     850.5616     55.28561     251.9487        15     1.125     0.916  82.84   2
       391    425.6734    432.9078 307.7525052  +6.5106058     619.5457     822.1437     550.9575     78.49778     156.9956     313.6794      1.408     4.16     854.5843     55.28561     96.45282         6     0.783     0.631 -34.63   0
       392    134.2538    431.4921 307.8735797  +6.5013971     2240.678      3463.21      3502.59     78.49778     156.7462     313.8041      1.660     3.60     860.4578     55.28561     309.4401        22     1.307     0.990 -57.72   0
       393    917.7938    426.7388 307.5483225  +6.5296250     5304.882     7347.759     7927.427     77.99779     156.6837     313.4299      1.518     3.40      850.271     55.28561     802.8441        25     1.279     0.961 -69.97   0
       394     67.5616    427.0216 307.9014273  +6.5009974     1649.445     2552.319     2930.941     78.24818     156.6213     313.4299      1.717     4.01     862.2079     55.28561     209.6053        18     1.247     0.935 -56.63   0
       395    245.6362    422.6819 307.8276203  +6.5087806     14134.31     21407.33     22711.79     78.62228     156.8709     313.6171      1.653     3.56     856.6697     55.28561     1945.186        44     1.506     1.121 -65.70   0
       396    974.0133    424.4765 307.5250481  +6.5324355     673.2701     755.7409     257.4662     78.24818     156.5589     313.4611      1.245     4.08      848.009     55.28561     106.1891         8     0.998     0.583  45.63   0
       397    969.3104    415.3413 307.5273073  +6.5360501     1086.573     1627.277     1229.609     78.49778     156.8709      313.773      1.623     4.37     847.8975     55.28561     152.4026        12     1.256     0.698 -83.34   0
       398    740.3528    416.3851 307.6223673  +6.5279696     690.4267     1172.787     1537.853     77.99779     156.6837     313.3987      1.664     4.08      851.952     55.28561     100.3748         7     1.074     0.444 -79.57   0
       399     81.3398    416.4902 307.8960611  +6.5058090      813.178     1178.698     1100.537     78.49778     156.9332     313.7106      1.447     3.38     861.3747     55.28561     138.7643         8     1.022     0.608 -76.21   0
       400    708.9886    415.7651 307.6354147  +6.5271763     773.7888     957.5108     1201.124     78.12309     156.6837     313.4611      1.251     3.30     852.3943     55.28561     132.3156         8     0.966     0.600 -75.67   0
       401    358.6811    412.4278 307.7810176  +6.5168120     1314.605     2024.978     2032.037     78.49778     156.6837     313.6171      1.645     4.81     854.5667     55.28561     189.3279        15     1.355     0.812 -60.56   0
       402    146.0546    411.2284 307.8693631  +6.5101597     5071.976     7828.192     8615.851     78.37308     156.9332     313.5547      1.652     3.56     859.4645     55.28561     670.8066        31     1.442     1.063 -76.08   0
       403    191.7992    412.0327 307.8503382  +6.5113667     798.9001     1088.161     808.3328     77.99779     156.6837     313.3987      1.439     3.85       858.01     55.28561      127.972         6     0.887     0.499 -52.35   0
       404    251.0166    410.3947 307.8258002  +6.5140341     1419.588       2005.1     1755.848     78.24818     156.5589     313.4923      1.538     3.96      856.211     55.28561     176.5798        14     1.125     0.863 -53.98   0
       405    831.8764    407.6963 307.5846457  +6.5346168     864.7128     1179.721     1395.775     78.24818     156.9956     313.7106      1.524     4.94     850.7145     55.28561     140.5106        12     1.108     0.934  74.57   0
       406    167.9511    407.1154 307.8604083  +6.5125944     2605.109     4241.619     4126.133     78.62228     156.8709     313.6794      1.677     4.51      858.824     55.28561     315.2228        25     1.601     0.895 -64.75   0
       407    563.7602    406.3805 307.6960477  +6.5261878     1032.503     1368.215     1175.814     78.24818     156.6837     313.3675      1.417     4.11     852.4805     55.28561     162.9821        10     0.999     0.672 -82.60   0
       408    979.7057    402.1328 307.5234320  +6.5418501     932.5031     1687.858     1445.852     78.49778     157.0578     313.6483      1.896     5.62     846.9076     55.28561     154.0737        11     1.928     0.461 -64.18   0
       409    391.6151    402.0304 307.7676899  +6.5222101      2223.12     3269.721     3252.939     78.24818     156.6213     313.5859      1.558     3.43     853.3943     55.28561     305.9027        19     1.263     0.888 -65.38   0
       410    279.6355    402.5325 307.8141797  +6.5182418     871.3486     1189.955     716.3623     78.49778     156.9332     313.7418      1.525     5.31     855.4151     55.28561     117.9183        11     1.187     0.803 -49.12   0
       411     10.5935    402.0589 307.9259291  +6.5093836     783.7857     1204.199     737.6542     77.99779     156.7462     313.3675      1.634     5.73     863.1346     55.28561     96.36987        10     1.419     0.652 -49.77   0
       412    598.9043    398.4286 307.6817186  +6.5306482     494.6158     814.5884     665.6367     78.74658     156.6213     313.6171      1.513     3.31     852.1645     55.28561     104.9766         5     1.204     0.263 -55.02   0
       413    325.0552    399.4233 307.7954211  +6.5210514     694.6097      1161.29     1260.606     78.24818     156.8709     313.4611      1.749     4.63     854.4203     55.28561     107.8558         7     1.133     0.536 -29.46   0
       414    445.2697    395.5921 307.7456227  +6.5266687     7488.292     11302.61     11902.08     78.12309     156.4964     313.5547      1.646     3.59     852.1154     55.28561     995.6384        33     1.437     1.062 -65.46   0
       415     41.7847    396.2741 307.9131712  +6.5128226      3304.92     5318.101     5436.921     78.12309     156.6213     313.5547      1.705     3.82     861.7735     55.28561     446.3721        28     1.542     0.974 -60.47   0
       416    777.8931    394.6691 307.6075041  +6.5381906     2077.578     3078.686     3393.047     78.49778     156.9956     313.6483      1.556     3.74     850.8632     55.28561     299.6398        16     1.205     0.827 -61.85   0
       417    785.8588    392.9690 307.6042527  +6.5391588     13405.75     19471.45     20632.39     78.37308     156.8709     313.5859      1.535     3.45     850.7399     55.28561     1888.121        39     1.389     1.073 -65.24   0
       418    349.4150    391.3237 307.7855771  +6.5252134     1040.776     1476.405     1349.141     78.12309     156.6213     313.4923      1.709     5.25     853.4874     55.28561     136.3111        14     1.292     0.826 -66.45   0
       419    960.5801    385.0204 307.5319489  +6.5482768      635.771      993.752     1471.922     78.37308     156.8085     313.5859      2.137     5.49     847.0785     55.28561     90.56744         9     1.347     0.632 -66.11   0
       420    194.3864    383.6445 307.8502217  +6.5231732     831.4278     1150.284     1197.894     77.99779     156.6837     313.3987      1.478     3.70     857.5045     55.28561     136.4279         9     1.107     0.537 -42.35   0
       421    465.6003    379.8629 307.7377084  +6.5338444     2312.124     3550.563     3533.571     77.87228     156.6213     313.3987      1.629     3.92     850.9973     55.28561     284.6652        23     1.401     0.977 -61.31   0
       422    401.3439    381.6475 307.7643358  +6.5309516     414.3551     660.1442     437.6974     78.62228     156.8709     313.7418      1.967     4.23     851.9323     55.28561     68.07764         5     1.245     0.411 -37.04   0
       423      1.8452    381.4049 307.9302605  +6.5176153     616.3675     1201.426     1813.802     74.00842     131.8721     243.9393      2.753     5.80     861.5982     55.28561     100.1992         7     1.272     0.744 -47.38  24
       424    493.3499    379.0720 307.7262097  +6.5351016     2972.918     4484.573     4454.035     78.62228     156.8709     313.6794      1.585     3.68     850.8119     55.28561     382.5957        23     1.306     0.986 -67.17   0
       425    922.1948    378.9324 307.5480963  +6.5495089     880.0271     1025.341     640.0765     78.12309     156.5589     313.4611      1.169     3.46       848.29     55.28561     154.6152         7     0.960     0.588  89.42   0
       426    851.2692    375.8754 307.5776580  +6.5484021      33940.7     51180.54     53571.27     78.74658     156.9956     313.6483      1.597     3.50     850.0685     55.28561     4480.382        60     1.560     1.126 -75.03   0
       427     69.1730    371.8375 307.9026226  +6.5238332     727.8298     1044.704      1180.31     78.24818     156.6837     313.4923      1.429     4.69     859.9802     55.28561     107.6719         7     1.238     0.505 -70.32   0
       428    343.4509    371.7322 307.7887143  +6.5331012     919.8326     1209.145     1140.898     78.49778     156.7462     313.5859      1.513     4.12     852.5895     55.28561     132.6486        10     1.074     0.716 -35.44   0
       429    623.0459    368.4544 307.6726991  +6.5438314     2781.502     4208.917       3974.6     78.62228     156.8709     313.6794      1.610     4.00     850.7066     55.28561     355.0869        24     1.490     0.891 -66.53   0
       430     31.3130    368.4250 307.9184614  +6.5239667     1208.906     1373.655     1620.052     78.74658     156.6837     313.5235      1.364     4.08     860.1824     55.28561     167.3735        12     1.127     0.775 -65.47   0
       431    707.7549    361.8463 307.6377375  +6.5493953     82189.02     120149.9     126237.1     78.62228     156.8085     313.6483      1.567     3.36      849.738     55.28561     11835.66        88     1.534     1.239 -70.42   0
       432    865.9046    363.1581 307.5720054  +6.5541414      1209.69     1837.573     1926.006     78.62228     156.8085      313.773      1.660     4.19     849.8054     55.28561     176.8107        13     1.153     0.815 -75.20   0
       433     87.0487    361.0800 307.8955621  +6.5288762     1444.893     2063.897     2253.239     78.62228     156.9332     313.6483      1.532     3.56      859.413     55.28561     206.1209        15     1.175     0.833 -87.89   0
       434    570.0459    358.5343 307.6950458  +6.5461514     2691.487     3972.174     3852.623     78.62228     156.8085     313.6483      1.586     3.53     850.0282     55.28561     346.6938        24     1.305     1.013 -77.71   0
       435    949.2578    358.8626 307.5375279  +6.5586982     939.3074     1341.909     1129.342     78.74658     156.8085     313.6794      1.577     4.21     846.4273     55.28561     142.2592         8     0.994     0.630 -77.20   0
       436    397.4412    358.7664 307.7667273  +6.5402668     594.6011     798.1423     633.3262     78.37308     156.8709     313.4923      1.592     3.47     850.5125     55.28561     88.80945         5     0.747     0.467 -73.11   0
       437    107.3964    357.2432 307.8872411  +6.5311452     6199.864     9570.404     10392.85     77.99779     156.4964     313.3363      1.694     3.58     859.1629     55.28561     834.8677        31     1.416     1.068 -64.44   0
       438    553.4471    354.7371 307.7020677  +6.5471628     7419.818     10976.36     11543.89     78.49778     156.7462     313.7106      1.607     3.34     849.5502     55.28561     978.6794        34     1.401     1.089 -62.70   0
       439    416.3897    349.8760 307.7591567  +6.5445731     26507.05     40048.95     41853.99     78.24818     156.4339     313.4611      1.618     3.40     849.6424     55.28561     3352.637        56     1.517     1.190 -70.59   0
       440    282.4322    352.2493 307.8147137  +6.5390944     2592.603     3740.475     3499.427     78.37308     156.8709     313.5859      1.548     3.63     854.1411     55.28561     342.5234        19     1.317     0.854 -71.16   0
       441    595.1339    349.4821 307.6849299  +6.5507291      613.636     921.8505     503.6467     78.87069     157.1201     313.7106      1.464     5.35     849.8634     55.28561     87.61749         8     1.060     0.762 -22.67   0
       442    523.9205    348.6834 307.7145349  +6.5486723     1404.354     1956.468     1725.985     78.74658     157.1201     313.7418      1.499     3.91     849.2468     55.28561     188.0766        13     1.098     0.792 -48.00   0
       443    396.1849    347.8192 307.7676178  +6.5447440     1292.862      2084.42     2700.052     78.37308     156.6213     313.5547      1.875     4.01     850.0392     55.28561     185.9692        15     1.240     0.824 -70.98   0
       444    495.7373    344.8958 307.7263681  +6.5492910     1175.195     1636.108     1458.927     78.49778     156.9956     313.7106      1.473     4.10     849.2333     55.28561     177.7941        13     1.120     0.877 -60.49   0
       445    811.2234    342.5681 307.5954082  +6.5608147     669.5259     988.5215     1001.839     77.99779     156.7462     313.4611      1.534     5.09     849.3282     55.28561     128.6045         8     1.324     0.579 -76.89   0
       446    393.3266    342.3755 307.7689884  +6.5468954     795.9509     1325.216     1711.176     78.24818     156.6837     313.5859      1.754     4.09     849.9785     55.28561     123.7534         6     1.056     0.452 -82.41   0
       447    646.8375    341.8353 307.6637118  +6.5556177     689.2612     1159.531     1084.782     78.37308     156.7462     313.4299      1.656     4.77      848.809     55.28561     110.7464         7     0.931     0.694  13.73   0
       448    505.4586    340.2771 307.7224858  +6.5515238     8972.874     13270.41     14132.27     78.74658     156.8709     313.6171      1.601     3.30     848.9534     55.28561      1258.68        35     1.414     1.077 -62.14   0
       449    774.5256    339.1277 307.6107665  +6.5610082     3240.707     4915.347     5566.374     78.87069     157.0578     313.6794      1.645     3.39     849.2659     55.28561     466.8705        22     1.303     0.999 -82.21   0
       450    929.9108    339.0527 307.5462276  +6.5662309     1053.976     1517.067     1295.739     78.62228     156.6837      313.773      1.454     4.86     846.3033     55.28561     162.8102         9     1.161     0.576 -64.18   0
       451    722.2039    338.8846 307.6325070  +6.5593584     812.4062     1048.134     1288.897     78.12309     156.4964     313.3675      1.605     5.68     849.0032     55.28561     109.6942         8     1.301     0.699 -51.31   0
       452    331.9955    337.3502 307.7946307  +6.5469106     1127.356     1577.221     1336.259     77.99779     156.6837     313.3051      1.536     4.80     851.5801     55.28561     175.0004        13     1.208     0.761 -52.63   0
       453    167.6464    330.6779 307.8631151  +6.5441399     1001.378     1541.839     1742.708     78.49778     156.9332     313.6483      1.751     4.31     857.6989     55.28561     199.3566        10     1.245     0.594 -51.12   0
       454    395.2694    324.4825 307.7687841  +6.5543476     7742.138     11439.01     11962.04     78.87069     157.1201     313.6794      1.624     3.45     849.5565     55.28561     995.0328        33     1.389     1.105 -67.69   0
       455    251.2686    325.0262 307.8285750  +6.5492856      2188.24     3238.023     3465.976     78.24818     156.7462     313.5547      1.557     3.79       854.18     55.28561     268.0765        17     1.257     0.845 -63.30   0
       456    748.8110    324.2843 307.6219456  +6.5662762     1189.015     1974.393     1920.256     78.24818     156.6213     313.4923      1.670     4.09     848.7921     55.28561      183.188        15     1.259     0.854 -68.19   0
       457    763.2125    320.3497 307.6160957  +6.5683823     56197.57     81252.51      84976.9     77.99779     156.8085     313.3363      1.553     3.30     848.6657     55.28561     7667.368        71     1.478     1.189 -72.15   0
       458    434.8587    319.8966 307.7524953  +6.5575695      2362.82     3472.344     3392.381     78.49778     156.8709     313.8041      1.582     3.16     848.7795     55.28561     352.3112        19     1.243     0.865 -57.66   0
       459    998.0258    317.4312 307.5186587  +6.5774308     1848.699      2529.62     2396.155     78.12309     156.6213     313.4923      1.476     3.32     843.5125     55.28561     287.4022        16     1.158     0.873 -77.97   0
       460    939.1187    316.6509 307.5431534  +6.5757870     2455.535     3188.162     3147.001     78.62228     156.9332     313.6483      1.371     3.11     845.3101     55.28561     377.3011        17     1.152     0.795 -73.67   0
       461    581.3390    317.1787 307.6917457  +6.5636032     1201.836     1577.288     1498.849     78.24818     156.8085     313.5859      1.435     3.40      847.745     55.28561     177.7299         9     1.026     0.599 -62.53   0
       462    421.2737    315.4732 307.7582868  +6.5589398         2102      3222.62     3348.404     78.87069     157.1201     313.7106      1.649     4.03     848.8449     55.28561      277.369        21     1.357     1.034 -71.47   0
       463    471.7968    316.0034 307.7372841  +6.5604161     1071.084     1401.052     1620.033     77.99779     156.4339     313.4611      1.347     3.18     848.1502     55.28561     204.4644        10     1.041     0.658 -74.74   0
       464    301.2487    314.5565 307.8081695  +6.5552876      754.273     955.8505     1138.362     78.62228     156.8085     313.5859      1.321     3.04     851.9374     55.28561     119.6873         7     0.828     0.618 -72.29   0
       465    842.9583    310.3334 307.5833078  +6.5751834     1064.155     1505.365     1480.039     78.62228     156.8085     313.7106      1.530     4.32     847.1929     55.28561     159.4003        10     1.114     0.805 -73.11   0
       466    471.8710    310.3678 307.7374430  +6.5627452     794.8271      1226.37     1472.471     78.49778     156.8709     313.6171      1.662     4.91     847.9018     55.28561      123.392         8     1.106     0.617 -65.13   0
       467    451.3774    307.6166 307.7460477  +6.5631935     1066.931      1779.82     2370.859     78.37308     156.7462     313.5859      2.120     7.21     848.1779     55.28561     191.4388        16     1.987     0.732 -61.51   0
       468    197.8187    306.8109 307.8513893  +6.5550080     2275.184     3313.754     3607.574     78.24818     156.5589     313.5235      1.598     3.13     855.9269     55.28561     328.8554        19     1.211     0.890 -58.43   0
       469    761.7209    304.9545 307.6172320  +6.5746883     6480.458     9334.274     9789.713     78.62228     156.8709     313.6483      1.534     3.41     848.1919     55.28561     938.4222        31     1.390     1.001 -69.65   0
       470    233.8416    305.3480 307.8364769  +6.5568234     613.4991      939.093     638.8085     78.62228     156.9332     313.6483      1.575     4.70     854.4346     55.28561     116.7858         6     1.051     0.597  69.74   0
       471     94.0040    303.9818 307.8946025  +6.5526821     1272.587     1751.149     1900.847     78.24818     156.4339     313.4611      1.446     4.68     858.8656     55.28561     201.3641        13     1.289     0.759 -71.45   0
       472    778.0676    302.7989 307.6105144  +6.5761249       2651.4     3764.665     4017.879     77.99779     156.4339     313.4611      1.482     3.47     848.1287     55.28561     367.9496        20     1.262     0.915 -65.67   0
       473    352.4240    304.5120 307.7872526  +6.5611535     666.0929     975.8857     619.2789     78.62228     156.6837     313.5235      1.269     3.72      850.063     55.28561     95.40656         6     0.955     0.417 -18.69   0
       474    480.4153    301.8276 307.7341815  +6.5665575     604.4468     865.1465     615.7335     78.24818     156.6837     313.5547      1.428     3.48     847.4156     55.28561     108.3683         5     0.844     0.414 -68.68   0
       475    367.5904    297.4321 307.7811918  +6.5645857     1709.753     3225.641     3333.588     78.12309     156.6213     313.4923      1.903     5.01     849.5476     55.28561      218.794        23     1.441     1.178  -6.46   0
       476     81.4228    297.8269 307.9000358  +6.5547993     1323.353     1816.981     1834.949     78.12309     156.6837     313.5859      1.444     3.51     858.9004     55.28561     204.6205        13     1.076     0.811 -60.57   0
       477   1016.3208    293.8322 307.5118494  +6.5877840     6396.681     9177.674     9482.061     78.49778     156.8709     313.6171      1.535     3.25     842.2598     55.28561     828.9202        28     1.295     1.009 -77.73  16
       478    494.2968    293.5240 307.7286952  +6.5704511      2046.22      3137.31     3132.721     78.24818     156.9956     313.7106      1.690     3.61     846.9501     55.28561     280.4102        23     1.344     1.009 -81.23   0
       479    256.9583    289.1902 307.8274207  +6.5642711      5925.43     9110.816     9798.852     77.99779     156.6837     313.3987      1.632     3.51     852.8947     55.28561     807.4032        32     1.402     1.086 -66.88   0
       480    821.5925    287.5389 307.5929472  +6.5838800     705.7053     957.4296     1017.929     77.99779     156.6837     313.4299      1.352     4.49     846.7881     55.28561     129.2684         7     0.892     0.685  80.24   0
       481    776.7640    282.5803 307.6117344  +6.5844285      920.196      1284.03      1565.64     78.12309     156.6837     313.4299      1.717     4.29     847.4069     55.28561     118.0134        10     1.012     0.729  39.15   0
       482    233.9413    281.5977 307.8372368  +6.5666317     748.6078     1079.922     1148.599     77.99779     156.6213     313.3675      1.600     5.17     853.9583     55.28561     107.8931         9     1.126     0.746 -16.29   0
       483    391.1740    279.8967 307.7719871  +6.5726168     1757.972     2831.249     3312.702     78.74658     156.6213     313.5547      1.719     4.11     848.6978     55.28561     207.2211        20     1.236     1.049 -64.82   0
       484    977.9230    278.5292 307.5283118  +6.5928207     1217.323      1737.85     1908.855     78.87069     157.1201     313.6483      1.526     3.97     842.8687     55.28561     167.0743        11     0.998     0.743 -67.27   0
       485    313.2419    276.0782 307.8044854  +6.5715758     1200.093       1902.7     1724.663     78.49778     156.8709     313.7106      1.700     3.64     850.5126     55.28561     150.0249        14     1.113     0.831 -64.39   0
       486    160.8361    275.6394 307.8678019  +6.5666323     1710.519     2528.794      2382.88     78.37308     156.7462     313.4923      1.615     3.86     856.4665     55.28561     244.0097        17     1.277     0.895 -74.55   0
       487    570.4755    271.5446 307.6977925  +6.5820789     2299.417     3292.246     3901.948     78.49778     156.8085     313.6171      1.582     3.36     845.5159     55.28561      306.749        19     1.235     0.923 -69.30   0
       488    914.4424    270.6487 307.5549450  +6.5939551     1930.537     2876.253     2987.889     78.62228     156.8085     313.5859      1.677     3.42     843.9539     55.28561      253.205        17     1.143     0.928 -81.49   0
       489    734.0928    269.0638 307.6299129  +6.5885814       5305.1     7610.521     7768.148     78.62228     157.0578     313.7106      1.496     3.16     846.6981     55.28561     773.3765        29     1.426     1.001 -78.02   0
       490    675.0238    268.9772 307.6544519  +6.5866405     2308.518     3460.145     3252.326     78.12309     156.7462     313.6171      1.547     3.34     845.5254     55.28561     322.2157        18     1.181     0.891 -73.29   0
       491    972.3496    268.5974 307.5309596  +6.5967351     744.2801     760.0844     674.6438     77.99779     156.4964     313.2426      1.224     3.20     842.6342     55.28561     122.5316         9     1.054     0.581 -76.58   0
       492    389.7050    263.3638 307.7731542  +6.5793928     828.1846     1008.067     712.4642     78.74658     156.7462      313.773      1.378     4.96     848.3328     55.28561     116.7554         9     1.025     0.679 -82.58   0
       493    930.0807    261.0676 307.5487700  +6.5984328     1131.183     1569.956     1535.385     78.74658     157.1201     313.6794      1.371     3.30     843.1504     55.28561     174.5823        14     1.103     0.839 -85.01   0
       494    233.6518    254.3936 307.8382749  +6.5778527     2324.996     3502.982     3357.535     78.12309     156.6837     313.3051      1.556     3.59     853.2568     55.28561     393.3658        20     1.312     0.921 -68.74   0
       495    876.1348    253.3093 307.5714389  +6.5998342     1684.755     2413.404     2362.989     78.49778     157.0578     313.6483      1.444     3.11     844.1116     55.28561     262.2162        13     1.044     0.788 -49.65   0
       496    766.6572    252.6657 307.6169366  +6.5964406      1712.43     2366.209     2237.707     78.74658     156.8085     313.6483      1.486     3.73     846.0107     55.28561     274.2018        15     1.264     0.807 -68.29   0
       497    254.9569    248.7885 307.8296148  +6.5808830     609.3264     893.5038     1012.922     78.12309     156.6837     313.3675      1.583     4.69     852.3829     55.28561     106.6627         6     1.075     0.581 -51.92   0
       498    467.5628    244.1859 307.7414602  +6.5899231     23217.37     35287.69     37378.05     78.12309     156.6837     313.3987      1.629     3.46     844.9197     55.28561     3204.869        49     1.476     1.174 -65.49   0
       499    793.4963    243.3905 307.6060991  +6.6011674     14227.02     20587.93     22203.67     78.37308     156.4964     313.4611      1.590     3.22     845.5406     55.28561     2124.287        51     1.487     1.225 -53.17   0
       500    732.3454    239.5153 307.6316308  +6.6007220     694.1732     1166.176     1017.432     78.62228     156.8709     313.8041      1.535     3.79     845.3771     55.28561     112.3627         6     0.888     0.475 -89.83   0
       501    472.9102    238.7648 307.7394216  +6.5923405      1480.96     2521.522     2964.991     78.74658     156.8085     313.6483      1.772     4.61      844.431     55.28561     169.8016        17     1.228     1.009 -37.82   1
       502    155.6634    237.5258 307.8712373  +6.5821926     2418.136     3762.312       3658.6     78.87069     156.8709     313.6171      1.675     3.82      855.472     55.28561     317.9592        26     1.340     1.156 -66.03   0
       503    130.3977    236.6292 307.8817619  +6.5817124     1198.651     1923.961     2027.145     78.12309     156.6837     313.4611      1.696     4.26     856.5262     55.28561     166.3377        16     1.247     0.977 -37.15   0
       504    328.4124    246.0087 307.7991978  +6.5844992     714.4356     955.6147     898.5625     78.24818     156.6837     313.5859      1.728     5.12     849.7262     55.28561     96.98071         8     1.100     0.673 -35.97   0
       505    182.7300    235.6001 307.8600600  +6.5838984     756.4162     1108.004       1373.8     78.12309     156.3713     313.4299      1.618     4.45     854.4698     55.28561     126.5411         7     0.913     0.776 -60.67   0
       506    929.8919    233.4922 307.5497725  +6.6098110     1465.577     2079.315     2904.011     78.62228     157.3689     313.6794      1.519     3.57     841.6315     55.28561     246.3455        12     1.086     0.734 -83.74   0
       507    591.5993    230.0659 307.6904128  +6.5999109     4762.714     7044.352      7303.84     77.87228     156.4964     313.3987      1.555     3.38     844.2614     55.28561     647.5291        24     1.278     0.988 -67.10   0
       508    554.3759    229.8873 307.7058809  +6.5987372     2189.451     3208.209     3050.745     78.62228     156.6837     313.5235      1.544     3.84     843.6531     55.28561     259.9175        18     1.293     0.866 -61.55   0
       509    311.6602    230.6299 307.8066747  +6.5902852      1146.73     1563.714      1370.59     78.37308     156.8709     313.6171      1.473     3.23     850.2083     55.28561     159.0661        12     0.982     0.817 -55.52   0
       510    396.1830    228.8688 307.7716255  +6.5938511     1498.796     2237.505     1820.339     78.12309     156.7462     313.5547      1.590     3.53     847.4164     55.28561     192.7941        19     1.217     0.982 -72.25   0
       511    898.6428    226.5382 307.5629866  +6.6116385     12290.28     17221.29     17621.46     78.62228     156.8085     313.7418      1.534     3.24     842.5342     55.28561     1905.959        40     1.356     1.101 -69.97   0
       512    952.5658    226.8217 307.5405772  +6.6133219     2872.362       4380.2     4464.012     78.12309     156.6837     313.3987      1.603     3.45     841.1322     55.28561     403.6972        22     1.268     0.984 -72.29   0
       513    326.1566    226.1559 307.8008041  +6.5926193     801.8987     1536.574     1784.374     78.62228     156.8709     313.5235      2.293     6.98     849.5631     55.28561     130.7644        11     1.683     0.811  77.44   0
       514    985.2656    224.4205 307.5270739  +6.6154046     10494.48        14442     14909.83     78.24818     156.8709     313.5235      1.486     3.12     840.7804     55.28561     1543.052        34     1.326     1.027 -69.12   0
       515    573.8234    226.3231 307.6979226  +6.6008604     934.1655     1392.367     1357.215     78.24818     156.7462     313.6171      1.523     4.58     843.8268     55.28561     145.5362        10     1.023     0.688 -66.23   0
       516    217.6639    226.4373 307.8458591  +6.5888562     720.6555     1264.959     1967.489     78.49778     156.8709     313.7106      1.649     4.25     853.0118     55.28561     107.8063         7     0.980     0.526 -59.81   0
       517     24.7792    223.0732 307.9260889  +6.5837513     26218.45     40176.62     42490.24     78.24818     156.7462     313.5859      1.619     3.53     859.0532     55.28561     3551.841        55     1.489     1.213 -67.06   0
       518    696.6354    224.2621 307.6469768  +6.6058242     2961.173      4499.37     4652.207     78.62228     156.8709     313.6171      1.633     3.28     844.6637     55.28561     429.6046        22     1.229     0.955 -54.21   0
       519    271.4095    224.1703 307.8236114  +6.5915992     1131.016     1694.314     1406.988     78.12309     156.6837     313.4611      1.589     5.13     851.6152     55.28561     166.9691        13     1.313     0.902 -54.95   0
       520    505.2951    219.2593 307.7266259  +6.6014793     2050.243     2965.309     2658.135     78.49778     156.8709     313.7418      1.558     3.53     843.1854     55.28561      263.674        18     1.160     0.966 -72.05   0
       521    837.1306    216.0095 307.5888921  +6.6139301     2196.852      3002.88     3002.049     78.12309     156.6837     313.4923      1.458     3.99     843.7047     55.28561     299.9998        14     1.163     0.756 -69.62   0
       522    517.2552    215.2562 307.7217926  +6.6035330     2666.888     3943.228     3937.515     78.74658     156.9332     313.6794      1.558     3.51     843.1317     55.28561     348.6188        20     1.287     0.890 -65.95   0
       523    889.4210    215.0428 307.5672028  +6.6160763     2117.076     3059.909     3584.359     78.12309     156.7462     313.4923      1.600     3.34     842.3673     55.28561     349.2081        18     1.194     0.885 -75.38   0
       524    748.8594    212.5173 307.6256774  +6.6124204     43089.57     60733.55     63419.92     78.74658     156.9332     313.6794      1.545     3.22     844.0989     55.28561     6504.988        61     1.437     1.150 -66.38   0
       525    351.8732    211.7660 307.7906071  +6.5994238     6191.101     12186.55     13657.28     78.49778     156.8085     313.6483      2.107     5.71     848.3106     55.28561     751.4684        42     2.053     1.070 -74.46   0
       526    982.7124    211.2499 307.5285757  +6.6207569     3088.594     4446.458     4405.821     78.62228     156.6837      313.773      1.522     3.37     840.2689     55.28561     455.2631        24     1.369     0.988 -68.50   0
       527    916.7490    209.6973 307.5560297  +6.6191959     8147.469     11308.45     11380.32     78.49778     156.8085     313.8353      1.484     3.25     841.1826     55.28561     1304.062        29     1.294     0.993 -74.44   0
       528   1021.1440    209.8507 307.5126575  +6.6226168     1891.112     2548.668     2367.389     78.62228     153.9126     273.3235      1.402     3.75     839.8375     55.28561     265.1669        17     1.154     0.959 -66.88  24
       529    460.2790    208.6890 307.7456809  +6.6043332     5168.423     7671.594     7913.304     78.37308     157.1201     313.7418      1.631     3.56     843.9948     55.28561      651.981        26     1.284     1.039 -65.29   0
       530    235.1131    205.5934 307.8393146  +6.5980480     745.1976     1183.984     1107.765     78.12309     156.5589     313.3987      1.715     6.34     852.4711     55.28561     97.02716        11     1.254     0.900  87.71   0
       531    263.1347    197.7280 307.8279405  +6.6022373      6570.44      10085.2     10766.55     78.62228     156.9332     313.6794      1.652     3.50       851.79     55.28561     820.8131        33     1.456     1.051 -64.79   0
       532    117.6280    199.8457 307.8883084  +6.5964676     4894.971     7189.112     7465.982     78.12309     156.9332     313.5547      1.565     3.64     856.0735     55.28561     644.9567        24     1.328     0.976 -79.44   0
       533    936.9277    199.1914 307.5479993  +6.6242070     818.2846     1149.908     1484.668     78.12309     156.4339     313.4923      1.466     4.56     840.3733     55.28561     154.9523         9     1.246     0.657 -82.69   0
       534    287.9209    196.6400 307.8176815  +6.6035196     34557.18     52502.95     55209.22     78.49778     156.8709     313.6171      1.629     3.43     851.1947     55.28561     4475.379        58     1.522     1.193 -68.02   0
       535    614.0767    198.2974 307.6821440  +6.6137792     650.0093     1057.428     1360.127     78.24818     157.1201     313.7106      1.985     3.94     843.5547     55.28561     117.3373         5     0.984     0.453 -65.59   0
       536    717.0057    195.9762 307.6394650  +6.6181836     967.9621     1268.582       1671.4     78.12309     156.6213     313.4923      1.455     3.78     843.2426     55.28561     147.9849        11     1.068     0.694 -88.97   0
       537    411.9899    192.1521 307.7662965  +6.6095397     50657.44     77415.95     80554.97     78.12309     156.7462     313.3363      1.616     3.43     845.2281     55.28561     6865.725        70     1.519     1.250 -65.76   0
       538    167.8838    193.4223 307.8676506  +6.6008110     4115.187     6252.595     6714.933     78.49778     156.5589     313.5547      1.649     3.68     853.6196     55.28561     516.5927        27     1.379     1.054 -71.40   0
       539    429.1284    192.4688 307.7591667  +6.6099842     1519.909     2110.016      2396.63     78.62228     156.9956     313.5859      1.487     3.74     844.5791     55.28561     201.3584        14     1.227     0.705 -86.38   0
       540    315.9915    189.8634 307.8062501  +6.6072605     18700.71     29107.96      31042.2     78.12309     156.6213     313.4611      1.660     3.56     849.8707     55.28561     2411.596        56     1.531     1.231 -62.57   2
       541    323.5771    189.3162 307.8031176  +6.6077413     2125.744     3890.634     3931.135     78.49778     156.6213     313.5547      2.071     5.77     849.4811     55.28561     299.1079        28     2.085     0.900 -70.54   2
       542    751.2745    188.4269 307.6254829  +6.6224468     35382.25     50245.02     52089.22     78.37308     156.8085     313.6171      1.546     3.18     842.8201     55.28561     4933.851        54     1.430     1.121 -69.39   0
       543    799.5143    188.9705 307.6054254  +6.6238356      1323.08     1933.773     2348.466     78.74658     156.5589     313.5235      1.605     4.36     842.8149     55.28561     199.8311        15     1.330     0.853 -81.57   0
       544     68.0864    185.4967 307.9093712  +6.6007229     9394.939      14260.3     14653.35     78.62228     157.2446     313.6794      1.622     3.52     857.4984     55.28561     1182.835        36     1.436     1.111 -73.19   0
       545   1009.6655    182.7281 307.5183341  +6.6334314     1141.207     1481.447     1215.952     78.62228     156.9332     313.7106      1.538     4.44     838.6915     55.28561     189.2919        12     1.233     0.751 -79.29   0
       546    101.8731    183.4447 307.8954066  +6.6027079     1583.439     2223.717     2163.087     78.49778     156.9332     313.6794      1.541     4.07      856.424     55.28561     209.1227        16     1.155     0.960 -70.21   0
       547    699.4334    190.2652 307.6469564  +6.6199533     1141.018     1464.432     1633.205     78.49778     156.8709     313.6171      1.264     3.01     842.9381     55.28561     198.8635         9     0.952     0.630 -53.84   0
       548    585.1654    172.6929 307.6950147  +6.6233812     830.8336     1272.699     1189.195     78.74658     156.7462     313.7106      1.544     3.70     842.7037     55.28561     150.5732        10     1.077     0.660 -41.91   0
       549      2.0272    170.8556 307.9373050  +6.6045410     890.5247     1334.815     1254.486     75.70698     134.8788     247.0469      1.528     5.94     859.1531     55.28561     140.8087        12     1.291     0.855  64.15  24
       550   1010.7584    169.1758 307.5183339  +6.6390629     2466.439     3745.395     3998.749     78.24818     156.6837     313.4299      1.629     3.31     838.0189     55.28561     379.3348        18     1.265     0.867 -79.15   0
       551    594.0325    166.4342 307.6915417  +6.6262621     987.4554     1467.027     1558.339     78.24818     156.6213     313.3987      1.529     2.84     842.5433     55.28561     200.1241         8     0.927     0.614 -82.82   0
       552     31.9717    161.6056 307.9251798  +6.6093688      4481.46       7241.3     7723.942     78.12309     156.6837     313.4611      1.764     4.15     858.1699     55.28561     626.9679        34     1.878     1.016 -68.21   0
       553    602.0250    164.6086 307.6882829  +6.6272836     2140.334     3140.864     3385.468     78.24818     156.6837     313.4923      1.578     3.44     842.5251     55.28561     305.2306        19     1.195     0.998 -74.61   0
       554    286.8426    162.8825 307.8192680  +6.6174195     31307.33     47519.33      50087.6     78.62228     156.8709     313.5859      1.617     3.47     851.2162     55.28561     4121.674        59     1.505     1.217 -67.18   0
       555    346.1712    164.4324 307.7945711  +6.6187731     922.5673     1180.717     801.1463     78.12309     156.6213     313.3987      1.491     4.92     848.2405     55.28561     144.5836         9     1.149     0.655 -81.17   0
       556    718.4838    159.6281 307.6400717  +6.6332391     8521.743     12314.68     12921.42     78.62228     156.6837     313.5235      1.586     3.44      841.419     55.28561      1237.94        36     1.402     1.065 -62.29   0
       557    195.7543    160.7542 307.8571768  +6.6152350     866.8243     1289.295     1244.594     78.62228     156.8709     313.6794      1.487     5.30     852.6154     55.28561     122.0308        10     1.161     0.682 -60.36   0
       558    272.6556    158.2032 307.8253190  +6.6188744     829.2284     1291.598     1655.439     77.99779     156.6837     313.3363      1.567     5.06     851.5583     55.28561      128.521         9     1.002     0.876 -68.44   0
       559    129.1853    156.5989 307.8849688  +6.6147101     5044.162     7415.952     8155.627     78.24818     156.5589     313.4299      1.599     3.47     854.2207     55.28561     664.1384        28     1.330     1.061 -64.06   0
       560    656.9263    153.5788 307.6658469  +6.6336760      979.152     1450.635     1488.284     78.24818     156.7462     313.5859      1.468     5.74       841.41     55.28561     128.8472        12     1.243     0.747 -61.71   0
       561    591.0546    154.7083 307.6931731  +6.6310033     748.9504     1101.895     977.7224     78.49778     156.7462      313.773      1.379     3.64     842.1665     55.28561     129.4198         6     0.902     0.483 -39.06   0
       562    468.1733    153.9192 307.7442456  +6.6272090     1412.869     1987.812     1527.465     78.49778     156.6837     313.6794      1.496     3.65      842.333     55.28561     176.8734        14     1.065     0.879 -68.27   0
       563    399.9484    152.5041 307.7726341  +6.6255035     3876.911     6653.603     6818.021     78.49778     156.8085     313.8976      1.842     4.16     844.3664     55.28561     483.0021        35     1.611     1.191 -85.06   0
       564    364.4007    151.4445 307.7874364  +6.6247473     3282.107     4904.079     4852.645     77.99779     156.5589     313.2426      1.647     3.55     847.0231     55.28561     434.9674        24     1.358     1.027 -70.47   0
       565    118.7486    151.3489 307.8894813  +6.6165261     1759.793     2449.779     1993.915     78.62228     156.7462     313.6483      1.508     3.58     854.4567     55.28561     247.2834        16     1.170     0.903 -88.30   0
       566    754.8545    149.7445 307.6252945  +6.6385363     576.6147     690.9125     656.2369     78.87069     156.8709     313.6483      1.368     3.39     840.8948     55.28561     96.08636         5     0.965     0.345 -46.83   0
       567    680.2753    149.2964 307.6562913  +6.6362257     805.9825     1127.509     1298.743     78.24818     156.9956     313.6794      1.554     4.40      840.949     55.28561     126.5537         7     1.048     0.526 -63.25   0
       568   1011.1898    145.6525 307.5189425  +6.6487889     1613.987     2142.911     1889.487     77.99779     156.7462     313.3987      1.365     3.08     836.8757     55.28561      248.953        14     1.085     0.786 -79.77   0
       569    737.3582    145.2919 307.6327123  +6.6397893      492.936     674.8352     400.3589     78.62228     156.8709     313.7418      1.422     3.42     840.6777     55.28561     93.60309         5     0.759     0.445  73.17   0
       570    576.6520    151.7971 307.6992540  +6.6317225     579.7693      1022.36     951.2377     77.99779     156.6837     313.2426      1.893     6.15     842.0421     55.28561     105.5035         8     1.710     0.621 -51.00   0
       571     98.8353    140.3166 307.8981258  +6.6204099     2277.487     3592.606     3647.037     78.62228     156.8709     313.6171      1.720     3.89     854.7166     55.28561      296.693        23     1.390     1.024 -71.98   0
       572    216.2528    140.4065 307.8493488  +6.6243247     5582.138      8483.37     8624.976     78.12309     156.6837     313.3675      1.639     3.50     852.4221     55.28561     730.8926        31     1.376     1.100 -61.10   0
       573    678.0823    139.3259 307.6575373  +6.6402685     6537.134     9405.862     10093.73     78.87069     157.1823     313.7106      1.550     3.46     840.5228     55.28561     868.4158        28     1.321     1.034 -71.21   0
       574    826.2080    138.9835 307.5960135  +6.6453649     1107.045     1557.256     1997.902     78.24818     156.6213     313.4923      1.510     4.23     839.6989     55.28561     159.1573        12     1.244     0.720 -78.92   0
       575    630.2295    136.6205 307.6775073  +6.6397830     9700.593     14652.33     16011.69     78.12309     156.6837     313.5547      1.628     3.49     841.1279     55.28561     1235.546        40     1.456     1.106 -78.58   3
       576    633.7578    128.1085 307.6763277  +6.6434153     55655.77     81832.56     86088.59     78.62228     156.8709     313.7418      1.567     3.36     840.6993     55.28561      8135.62        71     1.499     1.203 -71.06   2
       577    265.1658    137.4477 307.8291304  +6.6271910     799.0726     1199.508     1638.271     78.37308     156.8709     313.5859      1.735     4.90     851.8548     55.28561     101.1144        11     1.102     0.710 -46.59   0
       578    568.3270    136.1938 307.7032371  +6.6378851     741.5546     1043.714     669.2375     78.24818     156.4339     313.5547      1.542     5.04     841.3859     55.28561     92.08582         9     0.917     0.785   1.20   0
       579     29.0197    135.5357 307.9272875  +6.6200316     1072.229     1437.733     1205.463     78.24818     156.8709     313.4923      1.598     3.43      858.257     55.28561     168.1938        10     1.067     0.668 -71.89   0
       580    357.2661    132.2850 307.7910459  +6.6324173     3924.526     6227.302     6879.563     78.74658     157.1201     313.7106      1.740     3.73     847.4996     55.28561      504.057        31     1.542     1.070 -54.94   0
       581    539.0670    131.6255 307.7155459  +6.6387903     1805.387     2727.979     3114.975     78.24818     156.7462     313.5547      1.617     3.71     841.2065     55.28561     279.0967        15     1.166     0.854 -65.43   0
       582   1003.3760    131.2418 307.5226712  +6.6544776     824.3715     1176.186     1376.792     78.24818     156.7462     313.4299      1.588     4.82     836.2705     55.28561     131.6748         8     1.003     0.655 -76.09   0
       583    312.7890    121.7772 307.8098762  +6.6352610     3745.951     5519.498     5907.485     78.24818     156.6837     313.5235      1.600     3.56     850.2603     55.28561     501.4957        26     1.355     1.020 -65.92   0
       584    712.6541    116.0416 307.6439575  +6.6510384     1098.825     1525.606      1625.06     78.49778     156.9332     313.6794      1.458     4.37     839.3657     55.28561     163.6669        12     1.029     0.933  77.35   0
       585     10.3204    104.8539 307.9360926  +6.6320673     743981.9      1570697      1715760     78.62228     156.8709     313.7106      2.168     5.16     859.8633     55.28561     60816.62       418     2.167     1.849 -70.17  28
       586    684.2245    115.4179 307.6557890  +6.6503443     1557.297     2189.223     2415.835     78.37308     156.7462     313.5859      1.484     3.53     839.4636     55.28561      224.422        13     1.058     0.787 -62.30   0
       587    698.2802    112.0786 307.6500619  +6.6521934     3418.271     4847.935     4950.334     78.87069     157.1201     313.8041      1.490     3.33     839.2586     55.28561     498.3893        22     1.254     0.947 -70.89   0
       588    439.9414    103.0521 307.7576864  +6.6472614     4319.462     6500.506     6933.522     78.62228     156.8709     313.6483      1.572     3.51     841.3987     55.28561     540.4785        25     1.278     1.019 -63.44   0
       589    894.3614     99.1918 307.5690346  +6.6640700     2168.296     3159.275      3001.45     77.87229     156.6213     313.3675      1.536     3.46     836.5743     55.28561     342.7169        17     1.184     0.927 -75.65   0
       590    912.4879     98.5194 307.5615265  +6.6649530     4140.975     6051.661     6598.586     78.37309     157.1201     313.7418      1.607     3.44     836.2985     55.28561     636.8066        28     1.297     1.084 -72.00   0
       591    592.6478     98.7782 307.6943921  +6.6541468     881.1786     1292.205     997.3181     78.24818     156.8709     313.5235      1.579     3.59     839.9254     55.28561     128.6505         9     0.854     0.769  -8.55   0
       592    604.5455     97.0086 307.6895089  +6.6552759     1914.003     2642.062     2383.594     77.99779     156.8085     313.3675      1.426     3.35     839.8704     55.28561     264.6864        16     1.172     0.823 -68.20   0
       593    250.1308     96.3832 307.8367616  +6.6436381     780.1157       1227.2     1540.456     78.12309     156.7462     313.5547      1.627     5.76     852.0917     55.28561     125.8591        11     1.165     0.803 -70.96   0
       594    403.4070     94.8024 307.7731415  +6.6494408     2101.121     3140.117     3322.052     77.99779     156.5589     313.4923      1.638     3.53     843.2516     55.28561     297.4094        20     1.294     0.908 -77.35   0
       595     94.0134     95.6855 307.9016370  +6.6386722     454.4727     527.1133     568.0394     78.24818     156.6837     313.5547      1.292     3.15     852.2689     55.28561     109.0381         5     0.992     0.519 -38.54   0
       596    151.1974     91.8259 307.8780131  +6.6421910     3377.532     4930.061     4603.446     78.12309     156.5589     313.4611      1.540     3.46     851.5429     55.28561      464.183        24     1.304     0.991 -62.18   0
       597     33.0908     89.5667 307.9271509  +6.6391457     12900.12     19190.63     19967.91     78.74658     156.7462     313.6483      1.610     3.52     857.3587     55.28561     1619.381        44     1.477     1.154 -70.17   0
       598    299.5229     90.3151 307.8164481  +6.6478036     1389.859       2029.8     2427.635     78.74658     157.1823     313.7418      1.627     5.06      851.342     55.28561     172.6945        16     1.464     0.799 -62.58   0
       599    572.7180     89.6210 307.7029796  +6.6572593     657.5945     1028.314     910.6202     78.37308     156.5589     313.5859      1.692     5.56     839.5905     55.28561     98.42419         7     1.078     0.810 -30.63   0
       600    560.3362     89.4120 307.7081304  +6.6569306     922.4551     1273.214     1338.169     78.12309     156.6837     313.4611      1.531     4.34     839.5375     55.28561      132.353        12     1.118     0.854 -55.14   0
       601    768.7151     88.3880 307.6215962  +6.6643305     788.3986      1480.14     2194.363     78.24818     156.6213     313.4923      1.573     4.85      838.003     55.28561     146.3576         8     1.585     0.420 -48.25   0
       602    953.5909     88.3690 307.5447906  +6.6705160     598.5019     962.2562     1156.634     78.12309     156.6837     313.4611      1.793     4.71     835.0541     55.28561     91.63092         6     0.978     0.643 -21.52   0
       603    834.8193     84.2964 307.5942708  +6.6682300     6656.122     9479.372     9845.771     78.49778     156.6837     313.4299      1.535     3.11     836.9668     55.28561     1075.953        30     1.299     1.015 -66.82   0
       604    779.9294     84.5816 307.6170651  +6.6662771     3552.461     5365.604     5917.676     78.24818     156.7462     313.5547      1.627     3.31      837.804     55.28561      534.795        24     1.246     1.118 -66.12   0
       605    424.9574     85.0357 307.7645180  +6.6541962     962.7185       1332.2     871.2329     78.37308     156.8709     313.4923      1.422     5.54     841.6642     55.28561     150.4716        10     1.130     0.764 -69.98   0
       606    926.0026     84.2336 307.5563908  +6.6713022     679.8223      1027.09     1119.276     77.87228     156.6837     313.3987      1.590     2.86     835.5784     55.28561     114.0098         7     0.701     0.697  74.50   0
       607    542.1681     82.8411 307.7158991  +6.6590342     1290.593     1977.253     2241.347     78.24818     156.7462     313.5235      1.506     4.16     839.3566     55.28561     209.5427        12     1.118     0.841 -73.07   0
       608     73.3107     81.4991 307.9107164  +6.6438313     3448.553     5135.166     5186.274     78.62228     157.3067     313.6171      1.625     3.71     853.4202     55.28561      436.379        24     1.373     0.968 -75.94   0
       609     57.7245     82.2098 307.9171669  +6.6430128     902.6038     1284.278     976.4587     78.24818     156.4339     313.4611      1.542     5.00     854.6967     55.28561     102.0345         9     1.071     0.659 -46.33   0
       610    434.6925     81.0251 307.7606089  +6.6561787     929.5362     1218.264     1056.544     78.74658     156.6213     313.4923      1.479     4.42     841.3038     55.28561     142.4253        10     1.266     0.730 -63.87   0
       611    597.4498     78.1332 307.6930915  +6.6628307     1397.717     1926.987     2073.475     78.49778     156.7462     313.5859      1.483     3.42      839.255     55.28561     217.6362        16     1.189     0.843 -68.00   0
       612     15.8241     76.8300 307.9347542  +6.6438216      2557.78     3947.945     4318.398     78.12309     156.7462     313.4923      1.609     3.25     857.6858     55.28561     341.5024        22     1.270     0.986 -67.62   0
       613    724.2582     74.0624 307.6405467  +6.6687574     585.8756     878.3627     1013.997     78.74658     156.8085     313.6794      1.638     3.76      838.156     55.28561     90.70477         5     0.799     0.507 -36.49   0
       614    774.6473     72.1279 307.6196776  +6.6712418     2125.897     3107.108     3360.892     78.62228     156.9332     313.6483      1.555     3.38     837.3705     55.28561     360.1597        18     1.228     0.900 -63.60   0
       615    415.2368     72.0032 307.7689953  +6.6592502     1016.398     1581.929     1779.751     77.74658     156.6837     313.4611      1.610     5.47       842.04     55.28561     127.2597        11     1.200     0.704 -56.24   0
       616     88.1783     72.7598 307.9048358  +6.6479399     845.4063     1153.207      885.457     78.24818     156.6837     313.4611      1.459     3.79     851.8784     55.28561     137.2728         8     1.027     0.591 -60.92   0
       617    112.1466     71.2225 307.8949311  +6.6493818     937.6041     1281.321     1649.212     78.12309     156.8709     313.4611      1.422     5.34     851.0712     55.28561     144.0707        11     1.189     0.678 -71.45   0
       618    101.1678     65.6689 307.8996794  +6.6513047     9772.009     14929.11     15706.66     78.49778     156.8709     313.6483      1.634     3.58     850.9407     55.28561     1251.766        39     1.453     1.127 -72.88   0
       619    430.2736     65.5112 307.7629673  +6.6624350     2695.219     4130.019     4799.546     78.62228     157.1201     313.7106      1.731     3.50     841.3818     55.28561     333.2098        24     1.361     1.034 -71.83   0
       620    251.8404     64.5805 307.8371246  +6.6568246     855.8592     1444.729     1828.204     78.24818     156.6837     313.3675      1.760     5.70     852.0917     55.28561     140.1622        11     1.273     0.719 -53.15   0
       621    643.8946     57.8498 307.6744783  +6.6727603     19377.75     28204.55     29314.87     78.49778     156.7462     313.8041      1.538     3.27     838.3521     55.28561     2669.693        47     1.406     1.140 -71.63   0
       622    267.6932     59.7242 307.8307028  +6.6593624     1477.281      2321.96      3313.61     78.49778     156.9956     313.6483      1.945     3.95     852.0917     55.28561     204.5851        16     1.312     0.851 -42.55   0
       623    543.6646     53.9022 307.7162512  +6.6710314     5326.513     8015.708     8597.592     78.62228     156.9332     313.6794      1.606     3.58     838.5065     55.28561      712.421        29     1.404     1.019 -68.00   0
       624    261.9362     54.0638 307.8332854  +6.6615056     2013.694     3236.251     4410.959     78.62228     156.8709     313.6794      1.761     3.39     852.0917     55.28561     302.1034        20     1.225     0.959 -52.91   0
       625    630.3433     48.4032 307.6804257  +6.6762063     3250.065      5727.08     6975.426     77.99779     156.6837     313.3363      1.986     5.65     838.1943     55.28561     468.0295        36     2.066     1.026  82.73   0
       626    449.2476     49.4637 307.7556253  +6.6696968     23859.12     35318.02     36933.71     78.49778     156.7462     313.6794      1.628     3.42     840.6176     55.28561     3066.741        51     1.483     1.153 -71.13   0
       627    269.8660     49.8168 307.8301344  +6.6635255     9462.943     14361.32     15735.85     78.12309     156.8085     313.5235      1.600     3.37     852.0917     55.28561     1267.057        40     1.448     1.147 -71.67   0
       628     11.1858     51.7783 307.9375283  +6.6540071     1198.415     1726.469     1843.456     78.37308     156.6837     313.5859      1.396     3.47     855.7776     55.28561     166.8705        11     0.957     0.834  81.49   0
       629    926.9476     49.5690 307.5571602  +6.6856448      2123.43     3376.909     3474.633     78.49778     156.9332     313.5859      1.691     4.16     834.5278     55.28561     264.0988        22     1.384     1.062 -67.03   0
       630    329.8187     50.3644 307.8052099  +6.6653145     975.3192     1518.577     1822.727     78.12309     156.6837     313.4299      1.518     4.39     849.1294     55.28561     128.2769        11     1.133     0.678 -83.53   0
       631     35.2144     49.5276 307.9276228  +6.6557461     2379.269      3592.31         3397     78.12309     156.6837     313.5235      1.590     3.96     854.1436     55.28561      316.094        22     1.405     0.913 -66.81   0
       632    534.1776     49.2403 307.7203493  +6.6726379     589.7614     1014.099     940.6077     78.24818     156.6837     313.4611      1.602     5.06     838.5433     55.28561     128.2165         7     1.261     0.574 -69.12   0
       633    562.6486     48.6398 307.7085414  +6.6738403     685.4647     804.5229     716.1404     78.49778     156.8709     313.5547      1.224     3.30     838.3431     55.28561     114.6719         6     0.832     0.517 -46.14   0
       634    257.8209     46.3740 307.8352545  +6.6645418     3169.031     4932.756     5343.892     78.24818     156.6837     313.5859      1.643     3.50     852.0917     55.28561     411.7933        25     1.293     1.098 -70.63   0
       635    310.8892     44.4340 307.8132738  +6.6671267     1028.188     1568.453     1270.205     78.74658     156.8085     313.6483      1.621     5.32     850.4886     55.28561     128.7142        11     1.067     0.748 -74.57   0
       636    947.5139     40.0421 307.5489349  +6.6902647     1049.547     1650.423     1368.458     78.62228     156.7462     313.6483      1.558     3.88      833.235     55.28561     159.4215        11     1.109     0.716 -64.01   0
       637    699.1557     39.2175 307.6521461  +6.6823027     1999.335     2671.386     2806.333     78.24818     156.7462     313.3987      1.473     3.30     837.7972     55.28561     271.8633        15     1.081     0.846 -87.43   0
       638    103.8831     39.4527 307.8994375  +6.6622187     753.5864     1385.376     1138.578     78.62228     156.8709      313.773      1.938     5.44     850.0118     55.28561     119.7816         9     1.256     0.699 -49.83   0
       639    210.3620     34.6660 307.8553654  +6.6677789     759.0634     831.2465     515.4978     78.49778     156.8085     313.7418      1.354     4.13     851.5697     55.28561     118.6741         7     1.035     0.471  84.16   0
       640    264.5449     33.9581 307.8328801  +6.6698935     882.9005     1170.682      1691.58     78.49778     156.8085     313.6794      1.504     3.79     852.0917     55.28561     119.6094        11     0.959     0.842 -52.32   0
       641    187.2829     31.8599 307.8650478  +6.6681608     11040.29     16679.86     17337.31     78.74658     156.9332     313.6794      1.617     3.44     850.7186     55.28561     1379.097        40     1.457     1.154 -70.23   0
       642      1.2351     32.1691 307.9423253  +6.6617666     624.6966     657.8513     98.57185     66.92985     122.9679      234.244      1.026     3.70     854.4216     55.28561     140.4745         6     1.017     0.388 -79.50  24
       643    932.9617     29.6879 307.5553279  +6.6940534     4412.988     6247.794     6149.641     78.62228     156.8085     313.6483      1.510     3.39     833.6749     55.28561     695.0688        23     1.338     0.904 -65.46   0
       644    531.6030     29.9771 307.7220672  +6.6805041     2960.712     4339.712     4524.333     78.24818     156.5589     313.4611      1.557     3.62     838.1075     55.28561     440.4726        20     1.258     0.968 -66.06   0
       645    734.0444     28.2012 307.6380213  +6.6880182     2165.755     2951.382      2914.55     77.99779     156.5589     313.2426      1.490     3.43     837.6685     55.28561      324.838        17     1.182     0.831 -65.48   0
       646    469.6981     28.1844 307.7478459  +6.6791678     1798.173     2721.655     2032.497     78.62228     156.6213     313.4299      1.565     3.46     839.7301     55.28561     282.6471        15     1.167     0.859 -84.53   0
       647    997.7706     25.9171 307.5285280  +6.6977735      2072.84     3112.938     2503.726     78.49778     156.6837     313.5859      1.547     3.90     829.7204     55.28561     284.9664        19     1.364     0.841 -70.02   0
       648    758.3802   1013.4737 307.5948524  +6.2820633     7774.307     12207.41     12812.71     78.24818     156.8085     313.5859      1.699     3.63     869.2088     55.28561     963.3359        39     1.512     1.148 -74.30   0
       649    637.3369     21.7876 307.6784151  +6.6874285     3911.094     5599.846     5935.277     78.12309     156.6837     313.4299      1.555     3.41     837.5027     55.28561     516.4987        21     1.218     0.955 -62.17   0
       650    339.4202     21.4708 307.8021953  +6.6775652     1054.213     1708.376      1905.97     78.24818     156.7462     313.5859      1.874     4.51     848.3305     55.28561     140.1885        12     1.200     0.737 -60.17   0
       651    553.8943   1014.0386 307.6797217  +6.2749874     4311.544     6669.258     7504.601     78.74658     156.7462      313.773      1.654     3.65     870.2066     55.28561     599.6189        27     1.365     1.063 -68.39   0
       652    524.1503   1015.1034 307.6920334  +6.2735513     1202.697     1687.141     2028.332     78.49778     156.8085     313.8041      1.511     3.65     870.5396     55.28561     199.4864        13     1.129     0.792 -63.77   0
       653    684.7070     16.9838 307.6588961  +6.6909979     948.9474     1226.917     916.4401     78.37308     156.6837     313.5235      1.385     3.10     837.4775     55.28561     164.6501        10     0.892     0.867  -7.74   0
       654    304.1216   1012.5657 307.7834564  +6.2672189     15288.55     23148.04     25150.79     78.49778     156.9332     313.6794      1.676     3.62     872.5729     55.28561     2015.566        55     1.788     1.176 -47.76  16
       655    819.8937   1012.7051 307.5693416  +6.2844363     1162.986     1896.623     2314.179     78.62228      157.431     313.5859      1.928     4.15     866.2401     55.28561     164.5652        13     1.086     0.908  85.93   0
       656    513.4294     15.0507 307.7301199  +6.6860568     1029.879      1502.39      2030.75     78.24818     156.9956     313.5547      1.676     4.78     838.2946     55.28561     143.3973         8     0.949     0.683 -39.84   0
       657    428.5082   1013.2260 307.7317995  +6.2711204     1017.815     1485.985     1802.395     78.74658     156.6213     313.4923      1.593     4.04      871.323     55.28561     154.2065        10     1.152     0.678 -74.07   0
       658    130.4677   1013.1736 307.8555204  +6.2611321     490.4081     627.3498     551.7117     78.24818     156.7462     313.5547      1.528     3.95      870.418     55.28561     108.7158         5     0.900     0.495  85.36   0
       659    275.3146   1010.2026 307.7954940  +6.2672270     889.7524     1521.551     1924.755     77.99779     156.4964     313.3675      1.814     4.31      872.259     55.28561     125.4281        10     0.974     0.820 -79.56   0
       660    919.7418   1006.9005 307.5280849  +6.2901670     8225.676     13961.84     14864.67     78.37308     156.8709     313.8041      1.829     3.65     865.0916     55.28561     934.5375        42     1.529     1.277 -61.38   0
       661    551.1074   1006.1589 307.6811433  +6.2781471     8562.286     13025.11      14432.9     78.74658     156.8085     313.7418      1.622     3.42     870.1613     55.28561     1094.783        37     1.470     1.096 -75.26   0
       662    893.3035   1003.0961 307.5391880  +6.2908551     11939.08     19929.02     21937.39     78.62228     157.4932     313.4923      1.831     3.74     864.9639     55.28561     1426.413        54     1.618     1.365 -60.34   0
       663   1015.1172   1002.5036 307.4886372  +6.2951641     4334.913     7564.479     7981.982     78.49778     157.2446     313.7418      1.880     4.11     860.9611     55.28561     492.3452        35     1.555     1.201 -67.63  16
       664      3.4282   1004.7258 307.9085389  +6.2603441     598.4583      600.832     323.1235     78.49778     150.5719     267.6463      1.094     3.33     871.7252     55.28561      110.071         5     0.748     0.429 -66.23  16
       665    606.3359   1003.3510 307.6583107  +6.2811559     1378.328      1954.37     2233.222     78.49778     156.7462     313.7106      1.636     3.49     870.3586     55.28561     206.8907        15     1.183     0.842 -85.16   0
       666    537.4587   1001.8639 307.6869536  +6.2794631     4195.138     6342.707     6808.282     78.74658     156.8085     313.6794      1.630     3.37     870.2651     55.28561     535.7086        26     1.389     0.980 -70.54   0
       667    647.2238   1001.4396 307.6414009  +6.2833136     1427.438     2173.488     1892.812     78.24818     156.6213     313.4299      1.599     4.59      870.326     55.28561     202.5944        12     1.154     0.737 -54.15   0
       668     71.9667   1000.7202 307.8802242  +6.2643051      923.744     1433.069      1715.38     78.49778     156.8709     313.6483      1.613     6.14     870.7048     55.28561     112.3936        13     1.304     0.851 -64.04   0
       669    490.6226    998.5362 307.7065084  +6.2792675      2222.06     3171.919     3370.964     78.24818     156.8709     313.5235      1.545     3.66       871.01     55.28561     331.7115        19     1.339     0.847 -58.07   0
       670    925.0976    990.6139 307.5264066  +6.2970698     41799.12      68648.6     73227.34     78.49778     156.6213     313.4299      1.770     3.62     864.6562     55.28561     5105.087        76     1.646     1.364 -70.28   0
       671    232.1702    988.8112 307.8141245  +6.2746088     1819.001     2667.036     2790.305     78.12309     156.6837     313.4923      1.537     3.92     871.3707     55.28561     230.1928        17     1.185     0.969 -26.26   0
       672    631.2019    987.0919 307.6485338  +6.2887008     984.7858     1256.808     1092.028     77.99779     156.5589     313.3987      1.381     4.21     869.9776     55.28561     130.7042        12     1.210     0.676 -83.19   0
