#   1 NUMBER                 Running object number                                     
#   2 X_IMAGE                Object position along x                                    [pixel]
#   3 Y_IMAGE                Object position along y                                    [pixel]
#   4 ALPHA_J2000            Right ascension of barycenter (J2000)                      [deg]
#   5 DELTA_J2000            Declination of barycenter (J2000)                          [deg]
#   6 FLUX_APER              Flux vector within fixed circular aperture(s)              [count]
#   9 FLUXERR_APER           RMS error vector for aperture flux(es)                     [count]
#  12 FLUX_RADIUS            Fraction-of-light radii                                    [pixel]
#  13 FWHM_IMAGE             FWHM assuming a gaussian core                              [pixel]
#  14 BACKGROUND             Background at centroid position                            [count]
#  15 THRESHOLD              Detection threshold above background                       [count]
#  16 FLUX_MAX               Peak flux above background                                 [count]
#  17 ISOAREA_IMAGE          Isophotal area above Analysis threshold                    [pixel**2]
#  18 A_IMAGE                Profile RMS along major axis                               [pixel]
#  19 B_IMAGE                Profile RMS along minor axis                               [pixel]
#  20 THETA_IMAGE            Position angle (CCW/x)                                     [deg]
#  21 FLAGS                  Extraction flags                                          
         1    931.4358     28.9227 307.5552569  +6.6940673      4017.71     6010.226     5682.663     77.78867     155.5156     310.8458      1.580     3.54      820.339     54.78618      617.323        25     1.391     0.916 -34.26   0
         2    435.9900     17.0378 307.7615054  +6.6824043     6340.475     9823.477     10199.88     77.29319     155.2683     310.5367      1.576     3.65     823.8113     54.78618     1011.277        30     1.449     0.989 -31.84   0
         3     36.9180     16.5795 307.9273184  +6.6691849       8451.4      13147.5     13745.53     77.66509     155.1446     310.7531      1.668     3.68     826.8422     54.78618     1156.039        36     1.554     1.011 -30.25   0
         4    511.6343     14.0419 307.7301779  +6.6861765     935.2656     1415.045     1409.598     77.66509     155.4538     310.6604      1.661     6.00     821.5797     54.78618     139.3904        13     1.403     0.721 -24.63   0
         5    332.5640     11.9581 307.8046467  +6.6810316     12784.05     19719.97     20904.16     77.66509     155.4538     310.6913      1.646     3.83     829.2946     54.78618     1833.409        43     1.646     1.001 -34.11   0
         6    427.2579     12.6852 307.7652798  +6.6839084     916.2544     1392.909     1849.607     77.91204     155.4538     310.9076      1.645     5.85     824.2495     54.78618     123.3962        11     1.144     0.842 -45.14   0
         7    106.1732     12.3580 307.8986892  +6.6732585      2426.21     3954.167      4370.36     77.54132     155.4538     310.6604      1.687     4.16     828.0031     54.78618     324.1292        22     1.519     0.870 -39.63   0
         8    800.6752     11.0946 307.6101845  +6.6970627     910.2463     1189.855     993.0495     77.66509     155.6391     310.8149      1.372     3.49     820.2801     54.78618     161.9908        10     1.074     0.616 -46.59   0
         9    398.5201      9.9942 307.7773101  +6.6840555     2278.755     3590.382     3548.008     77.54132     155.0207     310.5985      1.645     4.22     826.0706     54.78618      334.963        23     1.539     0.890 -31.35  16
        10     97.4567     11.0591 307.9023543  +6.6735014      1613.09     2209.382     2256.805     78.03522     155.4538     310.8458      1.494     3.95     828.0729     54.78618     236.4712        14     1.261     0.724 -49.17   0
        11    659.5674      5.4336 307.6690035  +6.6946829     10832.93      16697.9     17306.79     77.41736     155.2065     289.0717      1.669     3.69     821.4128     54.78618      1670.93        44     1.606     1.063 -34.19  24
        12    993.9375      7.1389 307.5300168  +6.7051449     704.5489     1139.895     1064.026     77.91204     155.4538     304.3509      1.733     3.16     817.2631     54.78618     126.3538         6     0.910     0.443 -36.30  16
        13    823.9224      4.9661 307.6007309  +6.7003693     1578.719     2531.929     3157.089     77.78867     155.4538      284.044      1.925     3.96     819.9436     54.78618     231.4924        18     1.336     0.851 -44.66  16
        14    537.2875      4.9841 307.7198241  +6.6907752     1388.951     2158.163     2410.386     77.66509     155.2065      284.213      1.686     3.97     821.5532     54.78618     203.5146        15     1.242     0.817 -23.98  16
        15     77.8638      6.1762 307.9106590  +6.6748578     646.9597     1284.276     1204.428     77.54132     155.4538     296.4859      1.899     4.52     827.2599     54.78618     92.90668         8     1.388     0.418 -28.36  16
        16    894.5890      2.7431 307.5714435  +6.7036461     1609.958     2567.388     2715.373     77.29319      142.022     255.3765      1.774     4.42     819.3992     54.78618     198.1155        17     1.269     0.881 -44.52  24
        17    259.6776      2.4110 307.8352502  +6.6825254     6619.863     10176.63     10694.42     77.54132     138.1829     250.7077      1.685     4.32     827.7976     54.78618      924.484        31     1.723     0.919 -21.11  24
        18    650.6778      1.6261 307.6728249  +6.6959573     7014.028     8767.385     9080.713     71.21361     127.9325      238.737      1.195     3.17     821.2637     54.78618     1515.535        22     1.299     0.753 -11.86  24
        19    420.6671      1.6525 307.7683894  +6.6882420     6286.875     8058.537     7994.814     71.48285     128.3073      239.139      1.272     3.41     824.5453     54.78618     1217.816        25     1.416     0.766  -8.78  24
        20    680.3541      1.3503 307.6605039  +6.6970639     3571.318     4381.361     4800.862     67.89951      123.579     234.1057      1.101     2.48     821.3807     54.78618     917.1587        15     1.286     0.547  -2.61  24
        21    629.8864    986.3378 307.6484161  +6.2887270     794.7541       1048.6     915.0924     78.03522     155.6391     310.8149      1.682     5.38     854.3364     54.78618     109.7121         9     1.183     0.691 -50.16   0
        22    740.3840   1023.8599 307.6012846  +6.2769287     480.8008     604.9461     392.8661     64.41513     120.3502     230.5502      1.505     3.60     853.3408     54.78618     122.9681         5     1.105     0.337  -4.49  24
        23    724.5075   1023.8168 307.6078773  +6.2764161     736.9504     1039.347      931.664     65.74342     121.1456     231.0912      1.555     3.87      853.825     54.78618     182.3851         8     1.445     0.385  -1.64  24
        24    370.1028   1022.8441 307.7550388  +6.2649581      1819.98     2599.842     2717.617     76.16659      135.232     246.8469      1.533     3.84     854.8893     54.78618     281.8225        14     1.132     0.797 -18.09  24
        25    118.5943    987.1927 307.8606479  +6.2712349     598.5558     830.1382     548.6564     77.29319     155.2683     310.6604      1.570     3.65      850.809     54.78618      100.258         5     0.998     0.385   5.32   0
        26    821.6875    983.6308 307.5688775  +6.2962519     2161.923     3737.844     4131.795     78.03522     155.2683     310.7531      1.862     4.17     850.7329     54.78618      256.477        25     1.434     1.090 -38.19   0
        27    769.8989    981.4761 307.5904507  +6.2954126     6103.343     10303.04     11480.58     77.54132     155.5773      310.784      1.867     4.08     851.6976     54.78618     768.6865        42     1.770     1.154 -41.47   0
        28    556.8367    980.9070 307.6789255  +6.2885256     963.9621      1521.39     1036.308     78.03522     155.3302     310.8767      1.585     4.40     854.2327     54.78618     147.9657         8     0.881     0.626 -41.81   0
        29    239.5199    980.1821 307.8106837  +6.2781904     1264.277     2379.988     2366.736     77.54132     155.1446     310.7222      1.818     6.68     853.3172     54.78618     210.6607        19     1.902     0.871 -16.85   0
        30    203.8576    980.0740 307.8254922  +6.2770378     881.9846     1481.043     1508.329     77.91204     155.4538      310.784      1.734     4.56      852.341     54.78618     137.6917         8     1.159     0.527 -28.97   0
        31     64.4347    978.4036 307.8834274  +6.2730429     2562.577     4087.199     4177.181     77.04426     155.3302     310.5985      1.689     4.01     850.2592     54.78618     383.4612        24     1.553     0.909 -35.62   0
        32    958.2011    976.4888 307.5124394  +6.3037536     5658.031     10219.19     10704.13     77.16882     155.0207     310.5676      1.910     4.25     848.6863     54.78618     657.5621        39     1.609     1.253 -25.87   0
        33    214.2028    972.3328 307.8214582  +6.2805810     642.8865     1032.505     678.9763     77.29319     155.1446     310.6295      1.649     5.62     852.4373     54.78618     81.80872         8     1.099     0.810  51.25   0
        34    640.7527    970.8741 307.6444233  +6.2954745     564.5679      854.431     1140.493     77.78867     155.5156     310.8149      1.924     3.31     853.8083     54.78618     101.8575         5     0.931     0.342 -44.82   0
        35    932.0070    968.2142 307.5235913  +6.3062966     1845.755     3340.763     3479.274     77.54132     155.2065     310.6604      1.980     4.51     849.1326     54.78618     222.1519        24     1.537     0.977 -54.15   0
        36    791.5510    964.5777 307.5820272  +6.3031121     1300.429     2425.883     2284.694     77.54132     155.5156     310.7222      1.876     5.06     851.0164     54.78618     166.3008        19     1.484     0.949 -48.07   0
        37    652.6432    964.0957 307.6397140  +6.2986705       4348.1     6990.173     7425.634     77.91204      155.392     310.9385      1.757     3.80     853.4607     54.78618     585.6937        31     1.538     1.018 -29.31   0
        38    264.8098    964.3244 307.8007186  +6.2855859     4253.446     6776.541     7306.491     77.54132     155.0207     310.6294      1.689     4.06     853.4444     54.78618     591.4741        30     1.651     0.932 -27.32   0
        39    474.8462    962.5244 307.7135818  +6.2933701     1115.248     1750.131     1910.925     77.78867     155.5156     310.8458      1.728     6.52      854.274     54.78618     166.6826        17     1.617     0.803 -27.31   0
        40     33.4528    961.7304 307.8968512  +6.2788842     2161.321     3515.339     3462.998     77.78867     155.3302      310.784      1.759     3.92     849.3903     54.78618     278.2736        22     1.501     0.879 -32.33   0
        41    884.5393    960.2680 307.5435647  +6.3079944     824.5446     1326.959     1308.977     78.03522      155.392     310.8149      1.808     4.38     849.9434     54.78618     121.6943         6     0.924     0.590 -30.29   0
        42    956.3661    957.9431 307.5138211  +6.3113491     687.4014     1073.098     879.5013     77.78867     155.4538     310.8149      1.777     7.56     848.2875     54.78618     103.0285        10     1.607     0.995   6.82   0
        43    577.2054    956.6594 307.6712828  +6.2992177     1638.268     2389.312     2413.104     77.41736     155.3302     310.5985      1.561     4.08     853.8401     54.78618     223.9081        20     1.381     0.927 -38.38   0
        44    300.8300    957.8179 307.7859838  +6.2894806     750.5662     1339.164     1550.239     77.54132     155.2683     310.7531      1.796     5.05     853.9619     54.78618     113.6461         9     1.167     0.629 -21.53   0
        45   1008.3058    956.6113 307.4923010  +6.3136297     654.2866     1342.553     1524.567     77.66509     155.1446     310.5985      2.759     5.48     846.9559     54.78618     107.5183         9     1.292     0.655 -54.63   0
        46    616.1447    952.6411 307.6552513  +6.3021791     1116.872     1686.489     1635.191     77.78867     155.4538     310.8458      1.507     3.52     853.6152     54.78618     193.2833        11     1.064     0.743 -26.20   0
        47     65.8151    953.4611 307.8836954  +6.2833863     600.7449     1052.675     2057.353     77.41736      155.392     310.5985      1.928     3.50     849.6415     54.78618     91.61182         5     0.800     0.443 -20.10   0
        48    296.6021    950.8080 307.7879749  +6.2922326     1335.507     2075.063     2270.662     77.29319     155.1446     310.5985      1.568     4.91     853.8425     54.78618     170.2588        15     1.389     0.751 -22.35   0
        49    564.5248    948.5778 307.6768186  +6.3021299     666.6401     1071.388     791.5983     77.54132     155.3302     310.7531      1.729     3.72     853.7192     54.78618     137.5877         7     0.888     0.666 -14.24   0
        50    762.8805    946.8586 307.5945239  +6.3094702     712.7113     1191.823     936.1587     78.03522     155.5156     310.8149      1.759     4.91     851.5204     54.78618     119.5742         9     1.306     0.733 -23.51   0
        51    900.8151    943.4233 307.5373706  +6.3154917     6146.035     10296.45     10700.21     77.66509     155.2683     310.7222      1.817     3.93     849.3012     54.78618     734.3898        38     1.605     1.156 -32.26   0
        52    139.7806    944.6320 307.8532870  +6.2895173     609.6951     872.9723     237.4057     77.41736     155.2683     310.6604      1.609     4.84     850.5955     54.78618     88.20703         7     1.069     0.946 -34.51   0
        53    436.7180    940.5583 307.7301491  +6.3011616     2222.135     3372.267     3008.862     77.91204     155.4538     310.7531      1.593     4.08     853.7112     54.78618     302.3702        19     1.399     0.846 -33.46   0
        54    605.7453    940.9526 307.6599608  +6.3066569     506.2216     648.1381     669.6956     77.91204     155.4538     310.8767      1.315     3.86      853.438     54.78618     97.16132         5     0.823     0.519 -34.90   0
        55    338.4609    938.8788 307.7709982  +6.2985615     9441.561     14627.71     15927.86     78.03522     155.5156      310.784      1.692     3.66     853.8264     54.78618     1360.023        41     1.622     1.048 -29.18   0
        56    258.5112    937.7402 307.8042282  +6.2963494     7041.434     11077.67     11879.95     77.78867     155.5773     310.9076      1.712     3.82     852.6647     54.78618     1014.632        37     1.634     1.003 -34.98   0
        57    176.3155    936.2353 307.8384026  +6.2942111     531.3657     1043.417     1215.354     77.91204      155.392      310.784      1.799     4.97     851.0033     54.78618     89.35632         8     1.311     0.533 -59.55   0
        58    586.7906    932.2176 307.6681234  +6.3096291     1132.744     1969.864     1824.917     77.66509     155.2065     310.6913      1.773     5.91     853.3246     54.78618     153.6776        14     1.333     0.738 -27.29   0
        59    771.4840    931.5334 307.5914651  +6.3160845     668.1055     967.2741     777.3839     78.03522     155.7008     310.8767      1.526     3.79     851.2358     54.78618      109.284         6     0.936     0.441  16.37   0
        60    916.7667    928.5231 307.5312460  +6.3221752     973.0497      1859.51     2272.323     77.78867     155.4538      310.784      2.462     7.01     848.6008     54.78618     118.4669        15     1.371     1.004 -47.02   0
        61    149.3048    928.5086 307.8498764  +6.2964936     666.0278     1034.866     537.1957     77.91204     155.9473      310.784      1.710     5.32     850.6314     54.78618     94.38837         8     0.993     0.806 -24.28   0
        62    872.8641    927.3043 307.5495148  +6.3212142      687.026     1235.213     1387.016     77.78867     155.5773     310.8458      1.794     4.48     849.7887     54.78618     92.93091         7     1.241     0.460   0.62   0
        63    752.9974    921.4581 307.5994780  +6.3196268     1486.337     2230.217     2808.027     77.29319     155.2683     310.5676      1.684     4.54     851.3521     54.78618     210.5002        18     1.517     0.766 -25.89   0
        64      3.3387    918.5347 307.9108100  +6.2957037     915.6414     1569.946     1478.255     77.91204      148.243     263.8852      1.828     6.49     847.4214     54.78618     126.9479        12     1.272     0.929 -25.61  24
        65    984.2780    917.1763 307.5035949  +6.3291102     1071.128     1957.098     2845.961     77.54132     155.2683      310.784      2.040     7.28     846.5234     54.78618     125.7321        18     1.425     1.041  -7.57   0
        66    617.2012    918.1409 307.6559698  +6.3164578     673.6769     979.4619     977.2893     77.29319     155.2065     310.5057      1.603     4.02      852.758     54.78618     115.6023         7     1.035     0.519 -24.65   0
        67    538.0137    917.1624 307.6888797  +6.3142125     1114.458     1399.714     1162.907     77.41736     155.2683     310.5367      1.331     3.41     853.0475     54.78618     184.7781        11     1.020     0.717 -70.54   0
        68    671.5358    914.9158 307.6335190  +6.3196060     2379.475     3701.529     3437.881     78.03522     155.5773     310.8767      1.652     4.00     851.8018     54.78618     364.2364        22     1.496     0.869 -32.04   0
        69    961.5929    912.9066 307.5131565  +6.3301170     617.6417     1008.492     1251.176     77.54132     155.1446     310.6295      1.677     5.83     846.9903     54.78618     91.68909         7     1.106     0.866 -87.75   0
        70     68.0421    910.9124 307.8842058  +6.3010267     2859.375     4689.383     4718.336     77.91204     155.4538     310.8458      1.712     4.03      848.735     54.78618     394.0233        26     1.521     0.994 -40.28   0
        71    832.0645    911.5128 307.5669830  +6.3263725     882.8548     1299.404     1318.653     77.91204     155.6391     310.8458      1.544     5.18     850.1389     54.78618     125.2907         8     1.016     0.748 -42.25   0
        72     85.4997    910.3370 307.8769777  +6.3018511     1890.057     2926.511     2740.432     77.66509     155.5156     310.8458      1.623     4.23     849.0715     54.78618      265.656        21     1.427     0.997 -21.83   0
        73    211.6914    909.8440 307.8246051  +6.3062944     2175.096     3344.286     3523.476     77.91204      155.392     310.9385      1.609     4.11     851.1328     54.78618     300.2223        17     1.306     0.801 -41.56   0
        74    949.9151    909.6567 307.5181137  +6.3310695     592.2092     1032.535     1169.867     77.91204     155.4538     310.9385      1.558     4.39     847.2245     54.78618     110.7325         7     0.810     0.676 -11.36   0
        75    245.8656    906.7391 307.8105217  +6.3087235     791.7798      957.766     498.8755     77.91204      155.392     310.8149      1.346     5.77     851.7989     54.78618      140.615        10     1.243     0.760 -29.19   0
        76    666.0748    904.0692 307.6361500  +6.3239015     6657.376      10433.6     10861.91     78.03522     155.5773     310.8149      1.654     3.77     851.7406     54.78618     936.2695        39     1.722     0.994 -28.64   0
        77    351.0201    905.6383 307.7669020  +6.3127057     829.3405     1490.075     1802.979     77.54132     155.2683     310.5676      1.850     5.78     853.0043     54.78618     121.8851         9     1.405     0.744 -14.56   0
        78    803.9814    904.7597 307.5788690  +6.3282232     654.5461     1056.576     1081.277     77.54132     155.2683     310.5676      1.759     6.53      850.473     54.78618     98.01422         7     1.293     0.925 -18.97   0
        79    454.9979    902.1901 307.7238489  +6.3176141     478.6423     787.8889     728.3358     77.41736     155.1446     310.6294      1.912     4.48     852.4665     54.78618     67.04248         6     1.072     0.533 -79.48   0
        80     26.1209    902.3839 307.9018970  +6.3031377      1104.71     1613.417     1558.739     77.54132     155.2065     310.6604      1.455     3.95     847.7468     54.78618     187.0369        12     1.121     0.773 -40.32   0
        81    904.0823    900.3272 307.5374555  +6.3333931     2593.837     4540.256     4253.442     78.15821     155.7624     310.8458      1.820     4.96     848.2312     54.78618     335.6827        29     1.717     1.030 -27.54   0
        82     38.8175    900.4424 307.8966916  +6.3043662     1077.161     1711.904     1479.398     77.41736     155.2683     310.5676      1.665     4.06      847.972     54.78618     155.1356        14     1.120     0.874 -24.14   0
        83    349.0908    897.0981 307.7679903  +6.3161668     15868.07     24367.84     26256.81     77.91204     155.8857      310.784      1.638     3.69     852.7029     54.78618     2425.333        46     1.644     1.025 -32.13   0
        84     83.6491    898.3292 307.8781508  +6.3067461     1370.909     2090.552     1907.828     77.91204      155.392     310.8458      1.650     4.26     848.7864     54.78618     195.1936        16     1.274     0.845 -28.54   0
        85    219.6985    896.5991 307.8217268  +6.3120312     1336.423      1920.77      2410.32     77.41736     155.0826     310.5057      1.672     4.77     851.2128     54.78618     174.4713        14     1.272     0.755 -37.11   0
        86    399.7465    896.1005 307.7469928  +6.3182768     718.2809     1002.596     1274.998     77.78867     155.4538     311.0312      1.513     4.20     852.3553     54.78618     119.9849         8     1.058     0.510 -39.01   0
        87    426.8969    888.1040 307.7359893  +6.3224880     1018.545     1650.093     1512.589     77.91204     156.0089     310.6604      1.692     5.67     851.9336     54.78618     136.4598        12     1.319     0.758 -47.17   0
        88    112.2631    887.8051 307.8666263  +6.3120527     1588.585     2336.226     2847.427     77.29319     155.2683     310.5985      1.743     4.75     849.1078     54.78618     247.7451        16     1.474     0.758 -25.30   0
        89    680.2249    884.3376 307.6309365  +6.3325207      770.813     1281.306     2071.757     77.54132     155.4538     310.7531      1.607     2.25     851.3382     54.78618     145.3796         5     0.673     0.468   8.07   0
        90    507.6864    884.2882 307.7025748  +6.3267693     627.8209     1222.515     1943.253     77.66509     155.7007     310.9385      1.976     3.56     851.7991     54.78618     125.3442         5     0.949     0.385 -44.62   0
        91    894.2679    881.9453 307.5421454  +6.3406549     1908.833     3137.306     3396.487     77.91204      155.392     310.7531      1.701     4.07     848.0654     54.78618     276.1069        22     1.447     0.927 -32.34   0
        92     95.8172    881.3813 307.8736706  +6.3141519     2367.253     3566.541     4152.835     77.66509     155.2065     310.7531      1.717     4.36     848.5994     54.78618      316.334        23     1.536     0.857 -34.53   0
        93    864.8701    881.4288 307.5543688  +6.3398875     1865.367     2921.182      2901.92     77.66509     155.4538     310.7531      1.721     3.42     848.8834     54.78618     252.1528        17     1.236     0.818 -26.65   0
        94    828.2885    880.9035 307.5695753  +6.3388836     2787.458     4573.267     4808.278     77.91204     155.8241     310.8458      1.702     4.21     849.6716     54.78618     348.0221        25     1.471     0.984 -28.08   0
        95    458.3472    879.4656 307.7232218  +6.3271080     572.1094     780.8188     1010.723     77.91204      155.392      310.784      1.631     3.99      851.591     54.78618     108.4626         6     1.099     0.415 -56.07   0
        96    564.2382    872.3466 307.6794959  +6.3335922     328386.6     508994.6     539075.2     77.78867     155.5156     310.8149      1.674     3.80      851.514     54.78618     45055.05       174     1.816     1.265 -33.67   0
        97    652.0344    875.1681 307.6429485  +6.3353640      1185.32     1927.308     1851.119     77.54132     155.2065     310.5676      1.691     5.09     851.4659     54.78618     153.9899        17     1.468     0.912 -19.56   0
        98    351.6105    873.2791 307.7677452  +6.3260848     12178.95     18843.57     20152.31     77.54132     155.2065     310.6913      1.668     3.60     851.9173     54.78618       1661.3        41     1.619     1.007 -30.21   0
        99    670.0394    869.5810 307.6356602  +6.3382725     3288.459     5207.914     5516.194     77.54132     155.2683     310.5676      1.701     4.25      851.213     54.78618     492.6245        24     1.572     0.849 -35.56   0
       100    902.4987    868.4046 307.5391808  +6.3465198     4855.083     8183.631     9050.627     77.66509     155.1446     310.4748      1.837     4.09     847.4786     54.78618     595.7791        34     1.612     1.082 -26.79   0
       101    741.5787    866.3560 307.6060649  +6.3419945      740.596     1233.792     984.0323     77.41736     155.3302     310.6295      1.864     5.62     850.7639     54.78618     122.1733         9     1.282     0.694 -45.81   0
       102    644.7870    863.7052 307.6463420  +6.3398541     3374.757     5282.665     6097.645     77.66509     155.2065     310.6604      1.687     4.29     851.3316     54.78618      449.539        25     1.391     0.960 -33.09   0
       103    833.1498    862.8463 307.5681613  +6.3465009     1528.884     2323.668     2323.473     77.91204     155.3302     310.8767      1.535     3.84     849.2255     54.78618     221.6838        18     1.335     0.832 -39.95   0
       104    187.7575    863.5523 307.8361008  +6.3246016     559.7106     918.3369     1273.528     77.91204      155.392     310.7531      1.743     3.00     850.3853     54.78618     94.69916         5     0.807     0.655 -49.07   0
       105    635.0215    862.5843 307.6504343  +6.3399903     1107.069     1449.479     1618.255     77.66509     155.2065     310.7531      1.402     3.52     851.3857     54.78618     164.6568        11     1.083     0.739 -60.38   3
       106    637.7747    858.2729 307.6494357  +6.3418623      1962.01     3309.822     3525.019     77.54132     155.3302     310.7531      1.795     4.00     851.2035     54.78618     273.3961        21     1.399     0.913 -30.26   2
       107    408.3990    874.8906 307.7441133  +6.3273232     7647.049     11680.95     12423.84     77.16882     154.9587     310.5676      1.614     3.69     851.5154     54.78618     1142.711        33     1.581     0.929 -34.75   0
       108    960.6419    861.4863 307.5152703  +6.3513146     827.3531     1418.326     1681.364     77.91204     155.3302     310.8149      1.895     4.91     845.7125     54.78618     107.9512        11     1.102     0.950 -54.61   0
       109    921.3945    856.4061 307.5317363  +6.3521036     2922.778      4872.37     5005.413     77.29319     155.2683     310.6294      1.827     4.02     846.7207     54.78618     394.9826        25     1.462     1.020 -31.71   0
       110    331.4003    857.1966 307.7766771  +6.3320465     1015.484     1508.896     1776.242     77.29319     155.0207     310.5676      1.402     3.94      851.449     54.78618     160.0029        11     1.125     0.663 -36.13   0
       111    379.6923    852.1960 307.7567950  +6.3357303     2577.015     3837.402     3871.185     77.54132     155.1446     310.5985      1.615     3.97     851.0729     54.78618     345.4904        19     1.427     0.777 -35.81   0
       112    515.7003    842.0836 307.7006647  +6.3444616     2949.729     4555.368     4866.024     77.91204     155.9473     310.9076      1.671     4.08     850.2447     54.78618     414.4006        22     1.560     0.819 -33.17   0
       113    860.2297    841.3008 307.5576384  +6.3562997      1053.82     1530.691     1216.877     77.91204     155.2065     310.8458      1.615     5.80     848.1899     54.78618     125.5146        13     1.264     0.750 -40.56   0
       114    581.0080    839.4531 307.6736370  +6.3477334     746.8535     1339.792     1328.959     77.41736     155.2683     310.5367      1.688     4.95     850.4919     54.78618     114.8092         9     1.390     0.498 -27.66   0
       115    562.6526    838.0622 307.6813049  +6.3476934     6039.902      9429.09     10459.27     77.91204      155.392      310.784      1.684     3.81     850.2845     54.78618     844.9216        36     1.657     0.955 -35.92   2
       116    569.4803    837.6499 307.6784839  +6.3480921     1324.076     2088.238     2069.458     77.91204     155.5156     310.8149      1.710     4.53     850.3416     54.78618     196.3274        14     1.283     0.762 -27.64   3
       117    273.7172    838.5463 307.8012540  +6.3378109     784.5701     998.2009     330.4014     77.91204     155.4538     310.9076      1.333     4.45     850.8502     54.78618     115.4305         8     1.116     0.517 -38.67   0
       118    480.4413    837.1788 307.7154690  +6.3453059     1345.647     2224.599     2027.523     77.54132     155.2683     310.6295      1.748     4.57     850.0465     54.78618      216.008        15     1.381     0.776 -17.33   0
       119    898.1383    836.3175 307.5420647  +6.3596217     1316.585     2123.385     2499.333     78.03522     155.4538      310.784      1.777     5.16     847.0931     54.78618     151.8307        15     1.299     0.824 -29.12   0
       120    121.9975    836.3613 307.8643191  +6.3336176     1371.943     1932.513     2040.193     77.04426     155.2065     310.5676      1.556     3.89     847.9141     54.78618     222.3251        14     1.228     0.728 -35.29   0
       121    698.3249    835.0362 307.6250739  +6.3534798     766.2927     1272.219     1314.548     77.78867     155.5156     310.8458      1.769     4.46     850.2557     54.78618     127.3441         8     1.053     0.647 -60.63   0
       122    533.2689    832.0558 307.6937069  +6.3491897        19437     29828.79     31718.35     78.03522     155.3302      310.784      1.630     3.69     849.8845     54.78618      2933.18        52     1.656     1.074 -31.92   0
       123    374.3120    833.6066 307.7596539  +6.3432245     804.4534     1243.706     711.2637     77.41736     155.1446     310.5676      1.528     4.47     850.6803     54.78618     125.0709         9     1.134     0.562 -44.54   0
       124    946.8229    830.4002 307.5220475  +6.3636881     3449.014     5492.986     5855.987     77.54132     155.1446     310.5985      1.709     4.02     845.7076     54.78618     425.8765        29     1.537     1.046 -31.86   0
       125    419.0174    827.9425 307.7412827  +6.3470613     558.0629     635.7066     887.4237     77.41736      155.392     310.5676      1.445     5.33     850.0576     54.78618     77.84027         7     1.138     0.705 -20.62   0
       126     67.2493    827.5997 307.8873448  +6.3353942     643.1448     750.9991     717.1857     77.16882     155.0826      310.382      1.307     4.38     846.6482     54.78618     88.93726         7     0.997     0.549 -58.22   0
       127    702.3741    823.7824 307.6237698  +6.3582612     506.4967     597.1109     883.2916     77.54132     155.2683     310.7531      1.217     2.80     849.9769     54.78618     96.29688         5     0.736     0.439 -69.74   0
       128     43.5214    822.4891 307.8973685  +6.3367060     1611.418     2499.511     2706.283     77.66509     155.7008     310.9385      1.641     4.19     845.9496     54.78618      196.035        17     1.307     0.846 -38.19   0
       129    325.9431    820.7426 307.7801693  +6.3469132     3329.311     5052.733     4587.189     78.03522     155.5156     310.8458      1.645     3.78     850.5186     54.78618     466.8501        25     1.457     0.900 -33.20   0
       130    172.8232    822.6391 307.8436797  +6.3409904     394.8113      333.486      370.201     77.54132     155.2065     310.5985      1.301     4.31     848.4614     54.78618     75.18884         5     1.144     0.463   6.91   0
       131    791.5030    816.5628 307.5870034  +6.3642191     54205.75     83459.55     88692.36     77.91204     155.3302     310.9694      1.706     3.79     848.5754     54.78618     7410.901        79     1.728     1.169 -31.96   0
       132    730.1764    818.9290 307.6123884  +6.3611940     620.1779     789.0099     890.7307     77.54132     155.3302     310.7531      1.527     6.15     849.8168     54.78618     101.6943         8     1.270     0.836  60.83   0
       133     25.7590    818.9658 307.9048619  +6.3375631     2125.823     3474.221     3757.456     77.66509     155.4538     310.6294      1.718     3.82     845.4312     54.78618     323.9082        20     1.331     0.907 -30.58   0
       134    248.7172    814.3481 307.8124484  +6.3469618     5046.377     8137.767     10410.46     77.91204     155.4538     310.9076      1.906     3.79     850.0402     54.78618     672.3871        34     1.617     1.052 -39.01   0
       135    435.0059    814.9469 307.7350810  +6.3529622     983.1081     1545.443     1627.841     77.41736     155.2065     310.5367      1.492     4.71     849.5869     54.78618     164.3512        11     1.198     0.721 -39.86   0
       136    916.7119    811.8526 307.5351708  +6.3703416     7982.164     12866.47     13699.06     77.91204     155.3302     310.9385      1.736     3.88     846.2249     54.78618     1013.752        38     1.656     1.045 -30.83   0
       137    719.7112    811.1591 307.6169941  +6.3640521     20718.54     33309.68     36353.78     77.91204      155.392     310.8458      1.716     3.77     849.6459     54.78618     2960.335        57     1.756     1.106 -32.20   3
       138    713.4246    807.6652 307.6197216  +6.3652846     86173.53     133362.3     141125.3     77.54132     155.4538     310.7222      1.683     3.80     849.5804     54.78618     12526.26        88     1.743     1.159 -32.07   3
       139    358.3313    808.5308 307.7671325  +6.3530410     20268.42     31230.51     33156.34     77.91204     155.5773      310.784      1.693     3.76     850.2366     54.78618     2840.442        50     1.645     1.067 -33.25   0
       140    420.1929    806.3646 307.7415200  +6.3560090     21727.01     33528.43     35344.67     77.29319     155.2683     310.5985      1.644     3.87     849.4539     54.78618     3095.668        51     1.662     1.019 -32.16   0
       141    407.5741    808.7339 307.7466798  +6.3546080     1458.943     2096.975     2266.555     77.54132      155.392     310.7222      1.428     3.63     849.6636     54.78618     261.8101        14     1.298     0.663 -32.07   0
       142    647.3633    807.9819 307.6471411  +6.3629456     753.1615     1185.376     1773.823     77.41736     155.2683     310.5985      2.460     4.71     849.6263     54.78618     102.0087         8     1.489     0.423 -22.34   1
       143    957.1940    805.2140 307.5185832  +6.3744321     1925.208     3236.557      2950.34     77.54132     155.2065     310.6604      1.752     4.01     845.1842     54.78618     265.8397        22     1.375     0.999 -21.69   0
       144    248.3139    792.8649 307.8133392  +6.3558174     762236.8      1780473      2006132     78.03522     155.6391     310.8458      2.335     7.06     849.2603     54.78618     63816.54       599     2.558     2.048 -38.46   4
       145    654.3036    802.3122 307.6444495  +6.3655184     6249.547     9817.085     10163.81     77.91204     155.8241     310.8458      1.702     3.80     849.4445     54.78618     882.6409        35     1.630     1.003 -25.80   0
       146    584.6311    803.5266 307.6733382  +6.3626868     421.2767     556.7465    -26.74265     77.78867     155.4538     310.8149      1.441     4.81     849.2689     54.78618     75.66003         6     1.419     0.463 -39.31   0
       147    442.7846    800.3811 307.7323407  +6.3592363     1649.492     2559.763     2507.673     77.66509     155.2065     310.7222      1.642     5.53     849.0549     54.78618     257.6324        18     1.623     0.757 -36.91   0
       148    167.8839    799.7713 307.8465009  +6.3502651     829.3085     1321.863     1410.333     77.91204     155.2065     310.6913      1.721     4.65     847.4052     54.78618     145.5385        11     1.205     0.693 -21.78   0
       149    607.4087    794.3132 307.6641897  +6.3672526     871.8766     1417.805     1791.133     77.54132     155.1446     310.6604      1.778     3.21     849.1427     54.78618     144.7619         9     0.962     0.726 -40.79   0
       150    158.6753    793.2420 307.8505443  +6.3526513     795.2134     1100.496     831.1258     77.78867     155.4538     310.8458      1.594     5.24     846.9579     54.78618     139.7063        10     1.434     0.541 -27.93   0
       151    133.1955    793.1531 307.8611264  +6.3518318     1048.953     1767.367       1860.8     77.29319     155.2065     310.5057      1.738     5.26     846.6803     54.78618      132.255        15     1.392     0.755 -43.10   0
       152    689.3981    792.4792 307.6302071  +6.3707512     2389.343     3777.541     4049.539     77.29319     154.9587     310.5985      1.767     3.85     849.1518     54.78618     334.7137        20     1.425     0.795 -22.85   0
       153    423.1382    789.0583 307.7408788  +6.3632525     53195.41     82141.05     87343.73     78.03522      155.392     310.8458      1.622     3.71     848.7001     54.78618     8087.123        79     1.720     1.141 -32.11   0
       154    965.6935    791.2271 307.5155216  +6.3804900     646.8435     895.9868     853.2602     78.03522     155.2065     310.6604      1.592     3.78     844.7397     54.78618     98.38733         5     0.954     0.430 -43.54   0
       155    540.8746    788.0258 307.6920272  +6.3676220     7005.938     10886.67     11216.84     77.54132     155.3302      310.784      1.607     3.83     848.3965     54.78618     1061.201        36     1.592     0.987 -30.69   0
       156    457.7838    786.5800 307.7265766  +6.3654365     4498.181     6962.329     8083.324     77.66509     155.2683     310.7222      1.706     3.91     848.3984     54.78618     632.1045        29     1.656     0.901 -29.70   0
       157    786.0682    784.7078 307.5903270  +6.3771891     11196.79     17517.71     18567.99     77.78867     155.5773     310.8149      1.672     3.63      847.822     54.78618     1615.151        44     1.644     1.049 -29.60   0
       158    680.7657    783.3898 307.6340962  +6.3742152     471.2437      720.063     867.3795     77.41736     155.2065     310.6604      1.502     3.52     848.8882     54.78618     77.95276         5     0.780     0.457 -15.52   0
       159     15.3860    780.7727 307.9104574  +6.3529813     1168.067     1999.893     2312.217     77.54132     155.2683     310.7222      1.961     5.73     844.2492     54.78618     154.9615        14     1.404     0.762 -34.54   0
       160    454.2186    780.0153 307.7282776  +6.3680273     2141.649     3323.915     3140.139     77.66509     155.2065     310.7222      1.597     4.29     848.1356     54.78618     313.1362        23     1.665     0.830 -26.48   0
       161    807.7407    779.1425 307.5815141  +6.3802103     1257.083     1903.146     2003.844     78.03522      155.392     310.8458      1.574     4.54     847.2969     54.78618     179.0518        13     1.367     0.688 -23.56   0
       162    143.7984    776.6239 307.8572813  +6.3590120     11296.41        17682     19628.65     77.54132     155.1446     310.5985      1.685     3.73     846.3749     54.78618     1515.009        44     1.664     1.053 -30.13   2
       163    135.8171    773.9898 307.8606839  +6.3598312     2831.341     4767.979      6080.65     77.66509     155.2065     310.6913      1.883     4.02     846.1853     54.78618     426.8771        25     1.567     0.941 -28.03   3
       164    151.9064    776.9760 307.8539030  +6.3591391     2994.369     4577.604     4590.302     78.03522     155.2065     310.6604      1.591     3.71     846.4813     54.78618     415.7592        23     1.369     0.916 -32.77   0
       165    913.6288    803.2170 307.5367398  +6.3738040     6104.719     9875.088     11123.13     77.54132     155.2065     310.7531      1.760     3.82     846.1799     54.78618     795.1354        34     1.522     1.088 -27.94   0
       166    931.6033    773.2505 307.5302784  +6.3867753     6024.739      9446.69     9567.364     77.29319     155.2065     310.4129      1.683     3.82     845.0771     54.78618     804.5275        32     1.563     0.988 -34.59   0
       167    980.9252    773.2219 307.5097986  +6.3884313     1482.332     2507.804     2984.725     77.54132     155.3302     310.7531      1.881     4.39     844.0671     54.78618     193.6959        17     1.324     0.865 -37.20   0
       168    687.0473    770.9240 307.6319058  +6.3795717     1692.971     2710.444     3282.253     77.78867     155.5156     310.8149      1.708     3.67     848.5367     54.78618     248.1787        19     1.306     0.915 -39.09   0
       169    573.8834    770.1573 307.6789209  +6.3761037      2388.34     3552.353     3736.134     77.91204     155.4538     310.7531      1.647     4.19     848.1001     54.78618     342.5425        18     1.357     0.811 -34.22   0
       170    886.3356    804.1497 307.5480417  +6.3725087     697.5381     1005.997     860.6252     77.78867      155.392     310.8458      1.498     5.00     846.9428     54.78618     106.3878         7     1.257     0.562 -14.29   0
       171    422.1523    769.7264 307.7419379  +6.3712006     1099.732     1845.979     2110.105     77.78867     155.5156     310.8149      2.018     5.33     847.7684     54.78618      171.553        13     1.455     0.685 -24.31   0
       172    136.2510    767.5718 307.8607201  +6.3624954     1871.783     2752.507     3618.261     77.54132     155.5773     310.7222      1.760     3.81     846.0189     54.78618     250.1464        17     1.317     0.824 -28.36   0
       173    705.2238    768.2263 307.6244487  +6.3812929     532.7048     887.1657     661.6553     77.41736     155.3302     310.7222      1.418     3.43     848.4489     54.78618     87.81567         5     0.967     0.352 -44.13   0
       174    986.0038    764.5351 307.5079801  +6.3921869     1665.847     2616.779      2846.03     77.16882     155.2065     310.5985      1.682     3.98     843.8099     54.78618     237.1342        20     1.395     0.930 -32.83   0
       175    955.2032    764.7454 307.5207630  +6.3910735     2962.144     4847.446     4937.582     77.29319     155.2683     310.4748      1.740     3.79     844.4374     54.78618     398.4729        27     1.423     1.119 -28.16   0
       176    925.9175    765.3138 307.5329048  +6.3898625     2978.845     4560.885     4570.826     77.66509     155.6391     310.9076      1.626     3.94     845.0355     54.78618     403.3075        18     1.314     0.853 -24.36   0
       177    678.2411    764.4408 307.6357799  +6.3819539     1528.876     2494.557     2436.549     77.66509     155.4538     310.6913      1.726     4.67     848.3317     54.78618     236.7906        16     1.467     0.717 -34.57   0
       178    825.2328    762.6677 307.5748023  +6.3875959     1062.071     1652.789     1730.727     77.78867     155.4538     310.8149      1.635     5.38      846.796     54.78618     133.8292        14     1.325     0.841 -18.65   0
       179    900.3146    760.7700 307.5436884  +6.3908846     797.6675     1273.702     1588.317     77.91204     155.2683     310.6913      2.057     4.46     845.5626     54.78618     140.7888         8     1.084     0.521 -34.77   0
       180    250.6635    759.4718 307.8134880  +6.3696822     1910.093     3414.677     3470.856     77.91204     155.4538     310.8458      1.883     4.56     847.4711     54.78618     269.3037        18     1.434     0.883 -24.45   0
       181    687.9000    756.3943 307.6320389  +6.3855988     704.1029     1305.372     1569.554     77.66509     155.0826     310.5367      1.963     5.80     848.0975     54.78618     107.9216         9     1.302     0.728 -15.73   0
       182    943.6115    754.9633 307.5259036  +6.3947257     1078.777      1744.76     1877.656     77.41736     155.2683     310.5057      1.766     5.30     844.4479     54.78618     134.4857        12     1.227     0.704 -46.17   0
       183    270.4337    755.2337 307.8054218  +6.3720955     616.6237     1080.169     1295.196     77.41736     155.2065     310.5676      1.617     3.49     847.2836     54.78618     85.98883         5     0.764     0.461  72.61   0
       184    917.6779    753.5753 307.5367190  +6.3944340     1096.778      1719.38     1379.165     77.54132     155.3302      310.784      1.602     4.07     844.9774     54.78618     163.5029        11     1.138     0.688 -19.79   0
       185    166.0477    754.5315 307.8487879  +6.3688801     687.3992     1235.575     1123.321     77.91204      155.392     310.8149      1.865     3.49     846.1702     54.78618     119.6118         6     0.790     0.492  -7.80   0
       186    970.0499    752.4952 307.5150075  +6.3966260       2307.6     3662.909      3949.12     77.78867     155.3302     310.9694      1.689     3.90     843.8737     54.78618     312.4025        21     1.395     0.880 -30.05   0
       187    689.3810    751.9006 307.6315746  +6.3875035     932.0885     1320.555     1261.728     77.91204     155.3302     310.5985      1.549     4.46     847.9803     54.78618     138.9326         9     1.026     0.602 -37.90   0
       188   1011.8774    746.1276 307.4978513  +6.4006487      1483.18     2378.118     2220.415     78.15821     155.7007     310.8149      1.587     3.73     842.9406     54.78618     213.6582        14     1.186     0.805 -39.08   0
       189    480.8112    747.1529 307.7183398  +6.3824852     631.1298     829.1868     1044.595     77.41736     155.3302     310.5057      1.588     4.57     846.9169     54.78618     109.4682         7     1.191     0.498 -16.28   0
       190    813.2342    744.4698 307.5803940  +6.3947085     1026.609     1643.148     1569.528     77.78867     155.4538     310.8767      1.681     5.05     846.4761     54.78618     167.8235        14     1.522     0.594 -30.79   0
       191    638.5295    745.4111 307.6529079  +6.3884826     576.1859     760.4962     944.1246     77.41736     155.1446     310.6295      1.292     3.78     847.5681     54.78618     109.8647         6     1.027     0.400 -17.60   0
       192    899.7698    741.5947 307.5445561  +6.3987831     1599.636     2292.438     2310.704     77.41736     155.2683     310.5985      1.570     4.27     845.1058     54.78618     226.3353        15     1.318     0.803 -41.63   0
       193    873.5824    736.5421 307.5555997  +6.3999954     952.1733     1456.138     1342.342     77.41736      155.392     310.5676      1.709     5.75     845.5553     54.78618     133.0199         8     1.235     0.755  14.95   0
       194    659.6072    737.1838 307.6444314  +6.3925841     497.9883     576.8508     536.6782     77.54132     155.2065     310.6604      1.428     3.51     847.4504     54.78618     73.08673         5     0.798     0.445 -72.37   0
       195    856.4407    733.0793 307.5628338  +6.4008532     1609.659     2382.653     2802.978     77.78867     155.4538     310.8149      1.701     3.83     845.7346     54.78618     231.6302        14     1.100     0.840 -38.90   0
       196     55.4160    732.0036 307.8954827  +6.3744614     2425.154     3688.536     4213.401     77.54132     155.0826     310.6604      1.625     3.88     844.1212     54.78618     371.8889        23     1.495     0.861 -23.83   0
       197    118.2988    729.6347 307.8694530  +6.3775537     729.6274     1539.322     1799.415     77.91204     155.3302     310.9694      2.853     4.11     844.7135     54.78618      106.811         8     0.895     0.724 -29.34   2
       198    668.1731    720.5454 307.6414325  +6.3997396     6119.822     9323.088     10496.78     77.54132     155.5156     310.6913      1.614     3.58     847.0005     54.78618     898.5496        30     1.553     0.896 -32.04   0
       199    614.8918    719.6583 307.6635873  +6.3983242     1313.211     2169.712     2636.663     77.78867      155.392     310.9076      1.844     4.16     846.6111     54.78618     227.5045        13     1.292     0.720 -26.94   0
       200    525.5319    720.2517 307.7006737  +6.3950888     859.7451      998.884     917.1019     77.78867     155.3302      310.784      1.327     4.40     846.4583     54.78618     129.2253         8     1.127     0.489 -19.98   0
       201    641.8759    716.4582 307.6524895  +6.4005478      2149.73     3242.102     3452.454     78.03522     155.4538      310.784      1.606     3.69     846.6683     54.78618     394.9215        20     1.439     0.841 -39.55   0
       202    131.1814    716.4526 307.8645483  +6.3834288      3693.21     6045.291     6253.651     77.41736     155.5156     310.5985      1.708     3.82     844.7465     54.78618     525.1652        32     1.519     1.154 -21.49   0
       203   1005.0606    715.8116 307.5016952  +6.4129378     2209.171     3795.987     4234.173     77.29319     155.3302     310.5367      1.880     4.26     842.8999     54.78618     317.2039        24     1.513     1.014 -25.01   0
       204    317.8708    716.6505 307.7870235  +6.3896160     651.5405     1055.378     1613.815     77.91204      155.392     310.8458      1.860     5.05     845.4076     54.78618       117.58         9     1.416     0.510 -36.10   0
       205    253.5946    715.8956 307.8137383  +6.3877706     701.4764      1037.88     1534.547     77.66509     155.1446     310.5676      1.708     4.76     845.4544     54.78618      128.012         8     1.490     0.492 -33.14   0
       206    785.0551    712.7030 307.5931595  +6.4068827     19741.53     29980.24     31853.46     77.78867     155.4538     311.0003      1.605     3.69     845.9182     54.78618     2868.104        48     1.593     1.028 -32.25   0
       207    915.0541    712.4024 307.5391859  +6.4113450     3493.992     5436.796     5752.217     77.29319     155.2683     310.4438      1.691     3.67     844.0509     54.78618     488.3053        27     1.541     0.896 -33.97   0
       208    484.0850    712.8239 307.7181338  +6.3967674     1347.556     1930.202     1671.893     77.91204     155.2065     310.6913      1.503     4.60     846.0476     54.78618     211.1498        14     1.437     0.643 -31.80   0
       209    512.3513    713.0033 307.7063903  +6.3976399     754.1048     1330.316     1195.591     77.29319     155.2065     310.4129      1.713     4.20     846.1885     54.78618     116.1629         7     1.170     0.430 -35.81   0
       210    330.1288    712.6635 307.7820677  +6.3916732     678.8311       972.15     1002.401     77.91204     155.4538     310.8767      1.479     4.29     845.2226     54.78618     107.6274         7     1.271     0.413 -39.65   0
       211    974.8277    707.6851 307.5145216  +6.4152854     441.1276     454.4215    -130.5635     78.03522     155.2065     310.6913      1.136     4.67     843.2065     54.78618     85.71649         5     0.862     0.718 -75.73   0
       212    665.6421    705.5302 307.6429870  +6.4058541     7171.633     10979.22     11651.57     77.78867     155.4538     310.8767      1.657     3.64     846.5132     54.78618     1041.548        34     1.523     0.992 -34.87   0
       213    258.5199    706.3580 307.8120143  +6.3918734     6097.187     9240.002     9651.854     77.91204     155.4538      310.784      1.620     3.73     845.0438     54.78618     818.1212        29     1.551     0.888 -32.43   0
       214    648.1071    706.6490 307.6502310  +6.4048059     910.8473     1359.354      1335.37     77.78867     155.3302     310.9385      1.609     5.06     846.4263     54.78618      130.571        10     1.153     0.628 -38.83   0
       215    360.8389    705.3051 307.7695633  +6.3957410      936.916      1251.02     1730.802     78.03522     155.3302     310.9385      1.523     4.40      844.944     54.78618     118.6243        10     1.028     0.788  25.58   0
       216    925.1127    698.1525 307.5354855  +6.4175636     1144.175     1871.281     2119.302     77.91204     155.3302     310.8458      1.766     4.58     843.5269     54.78618     178.5598        14     1.345     0.788 -31.14   0
       217    737.2905    693.9645 307.6136221  +6.4130236     3626.462     5907.377     6460.678     78.03522      155.392     310.8458      1.779     3.60     845.8006     54.78618     486.6739        29     1.458     1.036 -31.60   0
       218    692.2310    694.2750 307.6323232  +6.4113896     1109.074     1503.777     1903.721     77.78867     155.5156     310.8149      1.646     3.15     846.0668     54.78618     173.7122        12     0.906     0.885 -39.57   0
       219   1003.6409    690.4766 307.5031316  +6.4233503     8451.734     13466.43     13861.95     77.78867     155.4538     310.8767      1.713     3.99     842.8917     54.78618     1130.363        39     1.598     1.075 -34.10   0
       220    942.0544    691.0250 307.5286885  +6.4210712     2254.276     3567.925      3580.46     77.54132     155.5156     310.6294      1.690     4.02     843.2227     54.78618     328.5945        22     1.428     0.976 -35.22   0
       221     22.8817    690.4127 307.9103948  +6.3905369     1844.642     2737.197     3465.204     77.54132     155.1446     310.6604      1.751     3.72     843.8563     54.78618     289.4166        17     1.352     0.759 -22.60   0
       222    556.3921    688.9546 307.6889099  +6.4090427     569.9105      879.103     780.9663     77.41736     155.3302     310.5057      1.699     6.15      845.614     54.78618     86.58447         7     1.456     0.730 -45.53   0
       223    438.3934    688.9314 307.7379099  +6.4051006      548.937     664.0366     924.7938     77.41736     155.1446     310.6604      1.371     4.48     845.2651     54.78618     98.57129         5     1.057     0.541  18.95   0
       224     80.9404    685.2761 307.8864609  +6.3946104     25042.29     38880.99     41228.91     78.03522     155.5156      310.784      1.649     3.74     843.9063     54.78618     3539.167        56     1.670     1.087 -29.85   0
       225    542.3385    686.2010 307.6948382  +6.4097091     2067.652     3262.257     3526.657     77.29319     155.2683     310.5057      1.725     3.72     845.5165     54.78618     305.6472        18     1.311     0.812 -15.42   0
       226    511.0430    683.6783 307.7079186  +6.4097029     1267.918     1991.418      1701.65     77.78867     155.4538     310.8458      1.601     4.54     845.4126     54.78618     189.6135        14     1.348     0.792 -39.36   0
       227    932.0539    682.4360 307.5331288  +6.4242837     956.5312     1367.673     1407.745     77.78867     155.4538     310.8458      1.497     4.63      843.077     54.78618     145.4102        11     1.313     0.570 -29.86   0
       228    550.9315    680.1520 307.6914730  +6.4124941      1004.54      1747.34     2187.509     77.91204      155.392     310.8149      2.016     4.32     845.3362     54.78618     167.4734        14     1.400     0.824 -24.77   0
       229    726.9358    677.5640 307.6184717  +6.4194486     3600.926     5553.403     6217.988     77.78867      155.392     310.8458      1.665     3.65     845.2342     54.78618     508.9312        28     1.616     0.938 -36.17   0
       230    749.0137    675.8203 307.6093619  +6.4209061     3975.124     6125.682      6265.35     77.66509     155.1446     310.7222      1.624     3.78     844.9734     54.78618      587.506        27     1.485     0.919 -25.64   0
       231    580.3928    673.7522 307.6794538  +6.4161222      3128.22       4919.1     4783.916     77.41736     155.2683     310.4438      1.600     3.90     845.1511     54.78618     500.5593        24     1.480     0.888 -32.46   0
       232    416.3374    674.3150 307.7475600  +6.4103957      1319.91     1853.575     1966.563     78.03522     155.5773     310.8149      1.514     3.44     844.8441     54.78618     207.6351        12     1.115     0.671 -42.79   0
       233   1021.8353    671.9850 307.4961939  +6.4315909     4630.027     7080.699     6850.732     77.54132     146.4175     261.4352      1.584     3.58     842.8428     54.78618     671.4279        26     1.404     0.963 -40.46  24
       234    324.6221    672.8030 307.7856956  +6.4079445     1437.312     2020.671     2394.023     77.54132     155.1446     310.5676      1.503     4.11     843.6351     54.78618     217.6956        14     1.303     0.718 -35.33   0
       235    241.0141    673.2000 307.8204000  +6.4049746     1576.038     2444.561     2273.817     77.41736     155.0826     310.5985      1.672     5.54       843.74     54.78618     221.2294        15     1.425     0.721 -33.83   0
       236    987.3140    670.9087 307.5105659  +6.4308850     7624.816     12108.09     11988.77     77.66509     155.8857     310.9385      1.692     3.81     842.8225     54.78618     1081.495        38     1.592     1.052 -33.30   0
       237    540.9976    671.4703 307.6958897  +6.4157458     665.0583     1169.368     1580.351     77.41736     155.0826     310.6295      1.889     3.68     845.0795     54.78618     111.1779         6     0.805     0.483 -11.18   0
       238    707.5281    669.3363 307.6268069  +6.4221969     901.9583     1337.761     1776.207     77.91204     155.4538     310.8458      1.719     4.39      845.029     54.78618      187.375        11     1.494     0.656 -37.60   0
       239    145.7080    664.2082 307.8602778  +6.4054853     23796.01     36635.42     38233.55     77.54132     155.1446     310.6295      1.645     3.74      843.945     54.78618     3390.249        53     1.630     1.066 -30.19   0
       240     98.6626    667.4410 307.8797037  +6.4025692     745.0198     1175.302     1312.134     77.91204      155.392     310.9076      1.541     3.67     843.6797     54.78618     150.9389         7     0.961     0.497  -0.07   0
       241    814.3346    664.8699 307.5826027  +6.4276084     1185.444       1878.1     1969.984     77.91204     155.5156     310.8149      1.739     4.56     844.1159     54.78618     192.6064        14     1.272     0.806 -40.92   0
       242    432.6706    665.0113 307.7410904  +6.4147841     2694.778     4569.054     5404.331     77.41736     155.1446     310.6295      1.844     4.00     844.6304     54.78618     401.4264        24     1.607     0.850 -34.00   0
       243    365.3148    658.8781 307.7692665  +6.4150582     704.1875     1055.667     472.1678     77.91204     155.7624     310.9385      1.540     4.38     843.4498     54.78618     113.2076         8     1.095     0.499 -35.62   0
       244    982.2205    653.8729 307.5132507  +6.4377486     6412.765     11092.33     12005.13     77.54132     155.3302      310.784      1.844     3.70     842.3717     54.78618     858.3478        43     1.604     1.254 -20.53   0
       245     26.5837    653.0082 307.9101201  +6.4061032     1200.782     1744.317     1435.703     77.54132     155.2065     310.6604      1.624     4.47     843.4782     54.78618     196.6213        14     1.375     0.716 -32.35   0
       246    940.4021    651.1673 307.5307078  +6.4374716      624.179     915.0383     414.6187     77.16882     155.2683     310.5985      1.613     4.98      842.489     54.78618     106.0583         6     0.953     0.735 -85.66   0
       247    575.7354    649.0829 307.6822159  +6.4261511     48099.95     72873.51     76922.17     78.03522     155.6391     310.8458      1.600     3.67     844.4276     54.78618     7054.786        67     1.667     1.077 -30.68   0
       248    218.9144    650.5938 307.8303382  +6.4135652     609.3303     975.1572     1213.655     77.41736     155.1446     310.5676      1.591     5.35     843.0192     54.78618     92.10522         7     0.974     0.841 -21.18   0
       249    800.1949    649.0160 307.5890056  +6.4336817     678.7056     1063.997     899.8999     77.54132     155.1446     310.6604      1.751     4.43     843.7465     54.78618      112.947         7     1.004     0.557 -72.53   0
       250    534.6392    649.2357 307.6992768  +6.4247124     676.3925     952.4637     616.2274     77.66509     155.3302     310.6295      1.382     4.67     844.5871     54.78618     103.2134         8     1.158     0.534 -23.85   0
       251    505.1105    646.1971 307.7116412  +6.4249782     543.0522     995.4915     885.4635     77.29319     155.1446     310.5057      1.882     4.69      844.264     54.78618     81.01404         8     1.491     0.418 -36.47   0
       252    183.0838    645.5888 307.8453854  +6.4144279     2743.479     4480.284     5021.115     77.54132     155.2065     310.6604      1.747     3.89     843.2133     54.78618     421.2031        23     1.424     0.918 -32.41   0
       253    986.1903    645.8222 307.5118713  +6.4412047     564.0146     876.8898     574.0831     77.54132     155.2065     310.6604      1.602     2.74     842.1355     54.78618     103.9706         6     0.734     0.561 -43.66   0
       254     75.5204    640.0775 307.8902362  +6.4130876     1423.776     2251.004     2172.857     78.15821     155.7007     310.9694      1.682     3.64     843.0623     54.78618     241.2288        15     1.253     0.842 -23.88   0
       255    473.0175    632.8365 307.7254172  +6.4294191      62169.4     95153.62     100050.8     77.41736     155.2683     310.5985      1.601     3.69     843.5403     54.78618     9556.004        75     1.694     1.094 -32.36   0
       256     16.4889    634.6498 307.9149315  +6.4133424     1621.873     2639.159     3102.743     77.91204     155.2683     310.9385      1.884     4.31     843.2242     54.78618     229.1322        18     1.512     0.733 -31.56   0
       257    658.5691    629.9250 307.6484600  +6.4368312     905.9973     1134.002      810.497     77.78867     155.5156     310.8149      1.250     3.40     843.4097     54.78618     185.7009         9     1.119     0.518 -48.16   0
       258    147.5151    627.8031 307.8607547  +6.4205753     1648.563     2247.962     1965.147     77.29319     155.0826     310.5367      1.607     4.34     842.8018     54.78618     240.4105        16     1.447     0.691 -34.31   0
       259    943.0687    625.2640 307.5304669  +6.4482549     692.3016     983.5771     1028.581     77.91204     155.5156     310.8767      1.667     5.14     841.9987     54.78618     104.3419         9     1.125     0.733 -33.86   0
       260    426.5030    625.8044 307.7449697  +6.4307637     885.6931     1171.889     1282.439     77.66509     155.1446     310.5057      1.447     3.61     843.2544     54.78618      136.548         9     1.072     0.555 -25.82   0
       261    619.2408    624.5771 307.6649717  +6.4377238     914.0278      1625.95     1714.854     77.54132     155.2683     310.5985      1.784     5.18     843.2216     54.78618     137.0948        10     1.353     0.561 -32.13   0
       262    500.3772    624.3981 307.7143391  +6.4338193     640.3159     803.8057     1512.176     77.54132     155.1446     310.5985      1.594     5.36     843.4888     54.78618     85.19531         8     1.008     0.805  29.04   0
       263    318.3571    622.1714 307.7900012  +6.4286371     2134.995     3362.004     3175.999     77.54132     155.5156     310.6913      1.629     3.77     842.5608     54.78618     325.5044        22     1.519     0.892 -39.28   0
       264     19.1260    623.6094 307.9142092  +6.4179890     621.4633      892.153     1113.639     77.54132     155.0207     310.6913      1.882     5.37     843.0349     54.78618     86.68512         7     1.157     0.702 -36.22   0
       265    470.0250    620.6370 307.7270699  +6.4343554     877.8257     1280.344     1826.837     77.54132     155.2683     310.5676      1.442     3.96      843.077     54.78618     138.9933         9     1.061     0.622 -39.31   0
       266    745.0463    616.4331 307.6129997  +6.4452917     5341.795     8219.007     8547.378     77.66509     155.4538     310.7531      1.621     3.70     842.6693     54.78618     769.3984        29     1.450     0.953 -28.29   0
       267    798.5884    611.6683 307.5909238  +6.4490472      13629.9     20997.55     22477.78     77.41736     155.2683     310.6913      1.648     3.86     842.6436     54.78618     2067.234        43     1.634     0.991 -31.12   0
       268   1015.6356    612.4587 307.5007581  +6.4559602     999.1669     1505.875     990.9078     77.91204     155.4538     310.8149      1.627     4.33     840.8099     54.78618     123.2949         9     0.913     0.790   7.27   0
       269    540.9402    610.9588 307.6979456  +6.4407259     1188.952     2416.089     2713.451     77.91204     155.4538     310.8767      2.243     7.57     843.8609     54.78618     190.3161        23     2.038     1.122 -69.95   0
       270    622.3783    609.8883 307.6641617  +6.4438930     2957.446     4353.639     4665.003     77.91204     155.2683     310.7222      1.531     3.62     842.5987     54.78618     486.1689        21     1.478     0.780 -35.09   0
       271    939.6122    605.7991 307.5325534  +6.4561758     1144.354     1916.017     2035.803     77.54132     155.1446     310.6295      1.801     4.97     841.6771     54.78618     159.9181        15     1.338     0.866 -50.27   0
       272    380.9012    603.3383 307.7646623  +6.4385100      969.509     1180.441     591.3514     77.66509     155.5156     310.9385      1.413     4.23     841.9622     54.78618     165.7787        11     1.312     0.583 -36.04   0
       273    235.0184    603.4250 307.8252399  +6.4335790     1230.337      2200.13     2756.148     77.54132     155.2683     310.7531      1.796     4.31     841.3525     54.78618     196.4906        12     1.365     0.551 -27.68   0
       274    874.5950    594.9838 307.5599171  +6.4584724     2922.061     4421.349     3868.171     77.54132     155.1446     310.6604      1.561     3.59     842.0726     54.78618     410.0995        23     1.440     0.873 -34.62   0
       275    169.6895    594.5479 307.8526677  +6.4350494     745.6223     1130.974     1397.781     77.91204     155.2683     310.9385      1.683     5.45     841.7269     54.78618     105.1127         9     1.063     0.789 -52.02   0
       276    833.3933    592.4065 307.5771145  +6.4581614     2548.691     3789.216      4070.87     77.29319     155.2683     310.6604      1.648     3.86     842.1929     54.78618     358.7164        19     1.376     0.813 -27.51   0
       277    804.2740    588.3394 307.5893440  +6.4588684     2548.365     4013.833     4918.702     78.03522     155.4538     310.8149      1.700     3.79     842.1968     54.78618     367.1943        21     1.491     0.861 -35.16   3
       278    813.9758    583.5355 307.5854758  +6.4611756     156510.3     237946.9     251727.3     77.54132     155.4538     310.7222      1.616     3.62     842.1085     54.78618     21596.55       123     1.734     1.210 -30.97   2
       279    747.0093    588.9811 307.6131046  +6.4566909     641.1494     1085.704     1715.596     77.66509     155.1446     310.6604      1.790     5.01     842.1126     54.78618     116.1248         8     1.289     0.552 -41.34   0
       280    261.3541    587.3019 307.8148466  +6.4411195     7763.214     11645.93     11977.51     77.91204     155.3302     311.0003      1.627     3.74     841.0406     54.78618     1079.117        33     1.598     0.903 -31.34   0
       281    195.5467    581.8486 307.8423582  +6.4411609     58449.36     89555.26     95831.84     78.03522     155.4538     310.8149      1.656     3.77      840.918     54.78618     8562.532        87     1.776     1.149 -32.53   0
       282    865.3457    585.4199 307.5640785  +6.4621123     437.0464     704.9388      1457.58     77.41736     155.4538     310.6295      2.126     3.47     842.0154     54.78618     79.93158         5     1.044     0.333 -21.61   0
       283    744.1909    583.7160 307.6144516  +6.4587705     526.6897      814.631      1253.14     77.54132     155.1446     310.6604      1.714     4.27     842.0348     54.78618      91.1687         7     1.147     0.453 -29.20   0
       284    119.5182    578.0698 307.8740576  +6.4401658     6303.623     9698.203       9397.9     78.15821     155.7007     310.8458      1.648     3.59     841.7183     54.78618     900.3279        32     1.576     0.943 -32.74   0
       285    985.1895    575.2709 307.5146458  +6.4702990     1335.842       2080.9     2037.308     77.41736     155.0826     310.6604      1.638     5.32     839.8893     54.78618     176.6291        15     1.389     0.749 -29.98   0
       286   1005.6271    574.7816 307.5061742  +6.4711821     705.3783     927.4565     344.6966     77.54132     155.2683     310.7222      1.471     3.48     839.3898     54.78618     104.1628         7     0.850     0.604 -60.26   0
       287    234.3693    573.3755 307.8265218  +6.4459628     751.6539      1219.65     1520.985     77.41736     155.3302     310.6295      1.756     5.26     840.1203     54.78618     124.3978         8     1.233     0.634 -42.65   0
       288    850.5918    570.8088 307.5706951  +6.4676522     4420.527     6723.795     6662.984     77.29319     155.2683     310.6913      1.609     3.52     841.8391     54.78618     671.6812        29     1.564     0.912 -26.45   0
       289    368.9753    568.9546 307.7707715  +6.4523051     16681.95     25919.31      27254.3     77.41736     155.4538     310.6913      1.619     3.77     840.3942     54.78618     2526.962        51     1.661     1.045 -33.70   0
       290    459.6075    568.8528 307.7331366  +6.4553852     828.9367     1022.096     497.6057     77.41736     155.2683     310.5367      1.394     4.93      841.412     54.78618     154.6421        10     1.320     0.554 -30.97   0
       291    171.6823    567.4412 307.8527539  +6.4463069     1668.875     3125.661     4002.288     77.91204     155.4538     310.7531      2.365     8.02     840.9783     54.78618     269.6332        29     2.380     0.873 -31.90   0
       292    246.1019    565.4587 307.8219162  +6.4496251     829.6354     1369.813     1564.261     77.66509      155.392     310.9385      1.501     4.90     839.8714     54.78618     129.6431         9     1.273     0.533 -47.17   0
       293    107.9130    565.2032 307.8793108  +6.4450874     809.9306     1175.037     880.6302     77.41736     155.0826     310.5676      1.677     4.46     841.6216     54.78618     125.0616         8     1.086     0.520 -52.83   0
       294    804.4821    564.0482 307.5900713  +6.4689041     5629.806     8535.464     9876.317     77.91204     155.4538     310.8458      1.642     3.66     841.7932     54.78618        814.7        31     1.533     0.961 -25.79   0
       295    535.3499    563.8350 307.7018499  +6.4599937     6521.392     10008.01     10073.45     77.78867     155.4538     310.7222      1.624     3.92      841.759     54.78618     981.3386        30     1.532     0.913 -28.14   0
       296    393.7616    560.4815 307.7607631  +6.4566343     1467.596     2124.662     2458.445     77.91204     155.5156     310.7531      1.698     3.65      840.611     54.78618     225.5353        16     1.326     0.756 -31.95   0
       297    579.9070    557.0208 307.6835743  +6.4642983     2341.923     4014.581     4117.756     77.78867     155.2683     310.6294      1.804     4.40     841.4009     54.78618     403.7029        27     1.726     0.922 -25.62   0
       298    182.3018    557.0444 307.8486943  +6.4509559     6614.914      10444.8      11528.7     77.91204      155.392     311.0312      1.690     3.68       840.48     54.78618     1021.972        35     1.600     0.999 -33.15   0
       299     53.8742    555.6885 307.9020723  +6.4471979     4819.626     7511.974     8110.772     77.91204     155.7624     310.8767      1.664     3.81     841.7888     54.78618     685.8982        31     1.460     1.022 -39.22   0
       300    821.2023    556.2575 307.5833882  +6.4726787     1385.026     2206.784     2178.382     77.29319     155.1446     310.5676      1.593     3.84     841.6439     54.78618     226.6756        14     1.262     0.750 -33.41   0
       301    277.5725    553.4676 307.8092509  +6.4556321     85595.49       131942     139407.1     77.54132      155.392     310.7222      1.690     3.77     839.4207     54.78618     12297.51        87     1.736     1.143 -31.92   0
       302    566.9115    551.0841 307.6891706  +6.4663143     829.8114     1239.833     1532.169     77.66509     155.6391     310.8767      1.339     3.08      841.219     54.78618     153.4138         7     0.891     0.495 -46.41   0
       303    261.1988    548.4629 307.8162192  +6.4571485     1386.416     2029.042     829.8148     77.29319     155.2683     310.5676      1.558     4.41     839.1339     54.78618     206.8756        14     1.342     0.730 -19.59   0
       304    976.9500    547.4496 307.5189982  +6.4815105     1514.494     2266.248     1930.318     77.91204     155.3302     310.7531      1.458     4.24      839.123     54.78618     214.1385        15     1.399     0.691 -33.50   0
       305    800.7013    545.9719 307.5922471  +6.4762407     15728.26     23791.99     25105.03     78.03522     155.2065      310.784      1.594     3.66     841.4917     54.78618     2308.476        45     1.597     1.001 -30.49   0
       306    504.3320    544.3383 307.7153866  +6.4670041     39548.53     65472.03     70724.72     77.91204      155.392     310.8149      1.820     3.98     840.7521     54.78618     5147.326        75     1.801     1.260 -23.78   0
       307    654.7250    542.6776 307.6529833  +6.4727228     958.1124     1464.861     1234.258     78.15821     155.7007     310.8767      1.710     5.47     841.2377     54.78618     136.4615        11     1.289     0.653 -29.99   0
       308    216.7187    540.6500 307.8349542  +6.4588803     1922.748     3072.805     4089.729     77.91204     155.5156     310.8458      1.806     3.81     839.1003     54.78618     284.9937        20     1.373     0.858 -33.24   0
       309     52.5109    540.7617 307.9031422  +6.4533142     1205.983     1765.177     2054.341     77.91204      155.392     310.8458      1.692     4.32     841.6134     54.78618     222.3668        11     1.330     0.552 -37.66   0
       310    674.5460    539.3702 307.6448624  +6.4747510     1414.375     2101.941     2334.918     77.66509     155.5156     310.7222      1.549     3.52     841.1682     54.78618     212.1364        16     1.204     0.880 -25.92   0
       311    664.3077    539.2855 307.6491173  +6.4744436     3032.146     4292.602     4837.501     77.66509     155.8857     310.9076      1.544     3.87     841.1019     54.78618     440.0649        21     1.460     0.792 -29.60   0
       312    726.4582    538.2120 307.6233414  +6.4769644     1385.748     2153.742     2756.865     77.29319      155.392     310.5367      1.609     3.92     841.1783     54.78618     220.2369        11     1.141     0.704 -34.16   0
       313     83.1614    537.2814 307.8905313  +6.4557821      689.649     1012.798     975.8754     77.91204     155.5156     310.7531      1.483     4.43     841.4517     54.78618     109.5369         7     1.195     0.468 -69.40   0
       314    401.6794    535.1674 307.7583264  +6.4673505      1553.33     2307.809     2177.817     77.78867     155.4538     310.8149      1.572     4.28     839.8998     54.78618     240.2596        17     1.370     0.842 -24.27   0
       315    148.6655    531.8242 307.8635130  +6.4602373     25219.28     38871.77     41173.54     77.54132     155.4538     310.7222      1.637     3.77     840.5111     54.78618     3617.802        57     1.699     1.056 -29.55   0
       316    333.4498    533.2738 307.7867256  +6.4658440     3789.109     5869.039     6135.999     77.91204     155.5156     310.8458      1.664     3.94     838.5124     54.78618     493.4589        25     1.487     0.868 -30.90   0
       317    876.4702    532.0156 307.5612462  +6.4845316     1526.863     2284.013     1836.462     77.41736      155.392     310.7222      1.591     4.39     840.8902     54.78618     222.7478        17     1.441     0.747 -41.30   0
       318    513.4880    532.5881 307.7119788  +6.4721617     2178.518     3450.252     4072.773     77.54132     155.1446     310.6913      1.804     3.89     840.3441     54.78618        333.2        20     1.544     0.790 -23.19   0
       319    113.7858    530.0578 307.8780574  +6.4597940     2434.937     3615.498     3619.728     77.29319     155.3302     310.5057      1.560     3.72     841.0193     54.78618     337.6672        20     1.356     0.855 -36.69   0
       320    350.4264    528.6353 307.7798313  +6.4683285     1050.844     1603.373     2110.859     77.41736     155.2065     310.5676      1.775     4.15     838.3541     54.78618     169.0624        11     1.180     0.676 -27.63   0
       321    974.1843    526.4771 307.5208482  +6.4900770      4898.18     7364.592     7901.132     77.41736     155.1446     310.6913      1.604     3.67     838.6989     54.78618      714.915        29     1.499     0.940 -33.36   0
       322    547.5200    518.8964 307.6983050  +6.4789538     1377.803     2178.452     2150.806     77.66509     155.7007     310.9076      1.614     4.42     839.8505     54.78618      239.996        15     1.415     0.697 -30.31   0
       323     12.9256    516.1718 307.9204110  +6.4621336     24232.64     38070.39     41388.67     77.78867     155.4538     310.7531      1.657     3.68     841.7701     54.78618      3597.37        62     1.695     1.130 -30.23   0
       324    445.6697    512.9847 307.7408030  +6.4779830     41632.16     63784.29      66665.5     77.41736      155.392     310.7222      1.619     3.66      839.459     54.78618     5923.167        65     1.676     1.078 -32.40   0
       325    653.6959    512.6544 307.6544180  +6.4850834     12087.85     18049.33     19319.44     77.78867     155.4538     311.0312      1.584     3.62     839.7316     54.78618     1801.486        37     1.549     0.962 -29.97   0
       326    293.8764    512.6085 307.8038559  +6.4730475     951.6381      1642.13     1652.379     77.54132     154.9587     310.6295      1.692     5.82     837.7211     54.78618     148.4833        11     1.522     0.626 -47.10   0
       327    210.8350    510.5398 307.8384123  +6.4711132     18415.15     30010.12     32094.52     77.91204     155.4538      310.784      1.774     3.75     838.4799     54.78618      2472.69        58     1.680     1.231 -26.69   0
       328    176.3757    511.6618 307.8526851  +6.4694923     1402.786     2253.911     2399.798     77.54132      155.392     310.7222      1.745     4.61      839.363     54.78618     239.3997        16     1.581     0.617 -33.50   0
       329      1.3894    510.0702 307.9254077  +6.4642642     987.7707     1832.099     2980.289     68.04082     124.1992     234.6794      2.612     5.55     841.8782     54.78618      202.707        14     1.802     0.591  81.43  24
       330    987.5956    511.0193 307.5157950  +6.4969058     1014.613     1320.992     1696.944     77.54132     155.0826     310.6295      1.443     3.16     837.9758     54.78618     160.0853        10     1.041     0.666 -18.97   0
       331    827.6518    510.7081 307.5822352  +6.4916992     1015.461     1497.539     1006.304     77.78867     155.3302     311.0312      1.542     3.45     840.3665     54.78618     145.5936        10     1.085     0.626 -36.94   0
       332    575.5463    509.5544 307.6869790  +6.4837487     2868.717     4312.188     4237.983     77.91204     155.4538     310.8458      1.618     3.81     839.4134     54.78618     459.7516        20     1.370     0.828 -29.70   0
       333    916.6032    510.1427 307.5453099  +6.4949008     655.1295     1068.575     809.5576     77.29319     155.3302     310.5367      1.561     4.24     839.6389     54.78618     105.4182         7     1.072     0.478 -40.54   0
       334    949.3721    506.6788 307.5318158  +6.4974236      4533.78     6855.125     7257.999     77.78867      155.392     310.8149      1.617     3.72     838.8765     54.78618     636.4042        28     1.497     0.940 -30.13   0
       335    622.5120    504.9413 307.6676282  +6.4872248     6341.331     9558.676      10079.7     77.91204     155.4538     310.9076      1.632     3.58     839.1927     54.78618     959.0435        35     1.598     0.980 -31.25   0
       336    110.2828    505.3872 307.8803443  +6.4698611     1126.951     1468.578     1309.365     77.54132     155.2065     310.6604      1.431     3.40     840.6589     54.78618     173.0984        13     1.017     0.872 -61.70   0
       337    972.0035    498.9290 307.5226754  +6.5013777     3148.415     4995.615     5094.254     77.41736     155.0826     310.6604      1.590     3.68     838.1011     54.78618     497.5762        25     1.430     0.913 -28.55   0
       338    534.6751    496.2616 307.7043999  +6.4878685     7389.935     10962.52     11347.58     78.15821     155.4538     310.8149      1.566     3.67     838.8446     54.78618     1064.225        34     1.524     0.966 -31.89   0
       339    380.6306    496.4210 307.7683714  +6.4826409     2783.937     4106.093     4369.687     77.41736     155.2683     310.6913      1.592     3.61     837.8187     54.78618     361.9113        19     1.357     0.797 -32.02   0
       340    891.2969    492.0974 307.5564245  +6.5015067     3182.476     4685.928     5573.664     77.91204     155.9473     310.6604      1.655     3.80     839.4014     54.78618     437.7604        24     1.484     0.842 -31.89   0
       341    410.2590    497.7108 307.7560230  +6.4831018     672.3179     827.4672     1293.602     77.78867     155.5156     310.9076      1.312     4.17     838.6931     54.78618     96.18805         7     1.080     0.460 -27.46   0
       342    898.6171    486.5805 307.5535687  +6.5040286     2171.649      3200.07     3183.284     77.66509     155.2683     310.7222      1.620     4.03     839.1318     54.78618      294.818        17     1.302     0.795 -36.07   0
       343    937.8928    485.7962 307.5372822  +6.5056624     1280.101     1667.358      1380.14     77.54132     155.1446     310.5367      1.429     4.30     838.5045     54.78618     195.5891        13     1.291     0.678 -41.11   0
       344    117.6359    485.8596 307.8779493  +6.4781699     566.9928     903.2094     887.0674     77.91204     155.4538      310.784      1.789     4.42     840.1201     54.78618     86.62976         7     1.111     0.500 -20.36   0
       345    275.7812    484.8623 307.8123052  +6.4838948     537.8771     793.7547     674.3514     77.54132      155.392     310.6913      1.532     5.18     836.7911     54.78618     88.99329         7     1.265     0.600 -39.76   0
       346    722.4295    482.4586 307.6268840  +6.4998476     3017.722     4510.403     4778.592     77.66509     155.5156     310.7222      1.647     3.77     838.7639     54.78618     410.3076        24     1.461     0.912 -34.55   0
       347    393.3706    480.7831 307.7636064  +6.4895240     3717.673     5542.401     5812.432     77.54132     155.2065     310.7531      1.576     3.85     837.5676     54.78618     535.2214        24     1.447     0.869 -30.69   0
       348     84.2101    481.4892 307.8919783  +6.4788501     1735.741     2559.033     2359.528     77.66509     155.1446     310.6295      1.641     3.95     840.7976     54.78618     239.4994        18     1.432     0.769 -26.82   0
       349    433.5536    481.0713 307.7469080  +6.4907522     875.6609     1330.405     1576.294     77.91204     155.4538     310.8149      1.727     3.78     838.2352     54.78618     149.1907         9     1.013     0.591 -36.51   0
       350    621.1208    477.2676 307.6691347  +6.4986033     10039.43     15276.28     15974.85     78.03522     155.6391     310.8149      1.602     3.59     837.9387     54.78618     1522.591        38     1.591     0.964 -32.45   0
       351    784.1037    473.5603 307.6015667  +6.5055817     15741.58     24389.81      27175.4     77.91204     155.3302     310.9694      1.727     4.16      839.058     54.78618      2342.55        59     2.151     1.042 -41.14   0
       352    303.6205    474.1321 307.8011047  +6.4892591     2617.829     4086.122     4074.523     77.54132      155.392     310.7222      1.616     3.86     836.2528     54.78618     384.9979        22     1.492     0.819 -34.45   0
       353    427.2557    473.8406 307.7497668  +6.4935262     715.4443     1128.702     1219.881     77.78867     155.5156     310.8458      1.765     5.09     837.8259     54.78618     103.2257        10     1.119     0.656 -22.75   0
       354    812.7447    470.9649 307.5897579  +6.5076096     1369.698     2172.907     2226.041     77.78867     155.4538     310.8458      1.734     4.13     839.0743     54.78618     220.2164        13     1.384     0.588 -33.65   0
       355    386.7529    470.5288 307.7666998  +6.4935355     1523.167     2177.309     2510.799     77.91204     155.4538     310.8149      1.545     4.09      836.942     54.78618     217.7861        15     1.311     0.749 -32.47   0
       356    969.1475    468.7436 307.5248712  +6.5137447     1925.521     3009.166     2931.449     77.91204     155.4538     310.8149      1.596     4.38     837.3245     54.78618     276.3623        19     1.532     0.754 -30.22   0
       357    759.2689    464.8662 307.6121730  +6.5083415      2256.19     3675.307     3846.846     77.91204     155.5156     310.8458      1.708     3.99     838.6463     54.78618     319.5493        26     1.530     1.016 -29.97   0
       358    375.2303    466.6909 307.7716145  +6.4947335     667.8344     929.5325     1083.003     78.03522     155.2683      310.784      1.311     4.34     836.5087     54.78618       103.07         6     1.015     0.529 -32.96   0
       359    121.2935    465.6735 307.8771112  +6.4866264     4400.528     6616.608     7139.368     77.78867     155.5773     310.8149      1.596     3.60     839.3253     54.78618     639.0242        26     1.477     0.902 -30.50   0
       360   1022.5757    463.6503 307.5028501  +6.5176281     3846.882      5305.04      5003.49     77.54132     138.6686     250.8992      1.573     3.77     836.0643     54.78618     438.9807        24     1.213     1.132 -42.26  24
       361    247.8886    464.4842 307.8245756  +6.4913711     2548.259     2605.335     2962.984     77.66509     155.7007     310.9076      0.911     3.13     836.5953     54.78618     796.4994         6     0.913     0.382 -46.26   0
       362    279.0912    462.7967 307.8116737  +6.4931154     1424.933     2097.977     2344.038     77.54132     155.1446     310.5676      1.660     3.50     836.0895     54.78618     236.1452        12     1.253     0.614 -29.76   0
       363    357.3255    460.4486 307.7792607  +6.4967101     3210.724     5036.511     5336.199     77.78867     155.5156     310.8458      1.719     4.03     835.9177     54.78618     445.2387        22     1.448     0.874 -22.60   0
       364    713.2883    458.2634 307.6314919  +6.5095311     1575.414     2410.115     2840.183     77.78867     155.6391     310.8458      1.681     4.31     838.0832     54.78618     231.4867        16     1.347     0.749 -28.55   0
       365    986.8749    457.2917 307.5178912  +6.5190636     614.6891     713.3828     782.1203     77.91204     155.5773     310.8458      1.342     3.61     836.5593     54.78618     107.1837         6     0.840     0.620 -31.86   0
       366    242.9425    456.5550 307.8268970  +6.4944785     1009.394     2429.887     2717.939     77.91204     155.4538     310.8767      2.249     3.29     836.4854     54.78618     660.4473        15     2.264     0.512 -11.54   0
       367    554.8145    451.1830 307.6975497  +6.5071533     835.6294     1300.125     1658.285     77.66509     155.1446     310.7531      1.624     5.21     836.9874     54.78618     125.8406        10     1.324     0.578 -33.14   0
       368    455.0339    452.2232 307.7389568  +6.5033817     539.0255     712.5449     375.0179     77.41736     155.2065     310.5985      1.336     3.68      836.733     54.78618     87.37726         5     0.798     0.503 -55.44   0
       369    477.0690    449.1894 307.7299069  +6.5053726     1405.189     2068.224     1985.904     77.41736     155.2683     310.6294      1.595     3.92     836.7456     54.78618     195.5023        14     1.208     0.759 -28.12   0
       370    839.2629    448.3032 307.5795028  +6.5178509     1499.861      2419.19     2645.099     77.78867     155.5773     310.8767      1.635     4.46     838.2504     54.78618     230.1136        15     1.430     0.703 -31.72   0
       371    824.9070    447.2958 307.5854993  +6.5177876     1959.327      3037.96     3357.849     77.91204     156.0089     310.7531      1.578     3.74     838.2602     54.78618     289.0769        18     1.295     0.933 -23.64   0
       372    722.3332    445.5187 307.6281626  +6.5150950     14872.32     22176.67     23256.16     78.03522     155.7007     310.8458      1.613     3.60     837.9037     54.78618      2228.93        43     1.549     1.027 -27.55   0
       373    624.2133    447.8044 307.6688393  +6.5108705     691.8698     1102.517     1401.144     77.54132     155.1446     310.6913      1.657     3.29     837.1701     54.78618     139.1478         6     0.900     0.557 -25.44   0
       374    643.3698    441.4370 307.6610965  +6.5141401     2643.199     4102.864     4970.181     77.54132     155.2065     310.6604      1.835     3.90     837.0789     54.78618     388.1736        23     1.459     0.958 -21.22   2
       375    618.5370    438.6590 307.6715039  +6.5144563     5263.795     8150.824     8986.332     78.03522      155.392     310.8458      1.666     3.83      836.903     54.78618     788.1727        28     1.643     0.837 -35.17   3
       376    614.7865    436.0359 307.6731496  +6.5154137     14163.05     21884.57     23055.68     77.41736     155.2683     310.5985      1.618     3.66     836.8002     54.78618     2119.176        44     1.686     0.993 -26.71   3
       377    947.6297    435.4084 307.5349239  +6.5267899     3538.504     5299.315     5071.026     77.41736     155.2683     310.5985      1.593     3.78     836.6191     54.78618     501.8574        23     1.486     0.825 -30.78   0
       378    386.7957    431.3190 307.7680012  +6.5097244     28007.53     43324.95     46040.29     77.41736     155.0207     310.5367      1.655     3.77     835.1069     54.78618     3812.207        61     1.687     1.098 -31.16   0
       379    903.3134    430.9788 307.5534793  +6.5271407     1338.892     2033.284     2269.817     77.91204     155.2065     310.6913      1.626     4.17     837.1436     54.78618     194.7993        15     1.352     0.756 -38.68   0
       380    132.5760    430.7881 307.8736022  +6.5014075     2360.659     3692.829     3886.196     77.54132     155.2683     310.7531      1.696     3.73     837.7006     54.78618     333.2251        20     1.319     0.928 -25.25   0
       381    899.7764    427.6012 307.5550615  +6.5284171     703.2723     1286.332     998.8082     77.54132     155.1446     310.5985      1.860     6.24     837.0698     54.78618     80.85822         9     1.262     0.867 -41.12   0
       382    916.3959    425.9146 307.5482148  +6.5296678     4920.487     7557.323     7641.592     77.41736     155.0826     310.5057      1.598     3.58      836.839     54.78618     765.4263        28     1.473     0.934 -27.53   0
       383     66.1171    426.2215 307.9013574  +6.5010576     1395.801     2114.488     2637.177     77.66509     155.1446     310.6913      1.676     3.51       838.62     54.78618     214.1896        15     1.196     0.833 -28.64   0
       384    972.1808    424.1278 307.5251037  +6.5322657     730.1527     1082.018     722.3716     77.54132      155.392     310.7531      1.629     4.66     835.7629     54.78618     112.5988         8     1.294     0.476 -42.07   0
       385    244.2558    421.9173 307.8275185  +6.5088223     13564.85     20880.83     21731.62     77.91204     155.4538     310.9076      1.643     3.67     835.5332     54.78618     2006.188        49     1.678     1.055 -29.59   0
       386     79.5852    416.1099 307.8961052  +6.5056850     882.3326     1241.473     1430.616     77.66509     155.2683     310.6604      1.622     4.23     837.9204     54.78618     119.1125        11     0.996     0.818 -37.86   0
       387    967.4827    414.4936 307.5273774  +6.5360866     877.4201     1272.263     1101.249     77.66509     155.7624     310.9385      1.704     4.70     835.4753     54.78618     126.8326        10     1.287     0.621 -49.84   0
       388    738.5729    416.1259 307.6224030  +6.5277725       631.28     943.5065     1319.685     77.66509      155.392      310.784      1.578     3.57     837.3514     54.78618     123.7723         7     0.904     0.578  -8.08   0
       389   1017.3621    414.6675 307.5066533  +6.5376772     511.5965     716.4911     453.2227     77.78867     155.4538     307.6779      1.564     4.60      834.456     54.78618     74.57568         6     1.115     0.539 -31.99  16
       390    707.0424    414.8602 307.6355418  +6.5272413     747.0575     951.4675     1143.816     77.91204     155.4538     310.9076      1.342     4.34     836.9525     54.78618     110.5484         6     0.824     0.652 -16.91   0
       391    357.5143    411.4205 307.7808323  +6.5169572     1276.287     2121.656     2006.305     77.54132     155.2065     310.7222      1.681     4.92     834.2858     54.78618     173.4504        17     1.454     0.792 -35.53   0
       392    190.1095    411.6631 307.8503524  +6.5112367     868.3817      1381.86     1474.864     77.91204     155.5773     310.8767      1.660     5.14     836.2289     54.78618     157.6024        10     1.422     0.525 -28.05   0
       393    144.5307    410.5118 307.8693211  +6.5101801     5012.284     7975.335     7942.295     77.91204     155.7008     310.8149      1.705     3.87     836.8884     54.78618      698.777        29     1.571     0.922 -33.88   0
       394    441.5320    409.5403 307.7459997  +6.5205505     638.2639     728.0197     681.2631     78.03522      155.392     310.8149      1.119     4.71     834.3487     54.78618     102.8311         7     1.011     0.637 -43.48   0
       395    249.4235    409.4950 307.8257907  +6.5141242     1333.033     2040.119     2148.565     78.03522     155.2065     310.6913      1.636     3.69     835.0992     54.78618     200.3979        12     1.166     0.667 -36.50   0
       396    830.3772    407.0714 307.5845746  +6.5345769     949.9567     1273.004     1200.844     77.54132     155.2683     310.8149      1.394     4.31     836.7951     54.78618     164.7914        10     1.197     0.876 -42.94   0
       397    166.7117    406.3459 307.8602493  +6.5126455     2454.628     4224.622     4674.589     77.91204     155.3302     310.9385      1.826     4.36      836.481     54.78618     356.5568        23     1.494     1.008 -38.81   0
       398    562.1895    405.3603 307.6960256  +6.5263178     1017.265     1487.966      1547.81     77.29319     155.2683     310.5676      1.536     4.26     834.8499     54.78618      181.791        13     1.250     0.761 -28.42   0
       399    389.9252    401.0968 307.7677182  +6.5223062     2107.653     3069.398     3083.098     77.54132     155.5773     310.8458      1.524     3.41     833.6534     54.78618     326.7107        18     1.263     0.833 -39.78   0
       400      9.0606    401.6507 307.9258832  +6.5092810     684.7979     1110.807     930.3636     77.91204      155.392     310.8149      1.460     5.07     838.6208     54.78618     113.3052         8     1.247     0.583 -30.46   0
       401    978.7022    400.0966 307.5231987  +6.5424044     935.9977     1655.631     1731.107     77.91204     156.0089     310.6604      2.003     5.33     834.4019     54.78618     139.5191        10     1.224     0.655 -57.11   0
       402    278.0172    401.5189 307.8141836  +6.5183771     586.5587       957.07      948.381     77.54132     155.1446     310.7222      1.360     3.73     834.2432     54.78618     114.7227         6     0.835     0.478 -12.26   0
       403    597.3339    397.6906 307.6816859  +6.5306605     524.0144     647.1631     669.3743     77.91204     155.5773     310.8458      1.511     3.17     834.7239     54.78618     137.4471         5     0.965     0.455  -5.33   0
       404    443.9214    394.6930 307.7455066  +6.5267602     7016.913     11089.04     11509.98     77.66509     155.6391     310.8767      1.668     3.77     833.5747     54.78618     1007.199        38     1.601     1.018 -29.91   0
       405     40.2770    395.3862 307.9131301  +6.5129178     3159.695      5243.61     5768.085     77.54132     155.1446     310.6295      1.780     4.35     837.8803     54.78618     424.4492        29     1.795     0.887 -39.01   0
       406    776.4435    393.6829 307.6074254  +6.5383033     2009.128     3052.688     3602.522     77.91204     155.4538      310.784      1.699     3.89     836.2753     54.78618     330.7842        20     1.520     0.821 -22.33   3
       407    784.5314    392.0695 307.6041200  +6.5392395     12687.92     19054.21     20324.52     77.91204     155.5773      310.784      1.601     3.69     836.1774     54.78618     1834.768        42     1.578     0.987 -31.70   2
       408    347.6718    390.5031 307.7856243  +6.5252625     944.1965     1554.775      1512.28     77.78867     155.5773      310.784      1.678     4.21      833.325     54.78618     147.2281        10     1.201     0.608 -27.13   0
       409    192.3786    382.9511 307.8503779  +6.5231662     757.5873     1107.951     991.8919     77.54132     155.5156     310.6913      1.519     6.15     835.6134     54.78618     116.3764        11     1.242     0.855 -25.39   0
       410    909.5427    382.2839 307.5525218  +6.5474523     511.1668     774.3913     913.9745     77.91204     155.4538     310.9076      1.532     3.47     835.3755     54.78618     82.79047         5     0.756     0.460 -71.39   0
       411    491.9512    378.4574 307.7261033  +6.5350723     2992.821     4739.034     4714.169     77.91204     155.4538     310.9385      1.719     4.43     832.9774     54.78618     406.0022        25     1.519     0.876 -36.81   0
       412    464.1494    379.0094 307.7376323  +6.5339130     2096.128     3281.582     3405.254     77.41736     155.3302     310.5057      1.668     3.92      832.922     54.78618     372.1698        20     1.472     0.815 -32.58   0
       413    920.6556    378.4705 307.5480334  +6.5493974      937.375     1489.238      1562.15     77.91204      155.392      310.784      1.649     5.45     835.1465     54.78618     143.1912        11     1.264     0.699 -33.75   0
       414    849.8812    375.0204 307.5775469  +6.5484603     31911.11     50834.54     54143.89     77.66509     155.1446     310.7531      1.687     3.74     835.4617     54.78618     4468.244        64     1.672     1.170 -39.27   0
       415    342.1761    370.7515 307.7885718  +6.5332323     827.6375     1135.586     1350.653     77.54132     155.4538     310.7222      1.473     4.59     832.3773     54.78618     123.3589         9     1.034     0.626 -32.85   0
       416     67.4626    371.1441 307.9026576  +6.5238404     683.0054     1108.162     1201.503     78.03522     155.4538     310.8149      1.622     5.05     836.7969     54.78618     105.9836         9     1.301     0.555 -21.51   0
       417    621.5952    367.5675 307.6726200  +6.5439084     2734.361     4070.641     3832.217     77.29319     155.3302     310.5985      1.547     3.77     832.9618     54.78618      398.744        20     1.413     0.777 -34.42   0
       418     29.6021    367.7368 307.9184972  +6.5239730      1032.05     1653.452     2119.194     77.29319     155.2065     310.5985      1.743     4.82     836.8763     54.78618     147.6856        14     1.205     0.916 -26.74   0
       419    152.2233    366.3257 307.8676163  +6.5286801     526.4761     763.7006      558.438     77.54132     155.2683     310.7531      1.082     3.41     835.8045     54.78618     94.25812         5     1.152     0.292 -55.12   0
       420    706.3232    361.0095 307.6376467  +6.5494494     78798.16       118851     125245.7     77.54132     155.0207     310.6295      1.603     3.64     834.2195     54.78618     12070.55        86     1.694     1.116 -29.14   0
       421    864.7081    362.4593 307.5718088  +6.5541410     1218.684     1851.188         1991     77.78867      155.392     310.9694      1.600     5.56     835.0267     54.78618     182.3538        14     1.410     0.683 -28.52   0
       422     85.6706    360.4741 307.8954554  +6.5288578     1338.636     1928.854      2344.43     78.15821     155.5773     310.8458      1.683     3.82     836.4196     54.78618     228.7966        13     1.228     0.712 -29.66   0
       423    568.8214    357.7223 307.6948711  +6.5462069     2664.104     3895.662     3745.263     77.54132     155.2065      310.784      1.602     3.70     831.4977     54.78618     398.6715        19     1.312     0.845 -29.21   0
       424    948.1611    357.9788 307.5372939  +6.5587747     726.2536     1044.122     648.4673     77.54132     155.2683     310.5985      1.444     5.01     833.4764     54.78618     117.2974        10     1.283     0.553 -26.39   0
       425    105.9495    356.3927 307.8871706  +6.5312248     5977.008     9454.325     9952.069     77.41736     155.2683     310.4748      1.662     3.70     836.1915     54.78618     801.1719        35     1.496     1.076 -35.09   0
       426    552.0291    353.9587 307.7019725  +6.5471985     6868.483     10464.37      11384.6     77.54132     155.3302     310.6913      1.576     3.70     831.0181     54.78618     1060.286        31     1.530     0.900 -33.17   0
       427    281.0557    351.4709 307.8146073  +6.5391407     2588.969     3878.948     3880.019     77.78867      155.392      310.784      1.572     3.45     832.2534     54.78618      360.624        20     1.423     0.792 -30.21   0
       428    414.9946    349.0692 307.7590560  +6.5446259     25099.07     39454.77      42021.7     77.41736     155.0826     310.6604      1.652     3.71     831.0041     54.78618     3800.477        58     1.692     1.079 -31.06   0
       429    594.1395    348.0277 307.6846804  +6.5510567     702.0415     939.6018      676.297     77.54132     155.5156     310.7222      1.527     4.29     831.2809     54.78618     103.9277         7     1.187     0.441 -33.11   0
       430    522.8828    347.7684 307.7142869  +6.5487782     1162.364     1678.744     1861.257     77.91204     155.2683     310.6913      1.608     5.46     830.9502     54.78618     178.1149        13     1.497     0.615 -25.32   0
       431    394.8581    347.1184 307.7674855  +6.5447561     1170.429     1699.098     2551.497     77.91204     155.4538     310.8458      1.566     4.93     831.0524     54.78618     174.0574        14     1.250     0.874 -10.15   0
       432    681.2753    347.4785 307.6485049  +6.5541983     557.1882     508.8159     336.2321     78.15821     155.7007     310.9076      1.008     3.49     833.2382     54.78618     109.3581         5     0.742     0.474  15.93   0
       433    494.3102    344.4553 307.7262663  +6.5491889       1158.7     1720.739     1942.101     77.78867     155.2683     310.9385      1.795     4.36     831.0907     54.78618     200.0938        11     1.236     0.598 -40.45   0
       434    809.4087    341.3530 307.5954862  +6.5610087     863.3373     1346.073     901.0639     77.41736      155.392     310.4748      1.674     6.38     833.8973     54.78618     123.2928        10     1.297     0.882  12.44   0
       435    504.0653    339.4802 307.7223816  +6.5515696     8395.535     12828.92      13229.1     78.15821     155.5773      310.784      1.617     3.74     830.8187     54.78618     1148.143        37     1.588     0.983 -33.09   0
       436    392.1230    341.1466 307.7688225  +6.5471297     762.5112     1288.249     2110.433     78.03522     155.4538     310.8149      2.009     5.74     830.8929     54.78618     105.1373         9     1.277     0.727  -2.44   0
       437    773.2440    338.1896 307.6106145  +6.5611068     3139.564     4793.208     5512.317     77.41736     155.3302     310.5367      1.644     3.43     833.6628     54.78618     497.2886        24     1.495     0.883 -29.98   0
       438    720.6646    337.8855 307.6324652  +6.5594755     772.5068     1361.027     2154.415     78.03522     155.6391     310.8458      1.958     5.08     833.3709     54.78618     129.7676         9     1.366     0.534 -46.39   0
       439    928.6935    338.0737 307.5460467  +6.5663434      864.782      1363.83     1617.084     77.78867     155.5773     310.8149      1.793     5.80     833.4646     54.78618     139.9614        10     1.516     0.624 -22.96   0
       440    330.6573    336.3155 307.7945154  +6.5470623     975.9391      1630.41     1560.186     77.91204     155.4538     310.9076      1.735     5.64     831.3094     54.78618     129.1296        12     1.401     0.640 -21.13   0
       441    165.6912    329.9408 307.8632496  +6.5441536     1005.993     1652.853     1919.306     77.78867     155.4538     310.9385      1.805     4.80     834.7487     54.78618     130.1865        14     1.293     0.785 -36.45   0
       442    442.4695    329.7197 307.7482947  +6.5535352     573.4197     842.9304     454.0345     78.15821     155.7007      310.784      1.304     3.42     830.4124     54.78618     93.98999         5     0.757     0.447 -68.67   0
       443    393.8874    323.6273 307.7686791  +6.5544215     7344.995     11383.67     12352.01     78.03522     155.2065     310.6913      1.636     3.64     830.3599     54.78618     1025.639        36     1.571     0.981 -31.57   0
       444    249.6199    324.2464 307.8285815  +6.5493244     2044.508     3090.752     3328.474     77.54132     155.4538     310.6295      1.582     4.03     832.4704     54.78618     294.0768        20     1.422     0.847 -43.15   0
       445    747.7364    323.4775 307.6217032  +6.5663285     981.7723     1455.191     1246.918     78.15821     155.5156     310.8149      1.469     3.95     832.9012     54.78618     133.8752        11     1.186     0.633 -18.23   0
       446    761.8126    319.5435 307.6159880  +6.5684230     53229.78      80623.3     84511.57     77.29319      155.392     310.5057      1.608     3.69     832.8596     54.78618     7707.879        72     1.668     1.078 -30.74   0
       447    433.2025    318.9732 307.7525054  +6.5576611     2321.593     3632.728     3536.067     77.41736     155.2065     310.6294      1.625     3.97     829.9301     54.78618     314.6043        20     1.407     0.827 -28.80   0
       448    996.7183    316.4057 307.5185145  +6.5775570     1614.785     2531.113     2583.363     77.54132     155.0207     310.5985      1.644     4.35     829.4781     54.78618      253.405        18     1.481     0.735 -28.81   0
       449    937.5096    315.7079 307.5431331  +6.5758711     2244.778     3524.691      3370.14     77.91204     155.9473     310.8767      1.609     4.01     831.9642     54.78618     329.0587        19     1.424     0.800 -27.64   0
       450    579.4693    316.4298 307.6918352  +6.5636107      1270.03     1907.581      1918.64     77.78867     155.4538     310.7531      1.484     3.46     830.2714     54.78618      178.481        11     1.055     0.718 -31.64   0
       451    470.3313    315.3153 307.7372061  +6.5604157      1177.71     1695.651     2129.178     78.15821     155.7007     310.8458      1.591     4.24     829.9799     54.78618     158.8879        11     1.080     0.681 -42.14   0
       452    420.0033    314.4229 307.7581410  +6.5590972      1884.95     3119.654     3357.123     77.54132     155.1446     310.6604      1.706     4.40     829.6636     54.78618     285.5555        20     1.485     0.938 -27.15   0
       453    299.6507    313.8116 307.8081522  +6.5553120     739.5242     1186.808     897.4144     77.29319     155.3302     310.5367      1.574     4.04     831.1357     54.78618     135.4172         8     1.030     0.686 -48.66   0
       454    840.7890    309.2514 307.5835267  +6.5753095      1121.25     1856.995      1849.96     77.29319     155.3302     310.5676      1.804     4.40     832.8275     54.78618     181.0964        13     1.323     0.687 -32.18   0
       455    470.3096    309.5262 307.7374098  +6.5628049      703.527     1308.476     1561.782     77.91204     155.7007     310.8458      1.977     4.62     829.7797     54.78618     122.5283         9     1.260     0.481  -6.61   0
       456    972.7360    307.0370 307.5287901  +6.5806255     598.0176      976.003     1280.064     77.78867     155.4538     310.8767      1.950     5.57     830.1252     54.78618     98.18341         9     1.359     0.643 -42.58   0
       457    196.4436    305.8177 307.8512899  +6.5551460     2249.264     3378.055     3899.147     77.41736     155.3302     310.5985      1.651     4.16     833.1807     54.78618     317.4136        22     1.480     0.878 -26.91   0
       458    760.2488    304.0920 307.6171556  +6.5747498     5999.784     8968.981     9843.674     77.78867     155.3302     310.9385      1.578     3.61     832.1556     54.78618      869.629        29     1.518     0.912 -28.26   0
       459    450.6005    306.0480 307.7457134  +6.5635803     1104.878     1443.266     1957.002     77.16882     155.0826      310.382      1.563     4.97     829.5191     54.78618     191.0552        11     1.234     0.602 -27.44   0
       460    232.1325    304.0532 307.8365256  +6.5570734     717.4094     1083.239     765.4811     77.91204      155.392     310.7222      1.620     5.86     832.0312     54.78618     113.4131        10     1.357     0.713 -49.93   0
       461     92.9304    303.0609 307.8943777  +6.5528038      1103.45      1876.36     1978.194     78.03522     155.4538     310.8458      2.028     4.30      835.607     54.78618     158.1002        15     1.215     0.986 -20.26   0
       462    776.7528    302.0723 307.6103677  +6.5761350     2465.916     3790.967     3561.496     77.91204     155.5156     310.8149      1.584     4.01     832.2481     54.78618     372.6516        19     1.434     0.779 -34.37   0
       463    351.2458    303.5616 307.7870664  +6.5612751     592.9078       1079.8     913.4753     77.66509      155.392     310.7222      1.768     3.87     830.6382     54.78618     116.1398         5     0.961     0.496 -38.63   0
       464    365.9875    296.7718 307.7811716  +6.5645727     1693.483     3125.257      3376.74     77.41736     155.2683     310.7222      2.071     6.28     830.2054     54.78618     233.3863        27     2.046     0.862 -13.21   0
       465     79.7565    297.0877 307.9000511  +6.5548266     1252.513     2051.909     2343.273     77.91204     155.3302     310.8458      1.858     4.54     835.6182     54.78618     182.3223        13     1.310     0.697 -38.71   0
       466   1014.8690    293.0015 307.5117573  +6.5878244     5723.551      8923.99     9651.965     77.41736     155.0207     310.6604      1.618     3.68     828.0194     54.78618      827.382        31     1.588     0.919 -33.10  16
       467    492.7090    292.7689 307.7286689  +6.5704735     1986.999     2908.289     2816.683     78.03522     155.2683     310.8149      1.613     4.12     829.1619     54.78618     251.1083        19     1.395     0.873 -28.07   0
       468    255.4580    288.4253 307.8273636  +6.5643086     5860.496      9145.87     10127.42     77.54132     155.4538     310.6604      1.727     3.93     831.0849     54.78618     811.0977        34     1.605     0.978 -29.61   0
       469    922.9229    287.6128 307.5501328  +6.5869838     493.3795     747.3953     727.3043     77.54132     155.0826     310.6295      1.490     3.44     831.0239     54.78618     114.0996         5     0.969     0.353 -44.44   0
       470    820.3605    287.0789 307.5927556  +6.5837814     546.6677      898.191     1060.906     77.78867     155.5156     310.8149      1.967     3.96     831.9601     54.78618     94.84412         6     1.016     0.442 -78.14   0
       471    774.5566    282.1066 307.6119492  +6.5843045     696.4905     1450.907     1484.946     77.91204     155.4538     310.9385      2.229     6.21     831.4557     54.78618     102.2156        12     1.573     0.689 -21.89   0
       472    231.9766    281.5068 307.8373502  +6.5663761     786.1264     971.4752     658.7371     77.91204     155.2683     310.6604      1.392     3.71     831.3403     54.78618     146.0046         9     1.003     0.739 -20.14   0
       473    389.7501    279.4275 307.7718849  +6.5725302     1596.223     2918.232     2973.565     77.54132     155.5773     310.7531      1.979     4.13     829.1821     54.78618     233.0425        17     1.285     0.878 -40.61   0
       474    159.2129    275.1498 307.8677883  +6.5665552     1672.594      2621.91     2340.884     77.29319      155.392     310.5367      1.627     4.73     833.5352     54.78618     287.4829        17     1.480     0.794 -29.69   0
       475    311.9378    274.9116 307.8043586  +6.5717838     1216.034     1742.663     1195.618     77.91204     155.6391     310.8767      1.546     4.54     830.4453     54.78618      191.966        13     1.261     0.747 -41.15   0
       476    912.5553    269.8029 307.5550358  +6.5939908     1658.221     2954.001      3432.42     77.29319     155.0207     310.4748      1.902     6.69     830.3588     54.78618     231.9247        19     1.717     0.941  -2.99   0
       477    569.0801    270.4664 307.6976946  +6.5822386     2100.701     3050.601     2640.959     78.03522     155.6391      310.784      1.525     4.08     828.9562     54.78618     312.3192        17     1.303     0.814 -35.65   0
       478    850.7903    270.0172 307.5806865  +6.5918412     384.6534     746.6431     576.7028     77.66509     155.2065     310.6913      1.867     3.88     831.0928     54.78618     60.76703         5     1.291     0.334 -25.45   0
       479    673.4820    268.3162 307.6543984  +6.5866195     2202.418     3415.869     3455.947     77.66509     155.7007     310.8767      1.682     4.27     830.3426     54.78618     317.5574        17     1.455     0.724 -29.34   0
       480    970.1954    268.4148 307.5311378  +6.5964861     703.8838     946.7076     903.0368     77.54132     155.1446     310.6604      1.474     5.20     828.7967     54.78618     92.85388         8     1.280     0.597 -52.64   0
       481    732.6460    268.2367 307.6298241  +6.5886302     5033.082     7679.806     8461.723     77.66509     155.4538     310.7222      1.668     3.82     830.6004     54.78618     665.9514        27     1.465     0.890 -31.81   0
       482    976.4684    278.0746 307.5282086  +6.5927072     1070.996     1498.262     1899.118     78.03522     155.5773     310.8149      1.540     5.28      828.936     54.78618     140.9427        12     1.353     0.607 -23.61   0
       483    928.5351    260.1881 307.5487194  +6.5984933     1141.694     1645.585     1011.749     77.41736     155.2683     310.6604      1.446     4.05     829.6898     54.78618     162.3246        11     1.068     0.678 -37.97   0
       484    232.2704    253.3502 307.8381772  +6.5780099     2323.693     3371.849     3685.146     77.91204      155.392     310.8458      1.533     4.13     831.3716     54.78618     325.1602        19     1.495     0.766 -34.92   0
       485    875.1105    252.5175 307.5711697  +6.5998777     1794.132     2527.777     2609.876     77.66509     155.6391     310.8767      1.586     3.90     830.0252     54.78618      294.373        18     1.389     0.778 -28.66   0
       486    765.3649    251.9451 307.6167788  +6.5964495     1728.809     2657.719     2684.483     77.78867     155.4538     310.8458      1.570     4.13     830.3259     54.78618     246.4873        17     1.410     0.767 -33.19   0
       487    254.0601    247.3965 307.8293268  +6.5811997     600.6454     870.7686     908.7114     77.29319     155.2065     310.5367      1.556     6.05     831.0864     54.78618     102.5085         8     1.489     0.691 -31.36   0
       488    466.1118    243.3683 307.7413781  +6.5899768     22639.55     35009.19     37083.12     78.03522     155.2683     310.7531      1.660     3.67     827.7468     54.78618      3060.35        55     1.703     1.084 -32.56   2
       489    471.9715    237.8772 307.7391286  +6.5924402     1472.396     2568.355     3065.969     77.78867     155.4538     310.8149      1.906     4.75     827.6064     54.78618      198.528        16     1.536     0.696 -32.06   3
       490    326.7983    245.5157 307.7991758  +6.5844182     651.6624     1051.312     920.3703     77.16882     155.0826     310.5057      1.647     3.91     829.8029     54.78618     99.88074         5     0.851     0.573 -48.44   0
       491    792.1492    242.4746 307.6059697  +6.6012541     12912.68     20040.64     21586.65     77.91204     155.5156     310.8458      1.674     3.83     830.0832     54.78618     1883.824        46     1.726     1.037 -25.56   0
       492    730.1474    238.4815 307.6318601  +6.6008310     712.2899     1062.736     948.2878     77.91204     155.4538     310.8458      1.625     3.80     829.7091     54.78618     105.7079         6     0.998     0.454 -54.47   0
       493    154.1369    236.6352 307.8711958  +6.5822845     2220.294     3523.364     3468.378     77.78867     155.4538      310.784      1.689     3.86     832.6438     54.78618     330.0476        22     1.430     0.876 -37.30   0
       494    129.2233    235.4545 307.8815843  +6.5819343      1016.13     1646.711     1660.695     77.41736     155.4538     310.6295      1.663     4.98     833.7202     54.78618     157.6652        12     1.257     0.773 -48.11   0
       495    784.9080    234.9722 307.6092293  +6.6041095     652.0471     1019.304     1461.374     78.03522     155.2065     310.6913      1.867     5.38     829.7936     54.78618     80.57257         7     1.113     0.735  -1.42   0
       496    181.0539    235.2694 307.8600611  +6.5837532     583.9717     947.2102     935.5435     77.78867      155.392     310.7222      1.695     4.94     832.0276     54.78618     88.22888         6     1.282     0.538 -27.24   0
       497    928.6179    232.8162 307.5496013  +6.6097965     1394.248     2315.095     1912.894     77.66509     155.1446     310.7531      1.661     4.78     828.5003     54.78618      227.264        15     1.491     0.678 -37.03   0
       498    590.2395    229.1618 307.6902924  +6.5999992     4669.409     7296.856     7295.122     77.66509      155.392     310.6913      1.627     3.87     828.2944     54.78618     672.9245        27     1.486     0.931 -34.62   0
       499    552.7269    229.1986 307.7058742  +6.5987281     2118.194     3195.927     2957.967     77.41736     154.9587     310.6913      1.542     3.55     827.6868     54.78618     302.3198        18     1.338     0.773 -31.90   0
       500    310.5085    229.9362 307.8064671  +6.5903032      1033.61     1418.979      1721.23     77.91204     155.6391     310.8767      1.677     4.71     829.9766     54.78618     139.4927        12     1.302     0.616 -24.35   0
       501    394.8687    228.0678 307.7714871  +6.5939050     1401.763     2141.321     2182.679     77.91204     155.5773     310.8149      1.507     5.14     827.9587     54.78618     211.6975        14     1.521     0.665 -35.82   0
       502    897.1815    225.7540 307.5628972  +6.6116634     11014.32     16589.88     17189.41     77.54132     155.3302     310.5676      1.597     3.70     828.4538     54.78618     1750.615        40     1.584     0.983 -29.85   0
       503    951.1500    226.2760 307.5404597  +6.6132481     2698.655     4067.819     4074.948     77.78867     155.5156     310.8149      1.627     3.96     827.7575     54.78618     379.0563        22     1.462     0.827 -35.31   0
       504    983.8646    223.5783 307.5269594  +6.6154526     9541.789      14634.7     15446.62     77.54132     155.4538     310.6913      1.634     3.75      827.058     54.78618     1366.495        38     1.592     1.002 -29.72   0
       505    572.0264    225.7073 307.6979743  +6.6008157     818.7778     991.2089      736.527     78.03522     155.2065     310.6604      1.418     3.89     827.9255     54.78618     117.3307         9     0.985     0.638 -50.12   0
       506    324.7123    226.2069 307.8006925  +6.5923195     912.9011     1224.311      1061.37     77.41736     155.1446     310.5676      1.366     4.25     829.5266     54.78618     159.8047         8     1.053     0.507 -31.44   0
       507    216.3944    225.8021 307.8457004  +6.5888492     747.4641     1267.823     1436.834     77.29319     155.1446     310.5985      1.741     3.76     831.5724     54.78618     109.8023         8     1.009     0.594 -29.35   0
       508    695.3417    223.4107 307.6468245  +6.6058894     2766.915     4367.116     4904.782     77.29319     155.3302     310.5367      1.636     4.21     828.8322     54.78618     376.6686        22     1.487     0.824 -34.43   0
       509     23.3594    222.2625 307.9260029  +6.5838183     25277.61     39544.77     41756.04     77.91204      155.392     310.8458      1.699     3.75     835.9948     54.78618     3305.146        57     1.693     1.099 -30.98   0
       510    269.7814    223.1693 307.8236127  +6.5917294     1066.219     1713.043     1438.065     77.54132     155.2683     310.6913      1.716     4.96     830.8425     54.78618     149.0148        14     1.356     0.695 -23.68   0
       511    503.9406    218.3711 307.7265043  +6.6015642     1832.909     2804.257      2582.27     77.54132     155.5156     310.7531      1.612     4.28     827.0229     54.78618     263.7643        18     1.422     0.778 -29.08   0
       512    835.6401    215.2089 307.5888164  +6.6139630     1987.156     2880.835     2497.497     77.29319     155.2683     310.5676      1.497     3.30     828.6213     54.78618     307.4089        18     1.267     0.811 -25.17   0
       513    888.0369    214.1633 307.5670843  +6.6161435     2026.332     3111.338      3138.37     77.66509     155.3302     310.6294      1.624     4.34     828.1002     54.78618     310.8649        22     1.456     0.917 -26.24   0
       514    747.4299    211.6445 307.6255807  +6.6124882     39890.89     59999.97     63397.61     77.54132     155.4538     310.6604      1.637     3.71     828.8923     54.78618       6155.2        66     1.675     1.071 -30.26   0
       515    515.9579    214.2875 307.7216495  +6.6036526      2584.32      4005.29     3708.671     77.91204     155.4538     310.8458      1.665     3.97     826.8926     54.78618     368.5139        21     1.472     0.823 -32.12   0
       516    350.3985    211.0311 307.7905335  +6.5994466     5686.815     12089.75     13372.48     77.29319     155.2683     310.5985      2.181     6.14     828.5408     54.78618     653.0471        47     2.014     1.231 -61.64   0
       517    981.2103    210.4410 307.5285016  +6.6207879     2774.528     4254.131     4613.359     77.29319     155.2683     310.5367      1.624     3.84     826.8569     54.78618     384.3405        23     1.464     0.882 -35.19   0
       518    915.3007    208.7569 307.5559391  +6.6192852     7512.151      11083.7     11368.72     77.91204     155.3302     311.0312      1.594     3.69     827.7542     54.78618     1124.681        32     1.541     0.892 -35.01   0
       519   1019.3819    208.9929 307.5126922  +6.6226579     1590.993     2501.541     2683.279     77.54132     155.1446     291.0255      1.614     4.20     826.2355     54.78618     262.0399        16     1.431     0.707 -27.47  16
       520    458.7635    207.7898 307.7456271  +6.6044187     5101.275     7903.567     8149.685     77.41736     155.2683     310.5676      1.616     3.60     826.8521     54.78618     741.3103        29     1.495     0.938 -29.16   0
       521    233.0773    204.8021 307.8394784  +6.5980792     724.8763     1084.939     1072.287     77.29319     154.9587     310.6294      1.538     4.03     831.3259     54.78618     121.0706         6     1.229     0.377 -34.70   0
       522    116.0877    199.1820 307.8882645  +6.5964668     4756.636     7083.756      6903.72     77.66509     155.2065     310.6604      1.568     3.60     833.3193     54.78618     663.4252        26     1.441     0.905 -32.31   0
       523    286.4889    195.8102 307.8175943  +6.6035851     33594.08     51991.47     55338.88     77.54132     155.1446     310.5985      1.675     3.77     830.5313     54.78618     4958.056        64     1.712     1.095 -31.46   0
       524    935.5281    198.4090 307.5478823  +6.6242320     965.8456     1356.283     1840.906     77.41736     155.0207     310.6604      1.577     5.27     827.2371     54.78618     147.3408        11     1.320     0.617 -34.23   0
       525    612.7455    197.6898 307.6820000  +6.6137453     588.4454     1238.264      1559.45     77.91204     155.2683     310.9385      2.060     5.11     827.4331     54.78618      100.063         6     1.449     0.510 -34.31   0
       526    261.8116    196.7881 307.8278123  +6.6023527     6391.568     10075.06     10223.15     77.78867     155.2683     310.7531      1.642     3.77     830.8816     54.78618       906.91        33     1.569     0.956 -34.15   0
       527    715.8666    195.2529 307.6392427  +6.6182004     1010.295     1576.769     1997.404     77.91204      155.392     310.7531      1.749     4.49     828.0711     54.78618     142.6245        13     1.294     0.661 -25.57   0
       528    410.5217    191.3165 307.7662215  +6.6096022     49970.41     76881.42     80755.48     78.03522     155.7624     310.9385      1.674     3.81     827.4169     54.78618     6805.479        74     1.730     1.111 -30.78   0
       529    166.4145    192.5684 307.8675823  +6.6008893     4067.493     6237.377     6526.799     77.54132     155.2065     310.7531      1.672     3.85     831.6204     54.78618      580.862        30     1.586     0.943 -28.81   0
       530    428.0111    191.6167 307.7589461  +6.6100647     1359.192     2206.328     1846.892     77.66509     155.1446     310.7222      1.707     6.29     827.1058     54.78618     187.6731        17     1.727     0.779 -28.64   0
       531    314.5754    188.9953 307.8061566  +6.6073415     17992.87     28002.77     30016.67     77.41736     155.2065     310.6604      1.682     3.69     829.4903     54.78618      2483.58        58     1.814     1.098 -31.17   2
       532    322.1336    188.9413 307.8030187  +6.6076174     2199.294      3616.07     4682.459     78.03522      155.392     310.8149      2.080     4.19     829.2271     54.78618      328.481        22     1.523     0.937 -45.54   3
       533    749.8419    187.5394 307.6253871  +6.6225204     32931.48     49916.52     52950.43     77.91204     155.4538     310.9076      1.619     3.75     827.9274     54.78618     4734.492        64     1.672     1.078 -30.14   0
       534    697.6423    189.3249 307.6470125  +6.6200385     981.9361     1327.855     1180.798     77.78867     155.5156     310.8458      1.621     4.77      827.757     54.78618     146.6049        11     1.346     0.674 -26.43   0
       535    798.1309    188.0557 307.6053089  +6.6239205     1105.182       1538.4     1616.136     77.91204     155.3302      310.784      1.480     3.77     827.9274     54.78618     164.9344        13     1.194     0.887 -29.40   0
       536     66.6188    184.7890 307.9092992  +6.6007443     9030.253     14124.65     14966.32     77.54132     155.1446     310.7222      1.668     3.72     834.5612     54.78618     1335.544        37     1.572     1.010 -32.29   0
       537     37.3454    187.6117 307.9213637  +6.5985937     594.3345     985.6169     1191.449     77.29319      155.392     310.5057      1.771     4.15     835.7308     54.78618     87.26672         7     1.053     0.468   8.38   0
       538    573.9095    185.4086 307.6985459  +6.6175156     597.9171     1019.337     1451.633     77.54132     155.1446     310.5985      1.718     4.69     826.2346     54.78618     101.8858         5     1.290     0.489   2.62   0
       539    100.3981    182.9310 307.8953303  +6.6026478     1491.548     2369.591     2179.299     77.29319     155.0207     310.6604      1.685     3.91     833.2285     54.78618     251.2828        15     1.380     0.732 -32.72   0
       540   1008.4249    182.0270 307.5181461  +6.6334257     967.6186      1388.83     1695.655     77.41736     155.2683     310.6913      1.517     5.11      826.076     54.78618      130.678        11     1.285     0.657 -34.19   0
       541    734.6476    175.5127 307.6321027  +6.6269778     582.9041     875.2467     607.6658     77.91204     155.3302     310.8458      1.447     4.12     827.4392     54.78618     81.89734         6     1.072     0.452 -55.40   0
       542    583.5058    172.1546 307.6950046  +6.6233087     754.4673     1266.437      1414.48     77.78867      155.392     310.9385      1.996     5.40     825.8683     54.78618     118.1643        11     1.656     0.497 -44.24   0
       543   1009.1468    167.9552 307.5183170  +6.6392593     2027.168     3411.807     3939.721     77.91204     155.4538     310.8149      1.670     4.12     825.8962     54.78618     277.4418        21     1.466     0.880 -30.45   0
       544    592.1179    165.7905 307.6916406  +6.6262243     1114.104     1474.974     1366.126     77.54132     155.0826     310.6604      1.498     4.87     825.7665     54.78618     142.2044         9     1.069     0.629 -34.35   0
       545    600.3887    163.7506 307.6882732  +6.6273433     1949.824     3016.352     3020.195     77.29319      155.392     310.5057      1.623     3.55     825.8343     54.78618     313.3645        20     1.301     0.899 -28.31   0
       546    344.5161    164.2073 307.7945537  +6.6185796     1102.458     1498.359      1548.14     77.54132     155.1446     310.6604      1.418     5.55     827.9745     54.78618     157.9067        13     1.411     0.670 -32.20   0
       547    285.3075    162.0654 307.8192220  +6.6174764     30261.17     47253.75     50440.87     77.78867     155.6391     310.8149      1.692     3.70     830.4471     54.78618     4327.149        75     1.816     1.153 -29.92   0
       548     30.6634    160.5414 307.9250536  +6.6095440     4514.161     7008.377     7507.518     78.03522      155.392     310.8458      1.728     3.79     836.0022     54.78618     627.8802        31     1.514     0.995 -30.64   0
       549    717.0666    158.7367 307.6399693  +6.6333160     7887.212     12121.53     12842.29     77.91204     155.4538     310.8149      1.618     3.91     826.7323     54.78618      1147.46        34     1.630     0.902 -28.12   0
       550    194.4096    159.8334 307.8570572  +6.6153442     937.8853      1500.63     719.8974     77.41736     155.2683     310.6604      1.650     3.19     831.2947     54.78618     151.2509        10     1.033     0.649 -49.79   0
       551    270.9929    157.0158 307.8253386  +6.6190803     814.4415       1358.6       1061.2     77.54132     155.2065     310.6604      1.610     5.26     830.6326     54.78618     145.1938        10     1.293     0.605 -39.62   0
       552    127.7901    155.8621 307.8848653  +6.6147439     4731.501     7522.057     8165.974     77.29319     155.2683     310.6294      1.680     3.87     831.6796     54.78618     681.9872        31     1.574     0.952 -28.34   0
       553    590.1475    154.0117 307.6928549  +6.6310211     916.1895     1215.919     1764.997     77.29319      155.392     310.5367      1.791     5.25     825.2541     54.78618      136.254        11     1.157     0.817  -8.42   0
       554    398.4401    151.7880 307.7725706  +6.6255158     3689.076     6506.011     7016.325     77.29319     155.2683     310.5676      1.886     4.05     827.1649     54.78618     459.1832        31     1.465     1.208 -46.45   0
       555    655.6526    152.5371 307.6656911  +6.6338218     938.0786     1521.883     1318.166     77.91204      155.392      310.784      1.703     5.71     826.1612     54.78618     140.2977        12     1.275     0.837 -24.39   0
       556    466.7563    152.9716 307.7441505  +6.6273176     1317.232     1972.877     2055.248     77.54132     155.5156     310.7222      1.505     3.40     825.1488     54.78618     236.4794        11     1.140     0.581 -26.81   0
       557    636.8605    151.9119 307.6735191  +6.6334512     1787.413     1740.366     1807.111     77.91204     155.6391     310.8458      0.557     0.00     825.8578     54.78618     1136.479         6     0.528     0.368  51.40   0
       558    574.9055    151.1424 307.6992833  +6.6316954     844.9413     1363.487     1370.821     77.78867     155.4538     311.0003      1.657     5.25     824.8994     54.78618     119.7836        11     1.113     0.919 -30.82   0
       559    362.8946    150.6233 307.7873763  +6.6248042     3142.218     4944.896     5072.958     77.91204     155.2683     310.6913      1.662     3.91     827.6981     54.78618     434.4735        27     1.601     0.899 -37.99   0
       560    117.2125    150.5761 307.8894377  +6.6165704     1650.861     2576.411     2618.718     77.54132     155.2683     310.7531      1.748     4.04     831.6639     54.78618     205.6459        16     1.300     0.809 -31.21   0
       561    945.1781    150.3702 307.5454813  +6.6443866      502.371     821.1288     739.4982     77.41736     155.2683     310.6913      1.428     3.38     825.6779     54.78618     88.61877         5     0.762     0.434  19.74   0
       562    679.0064    148.2836 307.6561318  +6.6363589      819.579     1387.983     1342.158     77.54132     155.1446     310.6913      1.712     4.66     826.1085     54.78618     119.9205         9     1.034     0.611 -50.32   0
       563    753.5906    148.5844 307.6251362  +6.6387281     500.0011     649.0058       894.87     77.66509     155.2065     310.7222      1.766     3.51     826.2031     54.78618     76.09393         5     1.118     0.317 -20.60   0
       564   1009.7553    144.7660 307.5188399  +6.6488532     1446.951     1990.126     2035.309     77.54132      155.392     310.7222      1.492     3.56     824.9329     54.78618     219.6436        16     1.260     0.792 -34.27   0
       565    735.2009    145.3178 307.6328857  +6.6394620     663.1942     860.5459     1253.838     77.16882     155.0207     310.5057      1.525     5.12     825.9774     54.78618     118.3681         7     1.007     0.735 -52.06   0
       566    214.7664    139.5712 307.8492840  +6.6243932     5446.894     8563.865      8714.11     77.41736     155.2065     310.5985      1.677     3.83     831.2745     54.78618     740.9833        33     1.577     1.008 -30.81   0
       567     97.4202    139.6795 307.8980273  +6.6204029     2128.146     3358.559     3772.164     77.54132     155.1446     310.8149      1.722     4.04     831.4883     54.78618     313.5309        23     1.375     1.017 -20.93   0
       568    676.5966    138.4155 307.6574641  +6.6403523     6121.299     9203.841     9827.325     77.54132     155.0826     310.6604      1.628     3.88     825.5423     54.78618     890.9431        29     1.488     0.921 -30.86   0
       569    628.8096    135.7046 307.6774080  +6.6398729     9205.062     14511.38     16487.74     77.66509     155.0826     310.5985      1.704     3.77     824.9901     54.78618     1367.837        41     1.665     1.067 -37.86   3
       570    632.2929    127.2422 307.6762450  +6.6434831     53176.24     80797.06      85440.6     77.91204      155.392     310.9076      1.631     3.77     824.5853     54.78618     7388.297        73     1.680     1.109 -31.42   2
       571    824.6516    137.9735 307.5959697  +6.6454824     842.3563     1190.165     680.9124     77.54132     155.5773     310.7222      1.447     5.31     825.5679     54.78618     168.1661        11     1.279     0.622 -37.15   0
       572    263.3814    136.1669 307.8292032  +6.6274317     850.6214     1154.451     1537.393     77.41736     155.2683     310.6295      1.474     3.55     830.7084     54.78618     146.7817         9     0.937     0.654 -29.70   0
       573     27.4260    134.8266 307.9272671  +6.6200506     1017.054     1677.296     1093.714     77.41736     155.2683     310.6913      1.655     6.69     836.1213     54.78618     120.9285        16     1.621     0.774 -47.64   0
       574    566.4474    135.2835 307.7033300  +6.6379594     635.3388     947.1487     888.2405     77.91204     155.4538     310.8458      1.692     4.54     824.2626     54.78618     97.88281         8     1.116     0.525 -21.76   0
       575    355.8671    131.5107 307.7909392  +6.6324587     3599.023     5878.078     5820.072     78.03522     155.6391     310.7531      1.726     4.42     828.2798     54.78618     515.4337        29     1.729     0.889 -38.39   0
       576    537.7021    130.7070 307.7154257  +6.6388862      1725.55     2566.776     2895.271     77.91204     156.0089     310.7531      1.693     3.87     823.9909     54.78618     242.4469        17     1.368     0.764 -33.95   0
       577   1001.9924    130.5630 307.5225402  +6.6544582     790.5927     1242.471     1609.102     77.16882     155.2683     310.5676      1.867     5.61     824.2581     54.78618     108.1396        11     1.177     0.761 -51.09   0
       578    311.3005    120.9891 307.8098078  +6.6353066     3487.205     5568.318     6067.818     77.66509     155.0826     310.5985      1.707     3.83     829.6576     54.78618      478.329        23     1.500     0.830 -39.87   0
       579    711.1567    115.6110 307.6438714  +6.6509226     892.5678     1363.131     1447.562     77.41736     155.2683     310.5367      1.640     4.14     824.3644     54.78618     162.0499        10     1.261     0.640 -39.35   0
       580      8.9570    103.9633 307.9359819  +6.6321697     721895.4      1604615      1776885     77.66509      155.392     310.6604      2.248     6.29     837.5456     54.78618      61774.8       430     2.357     1.782 -37.15  28
       581    682.7694    114.3552 307.6557072  +6.6504918     1378.181     2224.042     2474.352     77.54132     155.5156     310.6604      1.728     3.74     824.1982     54.78618      226.972        16     1.298     0.741 -32.45   0
       582    696.6428    111.2276 307.6500484  +6.6522469     3152.139     4547.873     4442.694     77.54132     155.5156     310.6913      1.527     3.76     824.0593     54.78618     443.4387        19     1.350     0.773 -34.30   0
       583    573.8114    112.1714 307.7010472  +6.6477476      382.693     662.7172     663.7356     77.41736     155.2683     310.6604      2.692     3.83     823.5908     54.78618     66.66949         5     0.962     0.438 -44.57   0
       584     68.0740    109.7647 307.9112280  +6.6317650     435.6253     602.2823     582.2644     77.78867     155.5156      310.784      1.497     3.92     832.6365     54.78618     79.29639         6     0.952     0.461 -37.59   0
       585    438.4217    102.1647 307.7576308  +6.6473427     4074.353     6286.165     6467.744     77.41736     155.2065     310.5676      1.624     3.84     824.7604     54.78618     568.0146        27     1.473     0.934 -25.47   0
       586    892.9959     98.3932 307.5689014  +6.6641043     2026.381      3131.86     3321.189     77.29319     155.1446     310.6913      1.651     3.73     823.8242     54.78618     290.9598        18     1.342     0.817 -39.59   0
       587    910.9803     97.6078 307.5614557  +6.6650287     3863.373      5869.36     6206.943     77.54132     155.2065     310.6295      1.602     4.04     823.8237     54.78618     546.4911        26     1.508     0.866 -34.26   0
       588    590.6849     98.1491 307.6945083  +6.6541014      716.053     876.7445     1069.872     77.91204      155.392     310.9076      1.378     4.42      823.132     54.78618     114.8498         8     1.116     0.498 -32.33   0
       589    603.1787     96.1123 307.6893861  +6.6553604     1735.219     2460.677     1949.194     77.91204     155.2065     310.6913      1.493     4.36     823.0707     54.78618      225.704        18     1.422     0.800 -30.78   0
       590    248.8835     95.6608 307.8365912  +6.6436668     1002.877     1443.397     1979.352     78.03522     155.5156     310.8458      1.532     4.58     830.9123     54.78618     158.4079        11     1.337     0.605 -35.58   0
       591    401.9084     93.9763 307.7730755  +6.6494987     1878.836     2739.958     2333.121     77.91204     155.2683     310.6604      1.565     4.30     825.8558     54.78618     250.7965        16     1.328     0.777 -33.93   0
       592    149.7670     90.8113 307.8779307  +6.6423376     3202.372     4882.185     4799.292     77.41736     155.1446     310.6604      1.633     3.82     829.4937     54.78618     462.5754        26     1.576     0.880 -31.54   0
       593    571.2587     88.8951 307.7028899  +6.6572714     638.5591     989.1763     1204.008     77.78867     155.4538     310.9385      1.723     4.81     822.9404     54.78618     104.1312         7     1.029     0.636  67.06   0
       594    297.7002     89.5323 307.8165176  +6.6478363     1481.112     2238.107      2575.99     77.91204     155.5773      310.784      1.829     4.07     829.8723     54.78618      195.703        15     1.283     0.782 -37.51   0
       595    558.3337     88.4702 307.7082739  +6.6570141      824.963     1238.888     1299.311     77.91204     155.5156     310.8149      1.535     4.83     822.9354     54.78618     131.0839         9     1.244     0.532 -33.12   0
       596    951.9318     87.7600 307.5447713  +6.6704603     533.5003     758.8015     397.0918     77.78867      155.392     310.9076      1.506     3.33     822.8883     54.78618     108.2695         5     0.987     0.326 -43.69   0
       597     31.5893     88.7076 307.9270955  +6.6392297     12214.46     18990.17      20579.2     77.66509     155.0826     310.6295      1.690     3.76     834.6454     54.78618     1760.316        43     1.616     1.059 -32.05   0
       598    766.9232     87.4933 307.6216459  +6.6643946     640.6345     1164.711     1754.818     77.66509     155.7007     310.8149      1.883     4.51     823.1404     54.78618     108.0301         7     1.308     0.442 -25.11   0
       599    423.3905     84.3012 307.7644765  +6.6542133     1206.179     1867.083     1526.927     77.66509     155.0826     310.6295      1.577     4.59      824.694     54.78618     179.3348        15     1.302     0.891 -31.14   0
       600    833.3140     83.3811 307.5942004  +6.6683099     6164.979     9473.508     10589.79     77.54132     155.2065     310.7222      1.678     3.74     823.0993     54.78618     858.2052        30     1.557     0.889 -33.28   0
       601    778.4285     83.6350 307.6169952  +6.6663719     3427.656     5203.717     5152.898     77.54132     155.2065     310.6295      1.620     3.74     823.0492     54.78618     506.6826        26     1.528     0.898 -33.34   0
       602    899.7890     84.6605 307.5665390  +6.6700005     548.7565     724.9588     763.3869     77.29319     155.3302     310.5367      1.330     3.43     823.2198     54.78618     85.47998         5     0.781     0.435  16.84   0
       603    924.5831     82.9913 307.5562936  +6.6715168     562.1514     843.3876     202.3107     77.66509     155.2065     310.6604      1.633     4.57     823.0927     54.78618     111.9287         5     1.071     0.553 -11.14   0
       604    540.6327     81.8774 307.7158495  +6.6591430     1105.288     1455.866     2011.904     77.78867     155.4538     310.7531      1.551     5.05     822.9106     54.78618     169.0108        13     1.256     0.805 -31.12   0
       605     71.9300     80.5191 307.9106137  +6.6439680      3088.77     4725.104     5109.814     78.15821     155.7624     310.8458      1.654     3.81     831.0775     54.78618     408.4777        22     1.390     0.883 -27.68   0
       606     57.3451     81.2614 307.9166475  +6.6431706     745.0174     1533.492     1240.802     78.03522      155.392      310.784      1.824     6.58     832.0856     54.78618      133.368        13     2.063     0.589 -22.56   0
       607    660.1097     81.1524 307.6662359  +6.6634414     558.8878     1058.687     878.3848     77.91204     155.3302     310.9385      2.194     3.86      822.881     54.78618     92.00592         7     0.745     0.703 -73.53   2
       608    433.2788     80.1050 307.7605096  +6.6562772     910.8781     1267.305     1634.464     77.66509     155.7007     310.8458      1.539     4.03      824.512     54.78618     121.6047         9     0.948     0.646 -25.12   0
       609    595.5802     77.3433 307.6931734  +6.6628546     1138.962     1913.002     1595.841     77.41736      155.392     310.6295      1.796     5.37     822.6502     54.78618     153.6266        15     1.314     0.877 -29.07   0
       610     14.2058     76.0922 307.9347432  +6.6438522     2615.914      4077.55     4131.864     77.54132     155.1446     310.5676      1.609     4.03     834.3001     54.78618     374.7356        21     1.434     0.841 -33.24   0
       611    722.5836     73.6083 307.6405334  +6.6686450     509.3862     857.2598     356.9132     77.54132     155.2065     310.6604      1.735     6.08     822.7501     54.78618     86.38403         7     1.630     0.638 -22.80   0
       612    413.4991     71.3191 307.7690228  +6.6592410     1128.737     1946.601     2029.727     77.78867     155.8857     310.9076      1.775     5.44     825.0686     54.78618     170.6093        15     1.442     0.967 -55.26   0
       613     86.3516     71.9176 307.9049130  +6.6480041     805.5463     1305.713     1172.501     77.91204     155.4538     310.8458      1.775     4.77     829.8276     54.78618     127.9808        10     1.351     0.506 -46.18   0
       614    772.8897     71.2521 307.6197117  +6.6712990     2046.995     3303.617     3273.373     77.91204     155.2683     310.9385      1.700     3.95     822.6054     54.78618     283.5869        19     1.335     0.889 -34.58   0
       615    110.8257     69.9568 307.8948119  +6.6496370     812.9183      1142.48     1429.299     77.54132     155.4538     310.7222      1.542     5.11     829.1344     54.78618     126.3462        10     1.406     0.525 -42.66   0
       616     99.6764     64.8639 307.8996156  +6.6513644     9394.503     14763.25      15290.6     78.15821     155.4538      310.784      1.685     3.79     829.0812     54.78618     1286.543        39     1.630     1.023 -33.51   0
       617    428.7502     64.6909 307.7629097  +6.6624888     2630.976     4111.982     4200.926     77.91204     155.2683     311.0003      1.652     3.91     824.4818     54.78618     357.4077        25     1.541     0.919 -29.57   0
       618    249.8947     64.6287 307.8372172  +6.6565117     668.1794     936.7532     1225.565     78.03522     155.2065     310.7222      1.453     2.97     829.7288     54.78618      143.285         5     0.924     0.351 -47.50   0
       619    642.4518     56.9358 307.6743853  +6.6728482     18301.01     27711.97     29076.27     77.91204      155.392      310.784      1.614     3.71     822.3209     54.78618     2758.418        45     1.612     1.015 -34.43   0
       620    266.1968     59.1197 307.8306303  +6.6593336     1462.562     2277.477     3143.959     77.29319     155.0207     310.5676      1.653     4.23     829.5571     54.78618     207.7543        15     1.304     0.733 -31.69   0
       621    672.3782     58.3338 307.6619048  +6.6732722     577.3143       579.96     655.5325     77.54132     155.4538     310.7531      1.416     4.26     822.4999     54.78618     107.1104         6     1.190     0.435 -33.25   0
       622    697.9836     57.3650 307.6512990  +6.6745284     425.8187     547.1838     963.7468     77.54132     155.2065     310.6604      0.947     3.44     822.3964     54.78618     99.73901         5     1.404     0.244 -17.47   0
       623    542.1705     52.9821 307.7161819  +6.6711235     5192.071     8109.162     7813.958     77.54132     155.2683     310.7531      1.625     3.80     822.4059     54.78618     746.0346        29     1.493     0.944 -34.93   0
       624    260.4383     53.3113 307.8332184  +6.6615380      1962.49     3188.258     3960.303     77.91204     155.3302     310.8458      1.872     4.56     829.3541     54.78618     238.6565        19     1.533     0.785 -42.80   1
       625    698.2783     51.6669 307.6513678  +6.6768907     627.7036       851.02     1278.177     78.03522     155.5156      310.784      1.559     5.09     822.2856     54.78618     99.17737         8     1.096     0.668 -56.76   0
       626    268.2865     49.0053 307.8301030  +6.6635792     9126.227     14647.32        16271     77.41736     155.1446     310.5367      1.726     3.85      829.314     54.78618     1319.086        43     1.673     1.069 -29.72   0
       627      9.8157     51.0861 307.9374118  +6.6540274     1239.371     1763.714     1863.034     77.54132     155.2065     310.7222      1.583     4.36     831.0224     54.78618     178.8727        16     1.320     0.824 -39.10   0
       628    629.9172     50.7705 307.6798001  +6.6749741     849.6341      1348.09     2134.185     77.78867     155.2683      310.784      1.952     4.46     822.1251     54.78618      121.003        10     1.175     0.677 -15.23   3
       629    628.5679     46.7399 307.6804961  +6.6765929     3267.555     5284.047     6111.609     77.66509     155.5156     310.7531      1.721     3.98     822.0312     54.78618     451.2566        25     1.479     0.917 -35.37   2
       630    447.7585     48.5782 307.7555547  +6.6697780     22419.27     34719.02     36562.75     77.54132     155.2683     310.6295      1.676     3.83     823.7368     54.78618     3102.993        56     1.685     1.068 -31.03   0
       631    925.6543     48.6715 307.5569978  +6.6857213     1966.629     2975.681     3066.777     77.78867     155.3302      310.784      1.591     4.15     821.4058     54.78618     283.7901        19     1.430     0.828 -40.74   0
       632    328.1369     49.5067 307.8052212  +6.6653819     957.7836     1294.999     1033.688     77.91204     155.5156     310.8767      1.450     3.16     829.4319     54.78618     145.8365         9     1.037     0.553 -57.29   0
       633    561.0219     48.3282 307.7085061  +6.6736762     720.1622     1027.039      1214.17     77.54132     155.2683      310.784      1.439     5.01     822.2137     54.78618     138.0875         9     1.401     0.601 -33.92   0
       634    533.0380     48.9665 307.7201111  +6.6724754     597.1657      655.458     833.5796     77.66509     155.2683     310.5985      1.493     4.89     822.3804     54.78618     94.42444         8     1.265     0.536 -22.32   0
       635     33.7145     48.4350 307.9275731  +6.6559265     2347.294     3557.063     3573.074     77.91204     155.3302     310.8149      1.624     3.91     830.0961     54.78618      336.733        19     1.342     0.904 -23.02   0
       636    256.3875     45.5420 307.8351632  +6.6646093     3026.667     5130.851      6368.94     77.29319      155.392     310.5367      1.874     4.03     829.0911     54.78618     424.2114        26     1.585     0.912 -29.86   0
       637    309.3504     43.7828 307.8132190  +6.6671142     947.9681     1462.394     1793.821     77.41736     155.5156     310.5676      1.613     5.29     829.4415     54.78618     136.4092        11     1.424     0.620 -43.22   0
       638    946.3394     38.6865 307.5487377  +6.6905335     1125.047     1684.797     1669.873     78.03522     155.5773     310.9076      1.695     5.52     820.4408     54.78618     149.3194        14     1.267     0.775 -33.40   0
       639    697.3185     38.3317 307.6522141  +6.6823639      1820.24     2770.999     2485.571     78.03522     155.7007     310.8458      1.639     3.85     821.9819     54.78618     270.5454        18     1.326     0.851 -25.07   0
       640    103.2014     37.8246 307.8990640  +6.6626454     454.2482     539.3362     696.5328     77.54132     155.1446     310.5985      1.289     3.69     828.5406     54.78618     95.03503         5     0.972     0.402 -44.41   0
       641    263.3021     33.2138 307.8327061  +6.6699310     916.9353     1629.287     2226.804     77.78867     155.2065     310.5676      1.929     4.31     828.8077     54.78618     173.5204        12     1.421     0.757 -25.01   0
       642    185.9029     31.0336 307.8649353  +6.6682302     10382.66      16699.9     17247.68     77.91204     155.3302     310.9385      1.684     3.88     827.9226     54.78618     1477.746        43     1.616     1.073 -31.80   0
       643    552.4814   1013.2725 307.6796475  +6.2750178      3948.61     6593.923     6978.305     78.15821     155.7624     310.8458      1.797     3.75     854.6889     54.78618     520.1132        34     1.523     1.182 -35.28   0
       644    732.3846     27.3495 307.6380133  +6.6880701     1912.382     2826.216     3132.471     77.29319     155.5156     310.5676      1.590     3.65     821.4461     54.78618     295.4399        18     1.365     0.768 -36.78   0
       645    468.1469     27.5502 307.7477914  +6.6791425      1881.36      3061.48     3185.781     78.03522     155.3302     310.8458      1.719     4.23     822.4806     54.78618     245.5375        19     1.369     0.849 -19.62   0
       646    996.1504     25.1532 307.5284945  +6.6977815     1911.491      2961.34     3028.194     77.91204     155.3302     310.8767      1.692     4.04     818.2738     54.78618     279.8464        20     1.456     0.817 -35.99   0
       647    791.2028     24.5797 307.6136680  +6.6911791     487.6679     643.0839     866.3409     77.54132     155.0826     310.5676      1.442     3.47     820.8975     54.78618     73.44354         5     0.763     0.457 -17.78   0
       648    530.0476     29.1243 307.7220205  +6.6805668     2781.556     4185.676     4222.093     77.78867     155.5156     310.8149      1.579     3.67      821.986     54.78618      374.721        22     1.388     0.898 -30.49   0
       649    715.6294     21.5400 307.6451698  +6.6899084     7162.091     11020.67     11463.21     77.66509     155.4538      310.784      1.653     3.75     821.4553     54.78618     1116.974        32     1.548     0.942 -30.74   0
       650    635.7737     20.8510 307.6783717  +6.6875219     3594.975     5460.335     5852.837     77.54132     155.5773     310.7222      1.629     3.57     821.5184     54.78618     572.8258        25     1.396     0.938 -31.96   0
       651    337.8413     20.6173 307.8021625  +6.6776340     1125.802     1974.261     2613.538     77.41736     155.2683     310.6295      1.792     5.80     829.3336     54.78618     138.5781        16     1.464     0.799 -45.05   0
       652    302.8523   1011.8725 307.7833257  +6.2672325     13985.74     23336.77     25244.24     77.78867     155.4538     310.8458      1.805     3.98     854.7794     54.78618     1851.812        56     1.945     1.134 -34.89  16
       653    391.0799     18.9618 307.7800995  +6.6801038     601.3408     765.5192     527.5244     77.78867     155.5156      310.784      1.320     3.47     826.6431     54.78618     101.0771         7     0.894     0.510 -43.15   0
       654    757.1193   1012.6227 307.5947132  +6.2821269     7191.065     12119.62     13290.03     77.54132     155.1446     310.7531      1.822     3.89     852.4895     54.78618      881.082        44     1.659     1.194 -33.79   0
       655    682.2015     16.1554 307.6592394  +6.6910136     800.4568     1166.906     1188.033     77.29319     155.0207     310.4129      1.481     3.17       821.65     54.78618     157.8825         8     0.855     0.611 -38.39   0
       656    523.2085   1014.3283 307.6917646  +6.2736022     1089.744     1921.847     2254.349     77.41736     155.0207     310.7222      1.962     5.15     854.9441     54.78618     165.0989        15     1.400     0.816 -22.99   0
       657    818.1492   1012.0126 307.5693965  +6.2844163     1070.394     1561.991     1802.052     77.29319     155.3302     310.5367      1.542     4.34     850.8179     54.78618     145.5607        11     1.149     0.718 -35.14   0
       658    427.8543   1012.3932 307.7314152  +6.2712080     960.4852     1522.872     1588.179     77.41736     155.2065     310.5367      1.672     5.22     854.8987     54.78618     131.8277        12     1.267     0.723 -14.89   0
       659    918.3838   1006.0449 307.5279824  +6.2902238     7484.144     13410.59     14936.62     77.41736     155.3302     310.5985      1.908     4.01     850.2452     54.78618     909.6008        46     1.690     1.275 -28.39   0
       660    274.1897   1009.2271 307.7953135  +6.2673630     757.9298     1176.249     743.0995     77.54132     155.2683     310.6913      1.405     4.26     854.5707     54.78618     139.9791         7     1.204     0.429 -23.48   0
       661    549.8400   1005.3318 307.6810106  +6.2782077     7687.591     12578.58     13954.84     77.78867      155.392     310.9076      1.757     4.07     854.5585     54.78618     1022.192        38     1.664     1.056 -34.93   0
       662    892.0888   1002.1569 307.5390292  +6.2909521     10587.88     19393.75     21280.59     77.91204     155.3302     310.8458      1.997     4.16     850.4615     54.78618     1270.841        62     1.822     1.393 -26.23   0
       663   1013.7637   1001.6550 307.4885302  +6.2952149     3951.009     7365.713     7891.147     77.78867     155.4538     310.8458      2.012     4.23     847.9927     54.78618     444.7613        34     1.582     1.228 -36.09  16
       664    604.7484   1002.4752 307.6583111  +6.2812240      1167.14     1768.922     1106.381     77.91204     155.5156     310.8149      1.514     5.19     854.8463     54.78618     176.4565        12     1.371     0.632 -32.33   0
       665    536.3269   1001.1899 307.6867595  +6.2794655     3947.032      6877.16     7828.871     77.41736     155.0826     310.6913      1.924     4.86     854.5743     54.78618     509.1469        37     1.739     1.211 -13.16   0
       666    645.7400   1000.5844 307.6413566  +6.2833753     1240.984     2088.947     1629.814     77.41736      155.392     310.5676      1.688     4.44     854.6788     54.78618     182.4828        16     1.403     0.782 -33.97   0
       667     71.1585    999.9851 307.8799084  +6.2643594     700.5086     1110.968       925.66     77.41736     155.2683     310.5676      1.626     5.01     850.8558     54.78618     103.3645         6     1.229     0.579 -29.67   0
       668    800.3744    999.0319 307.5772105  +6.2891821     535.3469     870.0942     1175.825     77.41736     155.2683     310.6604      1.561     4.40     850.8318     54.78618     78.90308         6     1.135     0.486 -38.22   0
       669    489.4331    997.6591 307.7063461  +6.2793534     1977.617      3070.91     3180.856     77.78867     155.5156      310.784      1.673     4.49     855.0424     54.78618     284.6855        17     1.391     0.779 -39.58   0
       670    923.8262    989.7518 307.5262676  +6.2971320     37526.77     66886.38     72520.44     77.54132     155.5156     310.7222      1.914     4.07     849.8115     54.78618     4299.843        78     1.824     1.368 -29.38   0
       671    231.3108    988.1082 307.8138248  +6.2746427     1656.395     2420.112     2086.505     77.91204     155.9473     310.9076      1.517     4.06     853.3988     54.78618     262.0491        15     1.421     0.652 -35.82   0
