#   1 NUMBER                 Running object number                                     
#   2 X_IMAGE                Object position along x                                    [pixel]
#   3 Y_IMAGE                Object position along y                                    [pixel]
#   4 ALPHA_J2000            Right ascension of barycenter (J2000)                      [deg]
#   5 DELTA_J2000            Declination of barycenter (J2000)                          [deg]
#   6 FLUX_APER              Flux vector within fixed circular aperture(s)              [count]
#   9 FLUXERR_APER           RMS error vector for aperture flux(es)                     [count]
#  12 FLUX_RADIUS            Fraction-of-light radii                                    [pixel]
#  13 FWHM_IMAGE             FWHM assuming a gaussian core                              [pixel]
#  14 BACKGROUND             Background at centroid position                            [count]
#  15 THRESHOLD              Detection threshold above background                       [count]
#  16 FLUX_MAX               Peak flux above background                                 [count]
#  17 ISOAREA_IMAGE          Isophotal area above Analysis threshold                    [pixel**2]
#  18 A_IMAGE                Profile RMS along major axis                               [pixel]
#  19 B_IMAGE                Profile RMS along minor axis                               [pixel]
#  20 THETA_IMAGE            Position angle (CCW/x)                                     [deg]
#  21 FLAGS                  Extraction flags                                          
         1    187.7863     17.1650 307.8653788  +6.6681794     5611.985     13861.04     16674.15     90.50244     181.5118     363.2043      2.541     5.98     1174.662     64.04614      610.667        66     2.242     1.639 -39.94   0
         2    932.9299     14.6380 307.5555358  +6.6940845     2863.458     5615.781     6275.844     90.93651     181.7286     363.4211      2.129     4.74      1135.38     64.04614     357.4233        37     1.759     1.244 -37.11   0
         3    531.6844     15.2694 307.7224093  +6.6804603      1662.26     3698.026     4039.681     91.36852     182.0173      363.385      2.354     7.56     1148.364     64.04614      201.877        26     1.721     1.243 -15.31   0
         4    733.7365     13.6114 307.6384245  +6.6878814     1139.133     2738.869      3678.86     90.50244     181.5118     363.1682      2.432     8.43     1141.152     64.04614     138.7605        23     1.920     1.034 -32.83   0
         5    469.5363     14.1760 307.7482957  +6.6788370     1013.672     2045.828     1737.903     90.64736     181.7286     363.2766      2.171     6.79     1151.262     64.04614     103.6548        13     1.256     1.030  31.95   0
         6    997.8430     10.8680 307.5286625  +6.6977981      1483.06     2942.286     2881.834     91.08073     181.6564     363.4211      2.005     6.80     1125.826     64.04614     191.3503        18     1.475     0.983 -57.60   0
         7    717.2802      7.5074 307.6454764  +6.6898540     4450.943     9749.471     11737.28     90.79205     182.0173      358.695      2.371     5.42     1142.411     64.04614     480.0317        48     1.957     1.447 -35.39  16
         8    637.5698      6.8474 307.6786537  +6.6874703      2104.65     4732.213     5922.318     90.64736     181.8008     353.2747      2.478     7.60     1147.016     64.04614     261.3479        36     2.134     1.334 -35.28  16
         9    437.7206      3.3946 307.7618953  +6.6822266      3317.89     7696.398     8581.392     90.64736      173.526     309.2096      2.352     6.48      1154.63     64.04614     338.9003        44     2.064     1.396 -28.12  24
        10     38.6804      3.2197 307.9278684  +6.6689399     5024.211     10540.54     11484.07     90.64736     171.9302     306.7376      2.207     5.33     1179.305     64.04614     638.2271        44     1.976     1.317 -25.58  24
        11    332.7174      1.1724 307.8056446  +6.6796344     1503.961     2132.557     2574.378     76.51303     141.4362     270.1017      1.490     3.74     1164.417     64.04614     375.2592         9     1.347     0.376  -1.35  24
        12    524.6276    999.8615 307.6919147  +6.2736170     941.6693     1488.936     1431.094     90.64736     181.8008     363.3127      1.903     4.05     1211.684     64.04614     131.6864         8     0.887     0.677  30.69   0
        13    726.4155   1022.9224 307.6072691  +6.2708161     5552.536     8290.104     8958.606      88.0023     156.6711     286.9725      1.593     4.85     1207.257     64.04614     767.3518        28     1.738     0.840 -18.50  24
        14    718.4613   1022.7208 307.6105817  +6.2706347     965.7988     1967.754      2379.97     90.21191     159.7409     290.7892      2.209     5.76     1207.177     64.04614       146.48        13     1.530     0.840 -12.56  25
        15    594.3318   1023.6494 307.6621388  +6.2661169     3151.957     4781.949     5545.827     79.37589     144.6479     273.6742      1.636     4.12     1210.739     64.04614     761.3141        20     1.824     0.594   1.12  25
        16    582.3734   1022.4024 307.6671509  +6.2662334     3248.995     5598.058     6271.322     90.50244     164.0382     296.1122      1.892     5.90     1211.238     64.04614     367.4565        28     1.812     0.960 -21.42  24
        17    441.3275   1023.0008 307.7257486  +6.2612820     2378.192     3796.122     4329.265     87.25333     155.3248     285.6889      1.663     5.59     1213.143     64.04614     359.7462        20     1.655     0.768 -23.15  24
        18    819.9473    997.5374 307.5692551  +6.2844112      978.313     1777.994     1995.906     91.08073     181.6564     363.3127      1.801     5.23     1204.295     64.04614     127.3821        12     1.480     0.639 -29.23   0
        19    428.8220    997.4052 307.7318150  +6.2714348     603.5948     1024.364     998.9189     90.64736     181.4395      363.132      1.613     3.54      1212.33     64.04614     98.22754         5     0.784     0.461 -15.49   0
        20      2.2355    997.5096 307.9090942  +6.2571223     587.6567     614.8824     974.9139     90.06628     159.1647     290.2471      1.132     4.36     1213.088     64.04614     103.5481         6     1.113     0.487   6.45  24
        21    920.1777    991.5518 307.5277996  +6.2902144     7879.523     13378.49      14594.3     90.64736     181.7286     363.2043      1.841     4.05     1201.065     64.04614     1107.973        45     1.860     1.082 -30.32   0
        22    551.7450    990.9769 307.6809459  +6.2781903     6197.728     11560.12     13562.76     90.64736     181.7286      363.132      2.033     4.98     1210.926     64.04614     752.3698        44     1.975     1.101 -35.94   0
        23    893.7914    987.7632 307.5388944  +6.2909024     10785.22      18607.9     20991.96      90.2119     181.4395     363.0597      1.895     4.20     1201.754     64.04614     1604.308        54     1.981     1.135 -27.00   0
        24    606.7965    988.2317 307.6581590  +6.2811590     1102.221     2068.818     2283.436     90.35728     181.5118     363.0959      2.237     6.82     1208.708     64.04614     151.2434        16     1.548     0.842 -51.60   0
        25   1015.5513    987.1230 307.4883093  +6.2952102     4445.789     7167.759      7440.92     90.93651     181.8008     363.3488      1.697     3.91      1199.29     64.04614     676.0229        27     1.660     0.834 -30.50  16
        26    538.2614    986.8189 307.6866908  +6.2794579     3108.403     6049.975      6762.31     90.64736     181.6564     363.2043      2.063     4.78     1210.968     64.04614     394.9807        33     1.716     1.132 -24.53   0
        27    647.2552    986.1517 307.6414144  +6.2833659     1217.924     2077.312     2081.986     91.08073     181.7286     363.4572      1.870     6.76     1207.231     64.04614     157.4968        16     1.539     0.832 -44.32   0
        28    491.4102    983.2220 307.7062846  +6.2793807     1600.863     2974.806     3042.256     90.64736     181.4395     363.1682      1.966     5.88     1210.893     64.04614     198.1969        20     1.697     0.966 -29.09   0
        29    925.6038    975.2692 307.5260946  +6.2971191     38661.45     65073.04     71886.96     90.35728     181.2947     363.0959      1.826     4.13      1199.89     64.04614     5617.292        77     1.984     1.170 -32.56   0
        30    233.2920    973.7679 307.8138800  +6.2746630     1282.818     2225.381     3216.406     91.22474     181.5118      363.385      2.038     3.90      1212.76     64.04614     214.2941        13     1.221     0.733 -22.77   0
        31      1.5996    974.4635 307.9101443  +6.2666179     712.4083      779.246      642.788     82.45802       148.94     278.2877      0.934     2.73     1212.232     64.04614     169.8961         5     0.720     0.464  19.50  24
        32    631.8463    971.4831 307.6483157  +6.2889104     785.3475      1372.55     1726.279     91.08073     181.7286     363.3488      1.667     3.59     1207.332     64.04614     135.4722         6     0.999     0.452 -56.78   0
        33    823.2971    969.2102 307.5688212  +6.2962212     1974.147     3325.749     3158.756     90.79205     181.2947     363.1682      1.815     4.76     1202.486     64.04614      243.114        19     1.538     0.795 -36.12   0
        34    771.8243    966.8495 307.5902946  +6.2954841     5398.921     9585.091     11377.73     90.64736     181.8008     363.2404      1.978     4.42     1203.484     64.04614     773.8319        38     1.981     0.950 -34.66   0
        35    558.2216    967.0755 307.6790648  +6.2882769     762.1299     1507.069     2006.404     90.64736     181.5118     363.2766      2.115     5.08      1209.37     64.04614     114.3213         7     1.300     0.778 -44.49   0
        36    241.5764    966.0471 307.8106997  +6.2781285     1088.805     2092.017     2861.578     90.64736     181.7286     363.2043      2.458     7.25     1212.819     64.04614      136.451        16     1.683     0.874 -30.93   0
        37    206.1398    966.1990 307.8254218  +6.2768804      627.491       1198.1     1127.283     90.35728     181.5118     362.9874      1.836     5.48     1212.552     64.04614     86.36646         6     1.314     0.645 -81.61   0
        38     66.5545    964.4614 307.8834913  +6.2729250      1865.96     3847.636     4551.042     90.93651     181.5841     363.4572      2.339     6.09     1212.114     64.04614     242.6339        29     1.896     1.099 -17.85   0
        39    959.9669    962.0476 307.5122589  +6.3037207     5998.982     9934.036     10146.66     90.79205     181.7286     363.2766      1.731     4.22     1198.801     64.04614     889.1694        32     1.811     0.888 -30.83   0
        40    641.9886    956.8362 307.6445967  +6.2952971     677.1223     1108.818     699.0448     90.50244     181.5118     363.0236      1.594     3.77     1206.711     64.04614     101.4069         5     0.816     0.499  59.99   0
        41    933.4603    953.7183 307.5235575  +6.3062802     1925.473      3182.51     3027.911     91.22474     181.7286      363.385      1.699     5.43     1198.581     64.04614      272.569        19     1.674     0.780 -28.00   0
        42    266.7912    950.1382 307.8007616  +6.2855414      3044.68     5988.118     6573.302     90.35728     181.5841      363.132      2.104     5.69      1212.86     64.04614     355.6451        36     1.940     1.168 -30.77   0
        43    654.5869    949.7121 307.6396019  +6.2986588     3629.809     6811.415     6691.263     90.64736     181.5118     363.2043      2.006     5.16     1206.286     64.04614     436.5878        37     1.924     1.179 -29.92   0
        44    793.4247    949.9312 307.5818893  +6.3031896     1251.048     1957.225     2233.747     90.64736     181.5841     363.2766      1.816     6.28     1202.024     64.04614      145.255        14     1.432     0.774 -33.17   0
        45    475.9973    948.8933 307.7138555  +6.2930432     736.6048     1439.323     1454.417     90.64736     181.3671     362.9874      1.948     4.56     1209.694     64.04614      126.692         7     1.138     0.520 -36.46   0
        46     35.3837    947.5513 307.8970218  +6.2788638     1643.467     3242.057     3611.878     90.50244     181.8008     363.0236      2.036     5.38     1211.536     64.04614     216.8821        21     1.668     1.069 -49.63   0
        47    579.2184    942.0858 307.6711856  +6.2992970     1242.461     2299.336     2335.106     90.64736     181.4395     363.2404      1.918     6.79     1207.537     64.04614     161.0072        15     1.552     0.833 -37.70   0
        48    302.4154    943.3711 307.7861861  +6.2895269     551.2615     1161.825     1966.454     90.64736     181.4395     363.2404      2.092     5.04     1212.507     64.04614     86.99304         5     1.360     0.528 -44.71   0
        49    957.3831    943.3951 307.5139630  +6.3113381     783.3501     1269.793     995.7432     90.64736     181.3671     363.1682      1.424     4.07     1197.868     64.04614     112.3947         7     1.004     0.471  -8.48   0
        50   1010.7861    941.8200 307.4918196  +6.3137616     603.7931     1319.878     1399.029     90.79205     181.4395     363.2404      2.219     3.49     1197.594     64.04614     87.58704         5     1.021     0.345 -44.05   0
        51    618.5419    938.5519 307.6549615  +6.3020669     903.6216     1497.744     1333.086     91.08073     181.7286     363.4933      1.629     4.83     1206.627     64.04614     114.4513         7     1.004     0.658  39.81   0
        52    298.3080    936.1293 307.7881394  +6.2923803     990.5883     2001.648     2670.962     90.93651      181.873      363.385      2.527     6.04     1212.458     64.04614     141.0095        12     1.496     0.686 -31.99   0
        53    765.3878    932.1231 307.5941452  +6.3096113     814.7171     1249.941      1552.21     90.64736     181.2947      363.132      1.838     5.70     1201.643     64.04614     121.6978        10     1.134     0.807 -17.46   0
        54    902.6585    928.8480 307.5372005  +6.3155280      6107.23     10281.02     11521.87     91.08073     181.7286     363.4572      1.828     4.10     1197.959     64.04614     903.7168        36     1.827     0.961 -29.75   0
        55    833.6847    929.9870 307.5658305  +6.3127651     1407.266     980.9409     410.0587     90.64736     181.5841     363.1682      0.781     1.49      1199.87     64.04614     543.9984         5     0.641     0.415  64.64   0
        56    438.5150    926.1909 307.7302048  +6.3011678     1597.512     3146.905     3424.264     90.64736     181.3671     363.1682      2.174     6.21     1209.439     64.04614     186.2917        23     1.645     1.062 -36.82   0
        57    340.2906    924.7319 307.7710784  +6.2984900      6991.74     13426.32     14930.78     91.22474      181.873     363.3488      2.110     4.97     1210.848     64.04614     762.7789        50     2.034     1.220 -32.15   0
        58    260.3900    923.6909 307.8043217  +6.2962492     4909.486     9614.523     10713.45     90.79205     181.2947     363.0959      2.154     5.20      1212.54     64.04614     574.3718        46     2.105     1.210 -34.89   0
        59    588.0671    918.3013 307.6683144  +6.3094144     1030.357     1794.979     1930.094     91.08073      181.873     363.3488      2.008     4.46     1206.099     64.04614     156.7094         9     0.942     0.814  49.80   0
        60    918.1010    914.1644 307.5312782  +6.3221052     817.8979     1525.444     1875.576     91.08073     181.5841     363.5656      2.236     5.72     1196.778     64.04614     118.5936         9     1.269     0.725 -39.45   0
        61    755.1310    906.8826 307.5992628  +6.3196938     1441.549      2510.69     3336.957     91.36851     182.0173      363.385      2.132     6.70     1200.837     64.04614     171.6238        16     1.379     0.914 -42.91   0
        62    986.3492    902.8513 307.5032929  +6.3290439         1071     1730.968     2421.733     91.08073     181.5841     363.2766      1.774     4.68     1194.888     64.04614     160.3219         9     1.146     0.641 -35.75   0
        63    539.4590    903.5158 307.6890191  +6.3138999     902.3524     1405.747     1254.679     91.08073     181.8008     363.4211      1.854     6.03      1207.04     64.04614     121.7883        11     1.235     0.828 -36.30   0
        64      5.6573    903.9871 307.9108613  +6.2958576     698.9634     1455.312     1398.864     90.35728     181.5841     340.4461      2.282     4.53     1210.287     64.04614     87.94678         6     0.878     0.663 -55.98  16
        65    673.4956    900.5042 307.6334102  +6.3196104     1950.506     3689.026     3315.166     91.08073     182.4495     363.1682      1.975     6.21     1203.515     64.04614     234.6035        25     1.798     1.048 -26.70   0
        66     70.0215    896.8617 307.8843542  +6.3009571     2050.901     4122.111     4423.673     90.64736     181.7286     363.2404      2.055     5.61     1210.567     64.04614      233.811        28     1.705     1.089 -27.35   0
        67    213.4088    895.8256 307.8247959  +6.3061853     1534.682     2898.331     3188.627     90.64736     181.5118     363.2043      2.037     5.60     1212.014     64.04614     188.2535        16     1.362     0.961 -29.61   0
        68     87.0900    896.3178 307.8772790  +6.3017535     1406.472     2695.761     2998.222     90.79205     182.0173     363.4211      2.068     5.60     1210.643     64.04614     166.9948        16     1.256     0.898 -24.36   0
        69    950.5769    895.9650 307.5183945  +6.3307000     641.6919     1063.358      719.968     90.50244     181.4395     363.0959      1.762     3.98      1195.11     64.04614     95.53418         5     1.367     0.331 -39.82   0
        70    667.8702    889.6646 307.6361156  +6.3238996     5248.205     9552.565     10598.21     91.08073     181.8008     363.3488      2.009     4.74      1202.71     64.04614     612.9988        42     1.899     1.136 -34.54   0
        71    247.5376    892.0237 307.8107407  +6.3088969     629.0842     1050.565     833.5051     90.64736     181.7286     363.2404      2.039     3.95     1212.038     64.04614     102.8881         5     1.383     0.322 -39.08   0
        72    805.2018    890.1644 307.5790167  +6.3282639     634.7605      1214.77     1534.943     90.06628     181.5118      363.132      1.796     4.63     1198.851     64.04614     110.0685         6     1.114     0.545 -19.60   0
        73     27.9251    888.6125 307.9021310  +6.3029531     931.2324     1916.083     1937.635     90.50244     181.3671      363.132      2.028     6.71     1210.162     64.04614     172.7876        11     1.628     0.776 -41.89   0
        74    905.6392    885.6708 307.5374212  +6.3334585     2337.948     3896.565     3888.259     90.93651     181.7286     363.4211      1.766     5.12      1195.65     64.04614     348.9854        23     1.716     0.815 -26.55   0
        75    351.0131    882.9399 307.7680424  +6.3161071     10771.86     22604.88     26834.47     90.35728     181.6564     362.9874      2.290     5.08     1210.034     64.04614     1146.217        70     2.149     1.450 -30.99   0
        76     41.4138    886.0513 307.8966123  +6.3044628     765.1802     1447.492       1596.7     90.35728     181.7286     363.0597      1.960     5.56     1210.163     64.04614     111.7302         8     1.361     0.639 -11.07   0
        77     86.1679    884.2412 307.8780737  +6.3067097     934.0153     1960.402     1654.408     90.64736     181.6564     363.2043      2.108     5.87     1210.306     64.04614     128.8907        13     1.438     0.740 -49.82   0
        78    222.0380    881.8105 307.8216864  +6.3122617     724.9803     1526.119     1117.388     90.35728     181.5118     363.0236      2.093     5.74      1211.86     64.04614     110.9917         9     1.417     0.655 -32.79   0
        79    114.2068    874.0798 307.8667666  +6.3118451     1230.365     2476.031     2764.383     90.64736     181.2223     363.0959      2.227     6.74     1210.394     64.04614     165.1918        19     1.735     0.953 -23.36   0
        80    428.9427    873.8208 307.7359619  +6.3224756     725.0027     1181.199     1250.129     90.64736     181.6564      363.132      1.809     3.75     1208.222     64.04614     103.2916         5     1.225     0.329 -64.10   0
        81     97.9312    867.3071 307.8737618  +6.3140969     1661.845     3332.841     3903.844     90.93651      181.873     363.3488      2.290     6.53     1209.876     64.04614     176.8108        22     1.753     0.930 -32.85   0
        82    895.8365    867.2963 307.5421170  +6.3407212      1605.89     2868.151     2794.176     91.08073     181.5841     363.5294      1.907     5.98     1194.853     64.04614      232.139        18     1.573     0.758 -32.39   0
        83    866.3405    866.9505 307.5543892  +6.3398837     1713.813     2770.202     2722.473     91.08073     181.7286     363.4211      1.728     4.55     1195.407     64.04614     250.4814        19     1.448     0.899 -40.07   0
        84    829.9824    866.4504 307.5695188  +6.3388814     2454.534     4431.208     4530.198     90.50244     181.8008     363.0959      1.928     5.02     1196.805     64.04614     366.5465        27     1.794     0.905 -35.91   0
        85    566.0170    858.0679 307.6795221  +6.3335543     229903.8     461682.4     525901.5     90.50244     181.6564     363.2404      2.178     4.99     1204.061     64.04614     24834.78       171     2.222     1.536 -32.24   0
        86    410.3513    860.6209 307.7441376  +6.3273061     5141.874     10342.67     12257.43     90.50244     181.8008     363.2043      2.204     4.74     1208.176     64.04614     543.6268        50     1.999     1.388 -24.11   0
        87    353.4866    859.1637 307.7678225  +6.3260086     8595.574     17524.51     19953.94     91.08073     181.5841     363.3488      2.249     5.14     1209.584     64.04614     899.6807        60     2.152     1.358 -35.22   0
        88    653.7814    860.2595 307.6429681  +6.3355739      585.078     1210.503     1368.142     90.64736     181.5841      363.132      1.816     5.54     1200.599     64.04614     94.30969         9     1.767     0.490 -12.74   0
        89    671.7410    855.4067 307.6356675  +6.3381762     2476.833     5133.558     5718.784     90.35728     181.5841     363.0236      2.166     4.79     1200.002     64.04614     271.6129        29     1.615     1.123 -36.42   0
        90    904.0977    854.1435 307.5391278  +6.3464275     4354.248     7704.014     8710.554     90.93651     181.7286     363.6017      1.949     4.72     1194.023     64.04614     542.9229        37     1.940     1.052 -26.83   0
        91    742.8427    851.7256 307.6062380  +6.3420636     592.8631     957.9554     760.1923     90.93651     181.8008      363.385      1.737     4.91     1198.607     64.04614     83.94421         7     1.349     0.506 -45.30   0
        92    646.8479    849.2445 307.6462234  +6.3398919     2422.564     4510.953     5392.965     91.08073     181.6564     363.3127      2.094     5.10     1200.043     64.04614     319.9578        28     1.813     0.978 -28.85   0
        93    835.0545    848.1004 307.5680313  +6.3466283     1163.447     2300.086         2420     90.79205     181.7286     363.6738      2.047     6.59     1195.674     64.04614     137.0887        16     1.469     0.830 -38.38   0
        94    962.2764    846.9381 307.5151880  +6.3513359     650.0263     976.0905     411.1733     91.36852     181.7286     363.3488      1.755     5.52     1191.753     64.04614     134.9686         8     1.668     0.515 -40.51   0
        95    638.9963    844.7714 307.6496386  +6.3414777      1652.08     3731.604      5609.02     90.50244     181.4395     363.1682      2.623     9.15     1199.971     64.04614     212.1344        32     2.236     1.066 -56.11   0
        96    923.0519    841.7455 307.5316681  +6.3521775     2810.466     4837.963     5510.673     91.22474     181.6564      363.385      1.912     4.10     1192.957     64.04614     394.8108        26     1.499     1.046 -32.32   0
        97    381.2497    838.1754 307.7569962  +6.3356036     1656.422     3150.865     3641.401     90.64736     181.8008     363.2404      2.117     6.34     1208.084     64.04614     174.0667        21     1.527     0.981 -35.50   0
        98    517.3386    828.0384 307.7007745  +6.3443323     2039.597      3704.73     3605.108     91.08073     181.8008     363.3488      1.982     7.43     1203.722     64.04614     255.1855        29     2.100     1.022 -37.25   0
        99    861.8376    826.9202 307.5576147  +6.3562658     717.0312     1158.812     1516.139     90.93651     181.8008     363.3488      1.791     4.74      1193.72     64.04614     98.55615         5     0.955     0.668 -57.02   0
       100    565.3674    823.7265 307.6809570  +6.3477148     3753.494     8148.323     11024.92     90.93651     181.7286     363.3127      2.749     7.56     1201.933     64.04614     445.3125        55     2.791     1.326 -11.78   0
       101    481.9743    822.7426 307.7156538  +6.3453395     996.2402     1930.034     2156.642     90.64736     181.7286     363.1682      2.230     5.53     1203.941     64.04614     166.3445        13     1.305     0.986 -10.86   0
       102    899.6680    822.0203 307.5420552  +6.3595467     1117.497      1885.18     2101.261     90.64736     181.6564     363.2404      1.807     5.32     1192.451     64.04614     156.5955        14     1.420     0.817 -42.53   0
       103    123.9123    821.9725 307.8645079  +6.3336884      987.989     1787.486     1627.116     91.22474     181.4395     363.2043      1.992     6.10     1209.135     64.04614     121.3342        12     1.399     0.748 -27.13   0
       104    535.1606    817.7537 307.6937155  +6.3491741     12942.03     26539.67     30430.12     90.93651     181.7286     363.2043      2.221     5.15     1202.652     64.04614     1316.699        65     2.105     1.365 -33.85   0
       105    948.5645    815.7656 307.5219411  +6.3637542     3280.969     5592.728     6046.826     90.79205     181.4395     363.0597      1.809     4.59     1190.607     64.04614     437.3401        27     1.693     0.931 -32.31   0
       106    328.0200    806.5264 307.7801970  +6.3468952     2020.501     4287.768     4587.612     90.64736     181.6564     363.2766      2.344     6.92     1208.671     64.04614     257.0933        34     2.015     1.251 -30.73   0
       107     45.9032    808.1757 307.8974015  +6.3367726     1121.302     2006.452     1628.441     91.22474     181.4395     363.2043      1.973     7.29     1208.361     64.04614     125.1344        18     1.468     1.013 -42.11   0
       108     27.9130    804.8366 307.9049927  +6.3375486      1444.58      2933.74     3537.801     91.08073     181.5841     363.3488      2.313     6.80     1208.288     64.04614     163.6873        20     1.622     0.997 -55.27   0
       109    793.2425    802.2155 307.5869642  +6.3641874     40975.66     76939.54     86736.27     90.50244     181.4395     363.0959      2.068     4.72     1194.353     64.04614     4782.287        85     2.106     1.345 -31.56   0
       110    250.0897    778.8676 307.8135302  +6.3557119     782745.8      2313228      2871740     91.22474     181.9452     363.3127      2.778     7.44     1209.042     64.04614     63468.64       643     2.874     2.319 -50.39   4
       111    721.4348    796.7969 307.6169969  +6.3640355     15135.98     30171.93     34882.75     90.06628     181.5118     363.0597      2.174     4.84     1195.194     64.04614     1604.521        65     2.151     1.341 -33.69   3
       112    715.2351    793.3873 307.6196895  +6.3652372     61489.39     121285.2     138174.5     90.50244     181.5118      363.132      2.144     4.96     1194.984     64.04614     6670.043        98     2.179     1.419 -32.75   3
       113    360.1411    794.3444 307.7672598  +6.3529993      13147.5     27955.68     32032.53     91.22474     181.7286      363.385      2.306     5.25     1207.002     64.04614     1351.246        75     2.177     1.521 -32.22   0
       114    409.4026    794.6536 307.7467731  +6.3545170     903.4025     2090.189     2173.695     90.35729     181.4395     362.9151      2.186     6.87     1205.468     64.04614     137.0676        12     1.396     0.947 -69.42   0
       115    422.0107    792.1636 307.7416169  +6.3559663        14129      30280.4      35323.3     90.50244     181.5118     363.0597      2.301     5.25     1204.778     64.04614     1516.314        72     2.175     1.449 -30.71   0
       116    959.1411    790.7311 307.5183906  +6.3744444     1611.515     2776.018     2694.959     91.22474     181.6564     363.3127      1.813     5.64     1188.964     64.04614     240.2556        20     1.764     0.788 -40.91   0
       117    915.4766    788.8091 307.5366066  +6.3737877     5246.557     9708.345     11600.72     90.64736     181.1499      363.132      2.081     4.90       1190.2     64.04614     613.4843        38     1.895     1.062 -33.70   0
       118    655.8181    788.0363 307.6445694  +6.3654684     4365.459     8625.614     9816.357     90.50244     181.5118     363.0959      2.173     5.74     1196.071     64.04614     467.4402        42     2.040     1.176 -32.34   0
       119    444.7732    785.8189 307.7323708  +6.3593464     1150.347     2222.792     1909.521     90.64736     181.5118     363.2404      1.829     5.63     1203.238     64.04614     140.6384        13     1.274     0.809 -43.21   0
       120    424.9462    774.8497 307.7409849  +6.3632144     34006.83     72376.77     84763.43     91.22474     181.7286      363.385      2.326     5.24      1203.65     64.04614     3344.866        99     2.268     1.548 -31.58   0
       121    918.4391    797.3557 307.5350861  +6.3703565       6979.5     12376.98     14144.17     90.79205     181.7286     363.2404      1.938     4.56     1190.572     64.04614     874.2062        43     1.988     1.059 -32.06   0
       122    690.7275    778.0576 307.6303962  +6.3707520     1623.606     3286.854     3725.272     91.22474     181.7286     363.3127      2.145     6.04       1194.5     64.04614      173.448        24     1.629     1.040 -36.89   0
       123    160.5232    779.1497 307.8507495  +6.3525984     670.6136     1156.528     1171.582     90.93651     181.8008     363.3488      1.767     4.68     1208.444     64.04614     77.12732         6     1.037     0.601 -24.97   0
       124    542.7026    773.8539 307.6920702  +6.3675551     4421.448     9216.384     10103.03     90.93651     181.7286     363.6017      2.250     5.79     1198.894     64.04614     466.1174        47     2.078     1.262 -32.36   0
       125    459.7003    772.2978 307.7266252  +6.3654285     2902.117     6243.185     7871.583     91.08073     182.1615     363.1682      2.350     6.23     1201.644     64.04614     294.8157        39     2.041     1.297 -25.48   0
       126    787.8027    770.2699 307.5903069  +6.3771993     8285.219     15815.89     17703.63     90.50244     181.2947      363.132      2.068     4.76     1191.362     64.04614      990.025        52     2.019     1.230 -33.83   0
       127    456.0089    765.9149 307.7283764  +6.3679413     1342.121     2788.305     3668.839     90.64736     181.3671     363.1682      2.259     8.52     1201.506     64.04614       154.71        26     1.972     1.029 -27.08   0
       128    810.4654    763.8132 307.5811046  +6.3806197     911.2957     1671.689     1620.611     90.50244     181.5118     363.2404      2.374     4.90     1190.339     64.04614     121.7933         7     1.160     0.585 -37.18   2
       129    137.9965    759.9363 307.8607673  +6.3597785     1888.168     4157.763     5418.034     90.35728     181.4395     363.0959      2.402     6.52     1207.885     64.04614     231.0289        26     1.734     1.204  -8.41   3
       130    138.1016    754.2117 307.8609187  +6.3621461     1077.422     2750.832     3834.314     90.79205     181.4395     363.0959      2.858     7.89     1207.766     64.04614     146.5604        21     1.702     1.286 -43.40   3
       131    145.8230    762.6152 307.8574229  +6.3589343      7239.79      16094.8     20130.76     90.79205     181.5118     363.2404      2.506     5.46     1207.984     64.04614     772.5575        67     2.313     1.543 -24.92   3
       132    154.2241    762.6166 307.8539309  +6.3592150     1809.233     3885.502     4384.097     90.79205     181.5841     363.2766      2.234     5.74     1208.023     64.04614     213.8898        23     1.557     1.060 -54.42   3
       133    933.3280    758.7852 307.5302007  +6.3867801     5010.909     8986.359     10282.99     90.50244     181.5841     363.2043      1.950     4.47     1188.137     64.04614     634.6166        37     1.866     1.044 -31.12   0
       134    982.4236    758.7021 307.5097943  +6.3884450      1409.32     2268.064       3068.2     91.22474     181.4395     363.1682      2.098     4.75     1186.676     64.04614     208.2863        15     1.268     0.858 -41.54   0
       135    688.6547    756.7444 307.6319801  +6.3794849     1157.956     2511.835     2831.763     91.36852     181.7286     363.3488      2.181     6.90     1193.311     64.04614     152.7693        18     1.575     1.084 -45.88   0
       136    575.3451    756.0109 307.6791066  +6.3760123     1570.873     3297.549     2860.043     90.35728     181.6564     362.9874      2.159     7.24     1196.233     64.04614     198.7452        25     1.949     1.151 -31.36   0
       137    423.8467    755.4646 307.7421005  +6.3711832     797.9859      1457.19     1422.092     90.93651     181.6564      363.385      2.002     6.41     1202.558     64.04614     96.58301        10     1.504     0.768 -15.11   0
       138    957.0167    750.4135 307.5206362  +6.3910244     2552.347     4519.522      5297.79     90.79205     181.3671     363.2766      1.995     4.61     1186.969     64.04614     348.3531        31     1.788     1.058 -34.52   0
       139    927.3327    750.9576 307.5329576  +6.3898136     2563.969     4295.349      4744.82     91.08073     181.6564     363.4211      1.799     4.70     1187.862     64.04614      351.359        24     1.623     0.912 -39.56   0
       140    987.2115    750.3766 307.5080852  +6.3920423     1249.964     2248.594     2654.176     90.64736     181.5118     363.2766      2.129     4.85     1186.094     64.04614     182.2135        11     1.267     0.611 -43.08   0
       141    679.6662    750.0192 307.6359444  +6.3819629     1033.237     1792.106     2607.796     90.64736     181.7286     363.2404      1.973     6.31     1193.291     64.04614     137.9819        11     1.407     0.795 -47.56   0
       142    827.4054    748.1486 307.5745928  +6.3876523      736.277      1385.49     1003.049     90.35728     181.5118     362.9513      1.849     5.25     1188.667     64.04614     112.8475         7     1.330     0.584 -54.18   0
       143    901.6358    745.8660 307.5438121  +6.3910626     753.0472     1243.365      1536.88     90.93651     181.8008     363.4211      1.733     4.09     1187.851     64.04614     133.8027         5     0.914     0.522 -40.83   0
       144    252.1673    745.4697 307.8138031  +6.3695736     1342.131      2862.93     3239.952     90.93651     181.7286      363.385      2.232     7.36     1207.893     64.04614     157.4871        19     1.483     1.021   4.01   0
       145    272.7934    741.4147 307.8053674  +6.3719380     389.9044     919.7783      1057.21     90.64736     181.4395     363.1682      2.179     5.32      1207.74     64.04614     73.36609         5     1.474     0.543  40.40   0
       146    971.6960    738.0339 307.5149522  +6.3966245     1998.637     3508.677     3704.113     91.22474     181.5841     363.4933      1.800     5.06     1185.942     64.04614     252.3281        21     1.565     0.924 -40.20   0
       147    944.9670    740.4016 307.5259837  +6.3947589     814.3353      1240.52     1403.063      90.2119     181.5118     363.0597      1.582     3.93     1186.808     64.04614     127.6738         5     0.919     0.482  -6.73   0
       148    918.8604    739.2542 307.5368752  +6.3943655     826.4097       1119.6     815.1349     91.22474     181.6564     363.3127      1.467     4.45     1187.285     64.04614     147.8077         8     1.134     0.497 -50.60   0
       149   1013.4545    731.2284 307.4978225  +6.4008214     1132.696     1959.578     1669.728     90.79205     181.8008     363.2404      1.930     4.94     1184.225     64.04614     181.0292         9     1.267     0.545 -26.35   0
       150    815.1636    729.5388 307.5803115  +6.3949307     811.6469     1384.194     1814.416     91.08073     181.7286     363.3127      1.860     4.83      1187.47     64.04614     112.3438         7     1.053     0.629 -20.97   0
       151    901.3441    727.1932 307.5445648  +6.3987644      1090.63     1873.671     2148.656     90.50244     181.5841     363.0597      1.846     5.20     1186.705     64.04614     160.6666        13     1.108     0.971 -83.91   0
       152    857.8459    719.1405 307.5629199  +6.4006443       1046.7     1695.306     1553.817     90.93651     181.7286     363.4572      1.780     5.62     1186.812     64.04614     132.2174        10     0.968     0.920 -43.56   0
       153     57.4699    718.1630 307.8956629  +6.3743318     1613.335     3293.545     3904.486     90.93651     181.7286     363.4572      2.227     5.74     1206.521     64.04614     192.2871        26     1.561     1.278 -44.48   0
       154    669.9359    706.2684 307.6414721  +6.3997070     4170.145     8378.901     8917.616     91.08073     181.8008      363.385      2.180     4.96     1190.623     64.04614     436.8751        45     2.045     1.229 -37.08   0
       155    133.0003    702.4466 307.8648028  +6.3833523     2168.118      4833.45     5069.945      90.2119     181.2947     362.8427      2.256     5.82     1204.678     64.04614      246.041        35     1.803     1.326 -40.08   0
       156    643.5767    702.1469 307.6525695  +6.4005309     1449.173     3149.001     4323.078     90.50244     181.7286      363.132      2.711     5.57     1191.007     64.04614     212.1522        20     1.556     1.078 -53.60   0
       157   1006.8172    701.4191 307.5015888  +6.4129119     1966.118     3672.545     3446.522     90.79205     181.4395     363.2766      1.988     5.10     1181.875     64.04614     265.7843        24     1.768     0.936 -18.60   0
       158    786.8316    698.3734 307.5931444  +6.4068589     13760.46     27521.09     31244.02     90.50244     181.4395      363.132      2.152     5.06     1186.734     64.04614     1598.302        66     2.112     1.347 -30.25   0
       159    916.7642    698.0496 307.5391398  +6.4113127     2731.297     4821.147     5331.075     90.93651     181.7286     363.2766      1.891     4.82     1184.611     64.04614      344.608        25     1.604     0.953 -38.45   0
       160    485.8696    698.1902 307.7182634  +6.3969063     900.5238     1648.707     1815.612     90.50244     181.5118     363.1682      1.852     4.95     1195.509     64.04614     118.1785         9     0.991     0.847 -35.50   0
       161    260.4229    692.1711 307.8121852  +6.3918602     3603.027     8091.011     9914.517     90.50244     181.5118     363.1682      2.405     5.80     1202.761     64.04614     363.3446        46     1.956     1.468 -31.00   0
       162    667.4198    691.1397 307.6430308  +6.4058710     4724.476     9710.892     11207.43     90.64736     181.5841     363.2404      2.261     5.20     1189.579     64.04614     486.3241        50     2.110     1.313 -28.90   0
       163    649.7906    691.8875 307.6503342  +6.4049749     654.3255     1410.714     1996.324     90.64736     181.3671     363.1682      2.239     5.80     1190.191     64.04614     98.31653         8     1.662     0.569 -26.67   0
       164    927.1632    684.1973 307.5352850  +6.4173790     882.3162     1643.837     1726.333     90.06628     181.5118      363.132      2.020     5.52     1183.381     64.04614      134.576         9     1.151     0.747 -35.95   0
       165    739.2477    679.6112 307.6135613  +6.4130238     2232.646      4919.25     6362.625     90.50244     181.5841     362.9874      2.523     6.45     1186.656     64.04614     249.4944        33     1.822     1.294 -25.75   0
       166   1005.2966    676.0632 307.5030775  +6.4233330     7123.439     12773.98     13863.45     90.93651      181.873     363.4211      1.961     4.81     1179.847     64.04614     907.1619        45     1.903     1.150 -34.53   0
       167    943.9868    676.4260 307.5285537  +6.4211473     1895.379     3442.394     3477.446     90.79205     181.5118     363.2766      1.879     4.62     1182.176     64.04614     261.1307        22     1.513     0.994 -27.40   0
       168     25.0078    676.4918 307.9105776  +6.3904521     1277.835     2736.672     4332.573     90.64736     181.3671      363.132      2.839     4.97     1205.426     64.04614     166.0154        16     1.353     1.009 -70.22   2
       169     82.8650    671.3260 307.8867036  +6.3945245     15469.94     34219.75     40440.41     91.22474     181.7286     363.3488      2.386     5.32     1203.055     64.04614      1591.74        81     2.146     1.635 -31.79   0
       170    544.7186    672.0455 307.6946870  +6.4096667     1181.124      2717.07     3322.208     91.08073     181.7286     363.3127      2.495     7.73     1192.903     64.04614     135.2101        22     1.694     1.217 -15.33   0
       171    933.6051    668.2354 307.5331466  +6.4241850     858.9389     1254.682     529.9013     90.06628     181.5118     363.0959      1.460     4.89     1182.034     64.04614     116.0194         8     1.168     0.626 -76.19   0
       172    513.6732    669.3630 307.7076840  +6.4097389     719.1424     1531.406     1877.527     90.93651     181.7286     363.4211      2.600     5.84     1193.227     64.04614      100.624         8     1.130     0.851 -45.44   0
       173    728.5680    663.3178 307.6185531  +6.4193971     2284.662     4927.243     5773.096     90.93651     181.5841     363.2404      2.385     6.65     1185.841     64.04614     257.5391        32     2.013     1.066 -34.93   0
       174    750.7181    661.4966 307.6094063  +6.4208866     2794.348     5662.465     5957.224     90.93651     182.0894     363.4572      2.148     5.45      1185.36     64.04614     294.4641        37     1.844     1.250 -36.24   0
       175    582.7092    659.3182 307.6793255  +6.4161896     1825.564     4057.027      4289.93     90.79205     182.0173     363.4211      2.319     6.39     1190.528     64.04614     217.2974        31     1.869     1.242 -32.59   0
       176   1022.7521    657.7441 307.4964394  +6.4314780     3838.373      5431.39     5568.299     89.92043     159.4942     290.4279      1.496     3.66     1177.784     64.04614     503.9733        22     1.381     0.890 -58.36  24
       177    243.0181    659.0327 307.8205482  +6.4049630     1070.597     2664.914     2927.546     90.64736     181.5118     363.2043      2.356     8.73     1200.277     64.04614     122.9445        22     1.717     1.240  -6.92   0
       178    988.8350    656.3778 307.5105863  +6.4309163     6324.531     11473.43     12484.95     90.50244     181.4395     363.0597      1.945     4.53     1179.034     64.04614     825.9382        41     1.902     1.082 -30.86   0
       179    326.6606    658.2725 307.7858037  +6.4080739     691.4283      1627.49     1928.498     91.22474     181.7286      363.385      2.347     5.20     1198.881     64.04614     87.13367         5     1.037     0.737  12.05   0
       180    708.3615    655.4955 307.6272185  +6.4219548     693.5737     1507.157     1835.789     91.08073     181.5841     363.4933      2.365     4.96     1185.841     64.04614     76.46069         6     0.995     0.699 -22.79   0
       181    147.6141    650.2187 307.8605074  +6.4054098     13531.24     31570.92     37199.99     90.64736     181.4395     363.2404      2.424     5.64     1201.508     64.04614     1303.193        74     2.179     1.604 -33.17   0
       182    434.1842    651.2601 307.7413435  +6.4145619     1637.727      3653.99     4180.302     90.50244     181.6564     363.0597      2.342     7.18      1195.85     64.04614     208.6348        30     1.919     1.234 -30.93   0
       183    815.3815    650.1134 307.5829092  +6.4277391     849.7751     1647.534     1562.641     90.79205     181.4395     363.2043      2.068     4.79     1183.992     64.04614     118.1926         8     1.120     0.579 -36.14   0
       184    983.8712    639.4332 307.5132225  +6.4377493     5193.772     9995.677     12025.98     90.93651     181.7286      363.385      2.182     4.75     1178.073     64.04614     620.3307        48     2.020     1.305 -19.01   0
       185    577.5036    634.8652 307.6823192  +6.4261145     28559.17      63495.5     74600.52     91.08073      181.873      363.385      2.366     5.46     1189.028     64.04614     2614.624        91     2.269     1.570 -31.98   0
       186     28.6894    638.7396 307.9103349  +6.4061656     789.5569     1393.083     1225.403     90.93651      181.873      363.385      1.878     5.75     1203.831     64.04614     103.5165         8     1.002     0.930   0.92   0
       187    185.3119    631.7839 307.8454645  +6.4142847      1531.03     3510.465     4247.841     90.79205     181.4395     363.1682      2.390     6.92     1200.561     64.04614     164.9261        26     1.608     1.158 -26.92   0
       188     78.2628    626.3802 307.8901490  +6.4129310      693.627     1425.562     1637.641     90.64736     181.7286     363.1682      1.920     5.14     1201.467     64.04614     119.8292         7     1.355     0.551 -19.98   0
       189    474.7852    618.6769 307.7255716  +6.4293732     34616.37     81198.05     96652.66     90.64736     181.3671     363.1682      2.457     5.71     1192.989     64.04614     3262.202       106     2.303     1.672 -32.23   0
       190     18.3344    620.7907 307.9152517  +6.4132305     808.5851     2025.923     2216.935     90.50244     181.5841     363.2404      2.476     7.52     1203.539     64.04614     108.0906        13     1.976     0.801 -42.48   0
       191    149.5139    613.9653 307.8609529  +6.4204446     805.7429     2106.771     2261.168     91.08073     181.5841     363.3488      2.513     7.57      1200.25     64.04614     116.7048        12     1.644     0.975 -29.41   0
       192    320.5439    607.9878 307.7900568  +6.4286354     1156.422      2563.36     3293.797     90.35728     181.6564     362.9874      2.502     7.25     1195.065     64.04614     160.8451        17     1.420     1.036   0.32   0
       193    746.6267    602.2133 307.6131153  +6.4452332     3193.012     6933.447     7624.808     90.79205     181.5118     363.2766      2.265     5.58     1181.684     64.04614     375.8071        42     1.928     1.308 -33.39   0
       194    800.1528    597.4141 307.5910244  +6.4489964     8813.816     18131.55     21148.26     90.35728     181.5118     363.0959      2.241     5.23     1180.965     64.04614     917.5198        60     2.067     1.401 -34.19   0
       195   1017.0474    597.6025 307.5008428  +6.4561262     761.1251     1182.909     649.9731     90.35728     181.3671      360.884      1.712     4.13     1173.915     64.04614     118.0205         7     1.138     0.428 -56.75  16
       196    543.0016    597.3085 307.6979373  +6.4404739     735.4527     1543.009      2011.13      90.2119     181.3671     363.0597      2.159     4.88     1188.642     64.04614     99.43286         6     1.339     0.503  36.29   0
       197    624.5326    595.4337 307.6641052  +6.4439665     1805.236     3945.449     4704.663     90.93651     181.8008     363.4572      2.425     7.30     1183.975     64.04614     188.0483        28     1.717     1.280 -26.68   0
       198    941.2477    591.5049 307.5325634  +6.4561273     865.2346     1823.371     2060.877     90.93651     181.5841     363.5294      2.041     5.36     1176.522     64.04614     140.7477        10     1.288     0.811 -47.23   0
       199    237.3822    589.2571 307.8252663  +6.4335893     762.7991     1359.097     1566.112     90.50244     181.6564     363.0597      1.982     4.88     1197.082     64.04614      93.3606         6     0.975     0.692 -71.53   0
       200    876.0436    580.5728 307.5600424  +6.4584753     1917.635     3586.008     3399.306     90.64736     181.8008     363.2404      1.991     6.29     1178.986     64.04614      227.915        25     1.680     1.088 -33.96   0
       201    835.2799    578.1113 307.5770735  +6.4581364     1708.403     3504.917     4022.029     90.79205     182.0173     363.4572      2.213     6.69     1179.814     64.04614     203.0309        24     1.844     0.949 -40.71   0
       202    815.5660    569.3122 307.5855676  +6.4611146       102307     209850.4     244357.1     91.08073     181.5841     363.3488      2.264     5.31     1179.645     64.04614     10408.65       164     2.559     1.564 -30.54   0
       203    263.3027    573.2991 307.8150337  +6.4410465     4074.377     9757.227     10918.67     91.08073     182.2335     363.1682      2.441     5.69     1194.156     64.04614     433.5725        49     1.909     1.560 -40.50   0
       204    197.3884    567.7542 307.8426249  +6.4411309     31279.47     75911.27     93751.72     90.50244     181.5118     363.0236      2.565     5.86     1196.857     64.04614     3099.633       118     2.425     1.762 -33.14   0
       205    121.5409    564.0815 307.8742816  +6.4401079     3368.611     7967.774     8859.876     91.22474     181.8008     363.3488      2.387     6.28     1198.642     64.04614     358.8677        50     2.036     1.520 -38.04   0
       206    986.9124    560.6199 307.5146216  +6.4703990      973.486     1816.133     1644.358     90.79205     181.4395     363.2766      1.916     4.29     1172.779     64.04614     153.6194         8     1.080     0.648   8.25   0
       207    852.1627    556.5361 307.5707845  +6.4676080     2909.792     5798.373      6080.18     91.08073     181.7286     363.4211      2.105     5.72     1178.633     64.04614     315.8373        34     1.795     1.197 -32.66   0
       208    370.8097    554.9163 307.7709646  +6.4522322     8804.742     21691.21     26532.17     90.64736     181.3671     363.1682      2.553     5.88     1189.241     64.04614     832.6929        75     2.297     1.656 -28.31   0
       209    173.7279    552.7688 307.8529716  +6.4465272     999.7025      2544.38     3317.679     90.93651     181.7286     363.3488      2.900     6.43     1196.881     64.04614     140.3225        12     1.765     0.657 -14.90   2
       210    806.2620    549.9243 307.5900923  +6.4688119      3517.74     7064.113     7807.651     91.36852     181.7286     363.3488      2.197     5.60     1178.993     64.04614      369.467        39     1.994     1.184 -30.77   0
       211    537.2000    549.7797 307.7019626  +6.4599085     3397.031     8470.672     9645.923     90.50244     181.2947     362.9513      2.482     6.52     1184.523     64.04614     324.2905        50     2.134     1.458 -33.91   0
       212    184.3703    543.0886 307.8488770  +6.4508811     3573.084     8908.937     10727.19     91.22474     181.4395     363.2404      2.546     6.32     1195.721     64.04614     361.0326        54     2.105     1.616 -39.03   0
       213    581.6082    542.8567 307.6837346  +6.4642486     1320.226     2768.872     3641.667     90.35728     181.5841     363.0597      2.503     7.47     1182.951     64.04614     162.4048        20     1.744     0.931 -42.55   0
       214    279.3931    539.4515 307.8094963  +6.4555626     44401.66     110960.5     135041.6     90.50244     181.5118     362.9151      2.584     5.93     1190.404     64.04614     4196.693       119     2.378     1.794 -34.64   0
       215    802.3909    531.6913 307.5923191  +6.4762130     10196.05      20995.9     24197.57     90.64736     181.3671     363.0597      2.229     5.05     1177.953     64.04614     984.8971        65     2.085     1.438 -30.35   0
       216    506.1337    530.1693 307.7155445  +6.4669706     22025.49     54991.99     68173.12     90.79205     181.7286     363.2766      2.606     5.91     1184.096     64.04614     1993.313       103     2.386     1.784 -24.78   0
       217    218.9260    526.7666 307.8350668  +6.4587781     1114.157     2238.397     2670.454     90.93651     181.6564     363.3488      2.354     6.82     1192.781     64.04614      119.084        15     1.359     0.961 -53.46   0
       218    666.1112    525.3362 307.6491956  +6.4743005      1763.24     3764.077     4551.872     90.93651     182.0173      363.385      2.336     6.15     1179.253     64.04614     197.9608        25     1.570     1.175 -34.35   0
       219    978.4597    533.0250 307.5190686  +6.4815146     1167.019     2243.869     2390.866     90.64736     181.7286     363.2043      2.154     7.62     1171.248     64.04614     146.2134        19     1.668     0.975 -52.82   0
       220     55.7805    541.7446 307.9023813  +6.4471285     2894.146     6488.041     7533.282     90.50244     181.7286      363.132      2.370     5.32     1199.104     64.04614      319.814        41     1.787     1.443 -36.07   0
       221    403.6152    521.1417 307.7584740  +6.4672760     1047.366     2319.948     2349.044     90.35728     181.6564     363.0597      2.262     6.97     1185.269     64.04614     114.7572        13     1.339     1.018  84.36   0
       222    336.3812    519.2040 307.7864926  +6.4658296     1750.113     3413.841     4110.504     90.64736     181.2223      363.132      2.247     5.67     1186.979     64.04614     210.0122        19     1.482     0.962 -77.55   3
       223    334.0000    518.1147 307.7875197  +6.4661998     1141.265     2235.665     3577.836      90.2119     181.1499     362.9513      2.295     7.49     1186.944     64.04614      190.498        15     2.379     0.660 -84.79   3
       224    150.5744    517.8675 307.8637864  +6.4601648     13736.97     33256.47        39967     90.64736     181.5841     363.2404      2.534     5.75     1194.891     64.04614       1346.4        82     2.291     1.685 -32.97   0
       225    515.1612    518.3112 307.7121938  +6.4721689     1066.905     2448.498     3183.643     91.08073     181.6564      363.385      2.543     8.25     1182.815     64.04614     115.4821        19     1.518     1.253 -42.28   0
       226    878.1153    517.5239 307.5613141  +6.4845822     1141.321     1808.076     2053.338     91.22474     182.0894     363.4211      1.689     5.39     1174.702     64.04614      153.511        12     1.213     0.722 -69.92   0
       227    115.9187    516.3501 307.8782459  +6.4596307     1462.985     3551.741     4449.678     91.08073     181.8008      363.385      2.622     8.03     1195.964     64.04614     163.8143        30     1.893     1.281 -41.99   0
       228    975.8224    512.2274 307.5208682  +6.4900161     3663.374     6713.639     7913.573     90.50244     181.5118     363.2766      2.077     4.51     1170.255     64.04614     425.6309        35     1.734     1.121 -40.86   0
       229    548.5403    505.7529 307.6987423  +6.4784687      646.486     1203.429     1725.492     91.08073     181.7286     363.4572      2.454     4.96     1181.072     64.04614     94.99951         6     0.952     0.731  20.16   0
       230     14.8771    502.2962 307.9207317  +6.4620476     14129.75     33100.24     39579.62     90.79205     181.9452     363.4211      2.500     5.34     1197.868     64.04614     1545.169        84     2.226     1.694 -35.73   0
       231    447.4813    498.8502 307.7409938  +6.4779467     22001.59     54005.54      65486.3     91.08073     181.8008      363.385      2.570     6.04     1182.638     64.04614     1976.042       101     2.400     1.721 -32.54   0
       232    655.4265    498.3908 307.6545517  +6.4850723     6863.988      15604.5     18331.87     90.64736     181.5118     363.2043      2.397     5.89     1177.587     64.04614      616.673        62     2.177     1.479 -34.03   0
       233    212.7151    496.5509 307.8386779  +6.4710481      10064.3     25358.77     30783.89     91.08073     181.7286     363.4211      2.624     5.88     1190.961     64.04614     945.1689        78     2.222     1.759 -35.63   0
       234      1.5293    495.6591 307.9265074  +6.4643408     15697.68      21733.4     23505.35     82.29868     147.8786     277.2007      1.395     3.96     1197.939     64.04614     3107.692        35     1.740     0.725 -87.36  24
       235    989.3040    496.6595 307.5157888  +6.4968930     765.0466      1520.04     1489.962     90.93651     181.7286     363.4572      2.196     7.18     1169.149     64.04614     128.6931        11     1.930     0.749 -48.17   0
       236    829.4971    496.5489 307.5822386  +6.4916278     654.3036     1167.167     616.3105     90.93651     181.6564     363.5656      1.730     4.48     1174.742     64.04614     119.1504         6     1.190     0.479 -29.26   0
       237    577.2841    495.4407 307.6871415  +6.4836860     1502.908     3633.271      3798.82     91.08073     181.6564     363.2766      2.340     9.05     1179.549     64.04614     154.0543        28     1.874     1.219 -40.25   0
       238    950.8835    492.3216 307.5319105  +6.4974085     3413.643     6553.975     6954.135     91.22474     182.0894     363.4933      2.040     5.15     1170.051     64.04614     350.6451        33     1.780     1.099 -35.91   0
       239    624.2415    490.8330 307.6677740  +6.4871543     3459.171     8214.669     10133.61     90.79205     181.7286     363.1682      2.508     6.10      1177.91     64.04614     314.6477        45     1.983     1.423 -37.51   0
       240    973.5513    484.6101 307.5227460  +6.5013461     2369.542     4664.358     4864.646     90.50244     181.5118     362.9874      2.066     5.04     1169.007     64.04614     287.2286        30     1.702     1.166 -31.08   0
       241    536.5790    482.0982 307.7045185  +6.4878384     3753.468     9184.744     11768.34     90.93651     181.5118     363.0959      2.735     6.42     1179.692     64.04614     381.9111        56     2.186     1.608 -32.30   0
       242    383.3010    482.5513 307.7682318  +6.4825340     1190.688     3065.403     3615.927     91.08073     181.6564     363.5656      2.707     8.87     1182.661     64.04614     137.4369        20     1.526     1.439  18.55   2
       243    893.0543    477.7701 307.5564477  +6.5014963     1934.751     3779.792     4682.262     90.79205     181.8008     363.2404      2.213     6.37     1171.215     64.04614     226.6337        25     1.750     1.020 -36.78   0
       244    939.1778    472.0227 307.5374641  +6.5054026     882.6891     1654.298      1678.98     90.79205     181.5118     363.3127      1.838     5.90     1169.292     64.04614     122.6138        11     1.227     0.798 -45.98   0
       245    899.9512    472.3012 307.5537650  +6.5039841     1244.368     2617.836     3149.236     91.08073     181.6564     363.5656      2.550     6.96      1170.51     64.04614     145.4697        17     1.458     0.963 -39.40   0
       246    723.9936    468.3495 307.6270609  +6.4997626      1645.88     3741.023     4202.088     90.50244     181.4395     362.9151      2.341     7.77     1174.842     64.04614     199.5581        28     1.809     1.147 -39.05   0
       247    395.1029    466.5406 307.7638692  +6.4895402     1887.971     4679.885     5912.532     90.79205     181.7286     363.4933      2.634     6.87     1181.077     64.04614     196.7213        36     1.776     1.480 -17.56   0
       248     86.5452    467.4758 307.8921240  +6.4788295     917.1958     1986.218     2188.304     91.08073     181.7286     363.3488      2.455     6.41     1193.794     64.04614     105.8854        12     1.399     0.826  -6.82   0
       249    622.8666    463.1093 307.6692861  +6.4985577     5278.672     12888.51     15585.29     91.08073      181.873      363.385      2.511     5.92     1175.614     64.04614     482.7164        59     2.173     1.526 -38.28   0
       250    785.8110    459.2736 307.6016651  +6.5055684     9548.948     20934.47     25772.07     90.50244     181.2947     363.2043      2.447     5.63     1172.977     64.04614     925.0702        80     2.623     1.476 -39.75   0
       251    304.7475    460.8826 307.8016289  +6.4888567     1310.806     3155.371     3492.698     91.08073     181.7286     363.4211      2.464     8.93      1183.02     64.04614     183.5026        24     1.922     1.159  -3.79   2
       252    814.7205    456.6394 307.5897338  +6.5076181     869.8224     1760.098     2276.212     90.93651     181.8008     363.3127      2.409     7.08     1171.974     64.04614     119.9823        10     1.343     1.047 -66.90   0
       253    389.3480    456.6567 307.7665980  +6.4934296     855.2997     1693.107     2573.718     91.08073     181.7286     363.3488      2.363     5.47     1180.378     64.04614     101.1088         9     1.334     0.634 -79.74   0
       254    970.5952    454.2314 307.5250022  +6.5137938     1488.735     2767.523     2792.067     90.35728     181.5841     363.0959      2.030     6.10     1166.682     64.04614     178.9846        20     1.530     0.959 -26.60   0
       255    123.2431    451.5775 307.8774088  +6.4866244     2269.885     5681.413     6723.859     90.50244     181.5841      363.132      2.497     6.19     1191.247     64.04614     250.1262        40     1.813     1.503 -40.84   0
       256    761.3585    450.6538 307.6121244  +6.5083144      1445.89     2878.554     2659.761     90.93651     181.8008      363.385      2.100     5.86     1173.017     64.04614     173.5743        22     1.529     1.126 -28.79   0
       257   1023.0840    449.4565 307.5033383  +6.5175086     2248.619     3321.077     2780.565     86.80084     154.3074     284.3533      1.526     3.89     1164.471     64.04614     335.6959        17     1.291     0.849 -80.72  24
       258    359.4308    448.2806 307.7793217  +6.4958890     1152.837     1584.738     2199.748     90.93651     181.6564     363.3127      1.636     3.93     1180.609     64.04614     216.6798         9     1.123     0.531 -28.41   3
       259    358.6945    445.6908 307.7797160  +6.4969339     1472.975     3376.412      3501.75     91.08073     182.3055     363.3488      2.304     8.31      1180.47     64.04614     166.0764        24     1.993     0.968 -10.02   3
       260    281.9854    448.2747 307.8115217  +6.4933021      718.788     1761.989     2450.864     90.50244     181.4395     363.2043      3.008     5.66     1182.852     64.04614     90.23938         8     1.414     0.638  -6.66   0
       261    714.4878    443.7516 307.6318470  +6.5096044     962.5886     1914.245     2717.331     91.08073     181.5841     363.4211      2.728     7.76     1173.291     64.04614     134.7042        16     1.647     1.022 -50.94   0
       262    840.7413    434.2221 307.5796732  +6.5177415     910.4493     1952.438     2811.313     90.64736     181.6564     363.1682      2.247     7.32     1169.224     64.04614     118.8845        14     1.666     0.900 -46.48   0
       263    826.9253    432.9059 307.5854626  +6.5178255     1117.672     2502.353     2550.926     90.79205     181.9452     363.3488      2.345     6.84     1169.583     64.04614     135.3684        16     1.336     1.021 -41.92   0
       264    724.1067    431.3062 307.6282693  +6.5150643     8475.949     19373.58     22520.26     91.08073     182.3055     363.3127      2.389     5.59     1172.394     64.04614     778.2363        64     2.157     1.496 -34.36   0
       265    645.1324    427.1258 307.6612487  +6.5141600     1395.271     3318.185     4563.981     91.22474      181.873     363.3127      2.572     7.94     1172.448     64.04614     163.3854        25     1.738     1.142  -3.79   0
       266    617.5051    422.4507 307.6728947  +6.5151699     7838.984     21320.79     29544.46     90.93651     181.6564     363.5656      3.026     6.98      1172.12     64.04614     781.8947        98     2.609     2.007  14.79   0
       267    949.1507    421.1148 307.5350388  +6.5267580     2509.797     4844.858     5113.398     91.08073     181.7286     363.4211      2.035     5.34     1164.697     64.04614     278.0363        31     1.775     1.108 -36.91   0
       268    388.5488    417.3636 307.7682664  +6.5096297     14378.21     36433.48     44645.87     90.93651     181.7286     363.2766      2.635     6.04     1177.018     64.04614     1373.487        91     2.349     1.767 -31.57   0
       269    134.6169    417.1721 307.8738528  +6.5012135     1231.505     3137.141     3480.539     90.64736     181.4395     363.2404      2.408     9.05     1188.472     64.04614     141.7672        27     1.749     1.307 -52.81   0
       270    904.5621    416.6331 307.5537310  +6.5271273     951.3461     1970.871     1953.503     90.79205     181.5118     363.0959      2.075     5.78     1165.808     64.04614     160.8317        12     1.350     0.904  82.76   0
       271     68.5465    412.6816 307.9014759  +6.5008539     895.9038     2090.977     2928.771     91.08073     181.7286     363.4211      2.740     6.85     1190.971     64.04614     105.5111        12     1.776     0.740 -44.40   0
       272    918.1987    411.4358 307.5482365  +6.5297269     3230.766     6606.131     7417.656     90.06628     181.5118      363.132      2.221     5.35     1164.949     64.04614     333.9114        41     1.867     1.306 -37.83   0
       273    246.0938    408.0142 307.8278153  +6.5087275     6756.579     17339.39     21798.12     90.79205     181.4395     363.1682      2.661     6.24     1182.344     64.04614     720.3549        74     2.283     1.734 -31.72   0
       274    968.5759    400.3771 307.5276626  +6.5359676     678.6917     1109.201     1198.762     90.50244     181.5841     363.3127      1.919     4.77     1162.094     64.04614     98.39563         7     0.921     0.701 -75.04   0
       275    358.4792    398.0740 307.7814251  +6.5165908      577.424     1475.004     1786.997     91.36851     182.0173     363.4211      2.057     5.71     1176.589     64.04614     92.77234         7     1.815     0.507  42.26   0
       276    146.4036    396.8361 307.8696453  +6.5100062     2663.625     6791.452      7961.58     90.06628     181.5841      363.132      2.567     6.44     1186.933     64.04614     306.6663        47     2.027     1.530 -36.68   0
       277    251.7157    395.2888 307.8259111  +6.5141707     734.5428     1840.324     2389.485     90.79205     182.0173     363.4572      2.481     6.18     1181.187     64.04614     103.3026         8     1.328     0.807  58.68   0
       278    168.6498    392.6453 307.8605386  +6.5124819     1341.851     3416.236     4750.184     91.08073     181.5841      363.385      2.792     7.87      1185.56     64.04614     165.9321        28     1.870     1.419 -41.14   0
       279    980.2843    386.0222 307.5232792  +6.5422848     747.3012     1571.464     1780.869     90.93651     181.3671     363.2404      2.283     6.08     1160.312     64.04614     101.7561         6     1.389     0.749 -10.81   2
       280    390.9594    388.6467 307.7682405  +6.5215694     928.3253     2322.855     2922.675     90.93651     181.7286      363.132      2.678     7.68     1174.326     64.04614     130.8674        13     1.580     1.044  64.69   2
       281     42.0492    381.7796 307.9135470  +6.5127267     1706.619     4295.207     5387.333     90.50244     181.8008     363.1682      2.626     8.82     1190.256     64.04614     207.7997        37     2.298     1.284 -44.01   0
       282    445.7467    380.5983 307.7457335  +6.5267232     3470.278     8760.015     10389.65     90.35728     181.4395     362.8789      2.581     6.49     1171.985     64.04614     399.3262        54     2.173     1.569 -33.73   0
       283    786.0285    377.8934 307.6043311  +6.5391839     7656.303     16757.21     20444.89     91.22474     181.4395     363.2404      2.436     5.56      1166.91     64.04614     745.2012        72     2.404     1.482 -26.89   2
       284    350.3491    377.1146 307.7855185  +6.5249746     650.2292     1314.713     2022.367     91.08073     181.6564      363.385      2.542     6.98     1174.825     64.04614     83.59863         9     1.455     0.938 -53.36   0
       285    194.0222    367.8073 307.8508354  +6.5235886     456.9764     1176.194     1364.331     90.50244     181.5118      363.132      2.358     5.52     1182.848     64.04614     74.35596         5     1.483     0.579  19.79   0
       286    494.0325    364.3148 307.7262091  +6.5350598     1549.162     3907.994     4696.266     91.08073     181.5118     363.2766      2.586     8.84     1169.277     64.04614     177.1349        36     1.974     1.429 -35.64   0
       287    465.9926    365.1800 307.7378391  +6.5337665     1070.463     2579.385      2752.99     90.64736     181.4395      363.132      2.371     7.64     1170.075     64.04614       124.28        16     1.476     1.233 -52.99   0
       288    851.5348    360.7953 307.5776707  +6.5484242     20582.66     44376.46     52033.96     90.35728     181.3671     363.0959      2.307     5.20     1165.147     64.04614     1973.733        83     2.207     1.535 -36.75   0
       289     31.9399    354.8742 307.9186683  +6.5234984     731.8195     1636.516      1843.85     91.22474     181.7286     363.3127      2.522     6.13     1189.704     64.04614     109.5291         8     1.413     0.748 -36.39   0
       290    623.8133    353.2944 307.6726180  +6.5439399     1417.486     3290.934     4093.855     90.79205     181.4395     363.1682      2.474     8.46     1166.471     64.04614     166.5757        28     1.867     1.357 -18.04   0
       291    708.0337    346.7813 307.6378177  +6.5494358     43268.34       101494     121692.7     90.50244     181.5118      363.132      2.450     5.63     1165.217     64.04614     4311.569       114     2.356     1.674 -32.83   0
       292    865.9290    347.2697 307.5721429  +6.5544886     914.5255     1845.248     2107.344     91.08073      181.873     363.3127      2.246     6.01     1164.142     64.04614     115.8512        12     1.350     0.753 -72.54   0
       293    570.5102    343.7263 307.6951074  +6.5461140     1424.114     3249.875     4040.335     91.08073     182.0173      363.385      2.400     7.46     1165.756     64.04614     183.3204        28     1.632     1.282 -28.95   0
       294    107.8872    342.6830 307.8875061  +6.5310788     3156.001     8006.443     9737.381     90.79205     181.9452     363.4211      2.560     6.05     1186.404     64.04614      350.658        53     2.087     1.596 -41.16   0
       295    553.8514    339.8430 307.7021664  +6.5471620     3701.511      9123.39     10949.08     91.08073     181.7286      363.385      2.529     6.04     1165.454     64.04614     360.0513        51     2.034     1.534 -35.82   0
       296    283.1683    338.0638 307.8147814  +6.5388548     1169.881     2762.696     3074.666     90.79205     181.8008     363.3127      2.342     7.22     1176.578     64.04614     128.8743        18     1.658     0.880 -63.32   0
       297    416.7577    335.0536 307.7593356  +6.5445634     12761.38     32500.55     40241.67     91.08073     181.7286     363.3488      2.639     6.21     1168.878     64.04614     1330.188        85     2.374     1.738 -35.50   0
       298    505.8227    325.4354 307.7226272  +6.5515094     4244.113     10665.76     13401.87     90.50244     181.4395     363.0959      2.642     6.44     1165.349     64.04614     460.8093        59     2.221     1.563 -35.86   0
       299    774.8387    324.0674 307.6108076  +6.5610403     1877.545      4082.57     4612.743     90.93651     181.6564     363.4211      2.283     5.51     1162.609     64.04614     211.5568        30     1.652     1.235 -21.64   0
       300    395.9618    309.5699 307.7688495  +6.5543926     3537.217     9431.415     11440.76     90.64736     181.4395     363.2043      2.673     6.93     1168.314     64.04614     401.1788        55     2.143     1.644 -29.97   0
       301    251.7668    310.6246 307.8287728  +6.5491355     1065.764     2485.831     3149.199     90.35728     181.5118      363.132      2.505     7.76     1176.498     64.04614     113.3796        18     1.479     1.139  62.69   0
       302    763.5097    305.3441 307.6161531  +6.5683955     31110.96     69488.41     82372.04     90.93651     181.5841     363.4933      2.394     5.46     1160.923     64.04614     2795.312       101     2.283     1.638 -32.17   0
       303    435.3471    305.3297 307.7526162  +6.5574594     1249.256     3205.651     3440.302     90.93651     181.5841     363.2766      2.443     8.20     1166.064     64.04614     175.0922        22     1.710     1.122 -34.63   0
       304    998.0778    302.5207 307.5187028  +6.5773602     1138.247     2434.181     2421.768     91.36851     182.0173     363.5294      2.200     7.42     1153.171     64.04614     161.3992        17     1.422     1.083 -48.40   0
       305    939.3542    301.3527 307.5431629  +6.5758919     1557.339     2972.416     3517.523     91.08073     181.5841      363.385      2.047     6.21     1156.486     64.04614     158.8688        22     1.584     1.025 -33.31   0
       306    420.8849    300.3675 307.7587987  +6.5590255     1012.559     2417.697      2487.75     91.08073     181.5118     363.2766      2.364     7.35     1166.215     64.04614       122.41        14     1.325     1.142  39.50   0
       307    452.8495    292.9497 307.7457590  +6.5631564     610.5208      1429.19      1971.44     91.08073     181.5841     363.2766      2.086     3.66     1164.435     64.04614     90.45593         5     1.760     0.219 -50.89   0
       308    198.6913    292.2138 307.8514696  +6.5549619     1178.827     2618.073     3389.866     90.79205     181.4395      363.132      2.543     7.89     1179.693     64.04614     141.2158        17     1.797     0.970 -65.41   0
       309    762.0947    289.7472 307.6172700  +6.5747895     3490.066     7814.849      9063.53     90.93651     181.5841     363.6378      2.372     5.93     1159.592     64.04614     382.8102        48     2.015     1.425 -36.30   0
       310    778.2564    288.0959 307.6106051  +6.5760094     1471.798     3106.209     3388.153     90.93651     181.7286     363.5656      2.346     6.91     1159.447     64.04614     154.6421        22     1.616     1.092 -29.63   0
       311     81.2506    284.5013 307.9005660  +6.5542124      732.684     1699.011     1719.493     91.08073     181.7286     363.5656      2.425     6.06     1187.219     64.04614     103.4465         9     1.453     0.710 -28.99   0
       312    367.6808    282.8504 307.7815183  +6.5644817     938.1719     2841.917     3697.898     91.08073     181.8008     363.3488      2.912     9.40     1168.717     64.04614     128.7843        20     1.966     1.254 -29.95   0
       313    494.4934    279.6732 307.7288930  +6.5700296     1149.145     2568.085     3189.386     90.93651      181.873      363.385      2.500     7.37     1161.585     64.04614     135.7268        17     1.573     0.968 -49.43   0
       314    257.3984    274.6431 307.8276564  +6.5641829     2887.913     7538.501     9260.074     90.35729     181.3671     362.9874      2.629     6.59     1174.809     64.04614     316.3688        48     2.100     1.532 -34.30   0
       315   1016.4896    278.7007 307.5118513  +6.5878087     4449.772     7975.956     9126.389     91.08073     182.2335     363.3127      1.981     4.72     1150.521     64.04614     495.6321        39     1.808     1.170 -36.66  16
       316    978.0460    263.9287 307.5283382  +6.5926326     875.5653     1523.384     1780.698     91.08073     181.7286     363.3488      1.727     4.45     1151.707     64.04614     117.9995         9     0.963     0.711 -79.56   0
       317    161.8502    261.6378 307.8678309  +6.5663548     787.1111      1770.42     1986.524     90.79205     181.5841     363.2404      2.074     4.74     1181.512     64.04614     105.9355         6     0.950     0.672 -31.72   0
       318    571.0854    256.9733 307.6978134  +6.5819596     1102.341     2868.869     3125.366     91.22474     181.4395     363.2043      2.332     8.28     1157.673     64.04614     135.1979        19     1.570     1.231  58.32   0
       319    914.1093    255.4154 307.5552155  +6.5940241      1089.29     2290.667     2607.416     90.79205     181.5118     363.1682      2.305     6.68     1154.873     64.04614     127.3788        13     1.507     0.990  20.44   0
       320    734.5422    254.0997 307.6299361  +6.5885937     2783.535     6370.062     7689.075     90.79205     181.7286     363.6017      2.419     6.03     1157.315     64.04614     298.2783        41     1.907     1.384 -34.87   0
       321    675.1041    254.3657 307.6546450  +6.5865041     1195.528     2745.652      3483.68     91.22474     181.5841     363.4933      2.481     6.82     1157.167     64.04614     130.2483        19     1.523     1.045 -55.44   0
       322    930.8909    247.1699 307.5485155  +6.5979870     560.3214     1152.457     689.8524     91.22474     181.4395     363.3127      1.871     4.21      1153.33     64.04614     94.61646         5     1.410     0.359  -4.68   0
       323    234.6369    239.3557 307.8383232  +6.5779934     1261.672     2952.072      3231.16     90.79205     181.7286     363.2043      2.344     6.72     1176.306     64.04614     153.1165        19     1.560     1.110 -62.95   0
       324    875.9274    238.8297 307.5716557  +6.5996043     1037.169     1931.595     1803.026     90.93651     181.7286     363.3127      2.141     5.75      1156.18     64.04614     130.6101        10     1.189     0.783 -40.01   0
       325    766.8897    237.8552 307.6170344  +6.5963792      892.507     1788.973     2004.329     90.93651     181.5118     363.4933      2.291     5.62     1156.568     64.04614     113.8186        10     1.259     0.853 -36.14   0
       326    468.0772    229.2871 307.7415903  +6.5899554      11202.7     29043.88     36716.49     91.08073     182.0894     363.4572      2.720     6.47     1157.753     64.04614     1193.735        92     2.620     1.708 -35.13   0
       327    793.7335    228.3819 307.6061918  +6.6011849     7901.487     17764.56     21731.64     90.64736     181.6564     363.2404      2.437     5.71     1156.258     64.04614     754.7822        62     2.194     1.471 -32.66   0
       328    156.0717    224.9283 307.8714852  +6.5813206     852.5454     1720.479     2699.933     91.36852      181.873     363.2404      2.639     7.31     1180.575     64.04614     134.2605        13     1.775     0.842 -22.42   3
       329    156.9944    222.0000 307.8712013  +6.5825608     1000.158     2339.298     2983.057      90.2119     181.2947     363.0959      2.863     7.63     1180.488     64.04614     135.2458        14     2.101     0.776  -7.44   2
       330    930.0955    218.8662 307.5498039  +6.6096494     1075.432     1967.806     2268.677     91.08073      181.873      363.385      2.001     6.05     1151.428     64.04614     158.6338        14     1.432     0.718 -58.19   0
       331    591.9084    215.1667 307.6905732  +6.5999189     2394.471      5704.39     6414.813     91.22474     181.5841      363.385      2.389     6.52     1154.164     64.04614     249.0316        41     1.893     1.507 -21.56   0
       332    554.6251    215.2536 307.7060752  +6.5986394     1178.903     2876.921     3243.881     90.50244     181.8008     363.1682      2.462     8.35     1153.988     64.04614     150.4742        21     1.524     1.280 -22.64   0
       333    396.0598    215.5480 307.7720063  +6.5932235     582.8338     1335.937     1440.511     91.08073     181.6564     363.3488      1.999     5.22     1163.206     64.04614     94.18494         5     1.657     0.464 -33.55   0
       334    952.5573    212.1162 307.5406907  +6.6131833     2033.752     3878.247     4426.159     91.08073     181.6564     363.2766      2.037     5.42     1149.656     64.04614      254.722        27     1.625     1.211 -20.68   0
       335    898.8776    211.5590 307.5630342  +6.6116295       7141.7     14617.83     16623.05     90.93651     181.7286      363.385      2.227     5.00     1152.814     64.04614     762.1095        57     2.038     1.405 -30.39   0
       336    985.5092    209.3286 307.5270807  +6.6154292     7003.541     13253.12     15518.56     90.93651     181.9452     363.3488      2.113     4.75     1147.641     64.04614     718.6658        51     2.012     1.256 -28.70   0
       337    696.7618    209.7082 307.6471528  +6.6056679     1661.813     3827.768     4862.292     91.22474     181.6564      363.385      2.504     6.74     1154.788     64.04614     198.5886        29     1.854     1.265 -28.06   0
       338     25.2241    208.5387 307.9264552  +6.5837027     13954.85     33635.45     41092.27     90.64736     181.6564     363.2404      2.575     5.68     1188.625     64.04614     1659.066        81     2.340     1.659 -36.56   0
       339    506.7850    205.0575 307.7263166  +6.6012537      880.321     2343.875     3096.729     90.35728     181.6564     363.0236      2.687     7.94       1154.5     64.04614     124.7274        13     1.636     1.077 -82.00   2
       340    517.3748    200.5440 307.7220660  +6.6034710     1229.768     3229.998     3476.872     90.64736     181.7286      363.132      2.432     9.72     1154.005     64.04614     140.2885        28     1.848     1.425 -61.66   0
       341    837.1622    201.3350 307.5890468  +6.6137995     1293.535      2789.36     2570.696     90.93651     181.6564     363.4572      2.096     6.93     1153.757     64.04614     161.5685        21     1.545     1.144 -23.26   0
       342    889.9083    199.9661 307.5671567  +6.6161189     1294.201     2719.864     3424.302     91.22474     181.5841     363.4211      2.358     6.05     1152.295     64.04614     163.0542        18     1.472     1.069 -32.65   0
       343    749.0850    197.5932 307.6258035  +6.6124136     22736.33     51690.09     61442.18     90.64736     181.3671     363.1682      2.407     5.56      1154.16     64.04614     2327.195        88     2.267     1.593 -31.17   0
       344    352.3866    197.1461 307.7907942  +6.5993631     3299.409     9218.073      12583.9     90.35728     181.6564     363.0597      2.960     7.91     1165.793     64.04614     319.5544        65     2.468     1.748 -60.19   0
       345    982.8528    196.2084 307.5286291  +6.6207593     1845.986     3610.411     3872.041     90.50244     181.5841     363.0236      2.072     5.16     1147.188     64.04614     242.0457        25     1.484     1.144 -38.19   0
       346    916.8376    194.6405 307.5561373  +6.6192134     4992.043     10189.61     11418.12     90.79205     181.7286     363.2043      2.197     5.11     1150.492     64.04614     502.0841        47     1.982     1.298 -34.90   0
       347   1021.0490    195.0331 307.5127833  +6.6225130     1174.453     2174.401     2224.883     90.79205     178.8895     317.8754      1.912     5.05     1145.209     64.04614      171.114        14     1.316     0.904 -37.16  16
       348    117.8735    185.5673 307.8887117  +6.5962950     2500.847     6198.602     7372.025     90.93651     181.7286     363.3127      2.519     6.09     1183.001     64.04614     309.5537        41     1.840     1.474 -49.34   0
       349    288.2128    181.9743 307.8179979  +6.6034823     16315.41     42499.07     52790.82     90.64736     181.5118     363.2766      2.627     6.32     1175.131     64.04614     1841.502        92     2.383     1.761 -36.52   0
       350    263.5270    183.1793 307.8282227  +6.6021587     3209.269     8266.227     9663.932     90.64736     181.5841     363.2766      2.597     6.61     1175.774     64.04614     367.0254        48     2.085     1.516 -35.33   0
       351    460.5866    193.9830 307.7459053  +6.6042846     2511.803     6277.439     7846.386     90.79205     181.3671     363.2766      2.672     7.11     1156.382     64.04614     274.3163        50     2.203     1.542 -39.07   0
       352    412.2719    177.3577 307.7665632  +6.6095364     24204.06     62541.95     77547.26     90.93651     181.7286      363.385      2.653     6.30     1158.318     64.04614     2500.225       107     2.436     1.799 -34.67   0
       353    168.4098    178.8740 307.8679244  +6.6007522     1933.772     4704.907     5670.203     90.64736     181.2947     363.2043      2.522     7.09     1179.615     64.04614      220.572        35     1.898     1.431 -55.01   0
       354    316.9648    175.2073 307.8062715  +6.6072386     9010.322     22755.34     30665.62     90.50244     181.5118     363.0959      2.912     6.68     1171.216     64.04614     1099.535       105     2.943     1.811 -13.38   0
       355    751.5051    173.4387 307.6256157  +6.6224693     19486.26     43008.15     50484.52     91.22474     181.5841     363.4933      2.397     5.50     1152.693     64.04614     1858.412        86     2.244     1.595 -31.13   0
       356    799.7967    173.9986 307.6055126  +6.6238456     779.3482     1798.778     2443.721     90.35728     181.2223     363.0597      2.771     5.82     1151.158     64.04614     103.1886        10     1.416     0.673  74.79   0
       357     68.4779    171.1170 307.9097457  +6.6006065     5028.775      12079.4     14189.84     91.22474     182.0173     363.4572      2.520     6.28     1186.371     64.04614     588.2168        61     2.154     1.645 -38.36   0
       358    102.7662    169.5075 307.8955418  +6.6024207     828.4653     1599.041     2016.834     91.22474     181.5841     363.4211      1.987     3.96      1183.99     64.04614     136.5502         6     1.073     0.419 -56.30   0
       359   1010.1348    167.2823 307.5182607  +6.6336111     861.1453     1630.838      1883.33     91.36852     182.0173     363.4211      2.105     5.77     1144.699     64.04614     115.6166         9     1.272     0.737 -26.51   0
       360   1010.9381    153.9721 307.5183766  +6.6391346     1593.406     2975.388     3753.196     90.64736     181.7286     363.3127      1.997     5.39     1143.774     64.04614     201.6244        18     1.341     1.018 -29.82   0
       361    601.9878    150.5049 307.6885765  +6.6269583     1046.028     2484.085      3637.78     90.79205     181.4395     363.0959      2.765     7.67      1151.99     64.04614     122.9945        18     1.425     1.155 -48.29   0
       362    287.1311    148.2440 307.8195963  +6.6173753     15145.14     38662.55     48170.52     91.08073     181.6564      363.385      2.652     6.14     1176.118     64.04614     1799.173        97     2.429     1.782 -33.38   0
       363     32.6907    146.8740 307.9254552  +6.6094175     2506.306      5895.16     6623.072     91.08073     182.0173      363.385      2.507     5.89     1188.359     64.04614     311.0665        38     1.771     1.463 -50.22   0
       364    718.7762    144.6109 307.6402047  +6.6332845     4577.825     10347.18     12352.88     90.64736     181.5118     363.2404      2.379     5.71     1151.492     64.04614     436.5988        51     2.096     1.410 -37.05   0
       365    129.5050    142.0815 307.8853578  +6.6146424     2525.991     6493.707     7508.118     90.79205     182.0894     363.4572      2.546     6.88      1181.38     64.04614     311.0132        43     2.024     1.465 -51.07   0
       366    400.2265    138.2809 307.7729016  +6.6252712      1939.32      5071.01     6527.303     90.93651     181.5118      363.385      2.657     7.44     1157.809     64.04614     192.4312        41     1.952     1.524 -48.39   0
       367    364.6326    137.2205 307.7877405  +6.6245194     1560.717     3657.867     3985.808     90.50244     181.5118     363.1682      2.323     6.79     1163.155     64.04614     196.7888        29     1.766     1.387 -49.85   0
       368    119.4481    136.9354 307.8897156  +6.6164305     854.4217     1982.976     2255.786     90.93651     181.5841      363.385      2.573     7.93     1181.936     64.04614     116.4813        12     1.737     1.013 -20.86   0
       369   1011.3670    130.6888 307.5189854  +6.6487643     1047.215     2190.193     1598.356     91.22474     181.5841     363.3488      2.055     6.14     1141.612     64.04614     148.5441        11     1.310     0.809 -13.41   0
       370    216.5887    125.8164 307.8496969  +6.6242760     2758.497     7092.885     8650.236     90.79205     181.3671     363.2404      2.598     6.52     1177.019     64.04614     308.0851        47     1.996     1.568 -36.71   0
       371     99.6538    125.7202 307.8983299  +6.6203983     1163.879     2881.081     3293.579     91.08073     181.7286     363.4211      2.535     8.65     1182.747     64.04614     141.5051        20     2.023     1.033 -46.13   0
       372    678.2657    124.5008 307.6577352  +6.6402398      3511.53     8161.523     9868.313     91.08073      181.873     363.3488      2.454     6.47     1150.343     64.04614     383.2762        49     2.063     1.494 -35.97   0
       373    826.4954    124.2603 307.5960935  +6.6452744     666.9495     1233.044     1495.858     90.93651     181.7286     363.4572      1.862     4.70      1147.02     64.04614     91.08276         6     1.359     0.462  50.54   0
       374    630.5445    121.9170 307.6776702  +6.6397163     5235.855     12104.22     14802.89     91.08073     181.7286     363.4572      2.442     6.23     1150.527     64.04614     492.7292        52     2.144     1.438 -31.27   3
       375    634.0107    113.2827 307.6765216  +6.6433975      28866.5     69248.44     84428.44     90.64736     181.3671     363.1682      2.513     5.79     1149.952     64.04614     3157.015       108     2.386     1.737 -33.69   3
       376    357.4214    117.7474 307.7914022  +6.6323200     2042.214     5118.023     6381.374     90.50244     181.7286      363.132      2.622     6.74     1163.915     64.04614     234.5068        41     1.950     1.454 -43.59   0
       377    538.9694    117.8148 307.7158955  +6.6383560     881.7543     2067.369     2546.143     90.64736     181.4395     363.2766      2.428     5.43     1150.057     64.04614     120.3873         7     1.405     0.591   0.66   2
       378    313.2245    107.2357 307.8101409  +6.6351829      1869.51     4641.589     5865.666     90.64736     181.5118     363.0959      2.684     7.04     1170.812     64.04614     216.6443        40     1.960     1.535 -45.87   0
       379     10.7034     90.2992 307.9365304  +6.6320422     744184.4      2076235      2571237     91.08073     182.3055     363.1682      2.722     7.14     1187.613     64.04614     62127.57       422     2.649     1.992 -38.02  28
       380    684.6295    101.5878 307.6558657  +6.6499142      676.722     1253.584     1391.871     90.50244     181.4395     363.2404      2.367     4.75     1148.426     64.04614     109.0548         8     1.331     0.480 -22.01   0
       381    698.4221     97.2799 307.6502753  +6.6521527     1818.796     4079.473     4937.819     90.64736     181.3671     363.3127      2.485     7.10     1147.824     64.04614     201.0651        32     1.991     1.194 -32.97   0
       382    440.2039     88.4122 307.7579713  +6.6472007     2193.955      5237.03      5976.46     90.64736     181.3671     363.2043      2.362     6.35     1152.786     64.04614     258.5741        37     1.856     1.401 -50.60   0
       383    912.6103     83.4246 307.5616594  +6.6650022     2532.555     5147.902     5866.259     90.64736     181.5118     363.2043      2.223     6.20     1141.429     64.04614     266.3877        33     1.932     1.153 -38.97   0
       384    894.6107     84.8287 307.5690984  +6.6638240       1298.7     2544.667     2850.353     90.50244     181.5118     363.1682      2.066     6.53     1141.846     64.04614     147.8226        15     1.222     0.981 -34.03   0
       385    606.0961     82.1017 307.6891899  +6.6553435     863.2946      1823.72     1177.731     91.08073     182.3775     363.1682      1.900     5.09     1149.088     64.04614       122.74         8     1.230     0.788  80.82   2
       386    403.4599     80.6195 307.7735183  +6.6491911     869.3345     2000.851     2813.684     90.64736     181.5841     363.2043      2.702     6.44     1156.375     64.04614     137.1704        10     1.414     0.823 -40.95   0
       387    151.4865     77.5041 307.8784185  +6.6420463     1607.111     4359.566     4934.225     91.08073     182.1615     363.4211      2.604     9.00     1177.881     64.04614     216.6836        37     2.023     1.444 -38.05   0
       388     33.3805     75.0810 307.9276192  +6.6390874     6751.134     16354.74     19923.78     90.64736     181.3671     363.2766      2.562     5.86     1184.906     64.04614     828.3486        70     2.303     1.615 -35.17   0
       389    301.5613     75.1223 307.8160849  +6.6480542     723.2984     1588.764     2321.479     90.93651     181.8008     363.3488      2.188     5.81     1171.753     64.04614      121.215         6     1.340     0.709 -80.45   0
       390    834.9457     69.3146 307.5944401  +6.6682466     3877.428       8232.6     9579.963     91.08073     181.7286     363.5294      2.274     5.57     1142.343     64.04614      416.397        44     1.979     1.317 -34.65   0
       391    779.8757     69.7752 307.6173297  +6.6662238     1892.694     3971.289     5095.796     90.64736     181.5118     363.3127      2.455     7.02      1144.29     64.04614     219.7749        25     1.766     1.114 -37.40   0
       392     73.9149     66.9588 307.9110390  +6.6438009     1627.626     4127.566     4886.073     91.08073     181.6564     363.3127      2.460     6.80     1181.553     64.04614     212.4174        31     1.865     1.311 -36.44   0
       393    597.5871     63.7543 307.6933519  +6.6626366     741.7071     1655.003     1956.245     90.35728     181.5118     363.0597      2.746     5.64     1148.669     64.04614     114.8541         7     1.162     0.770 -55.53   0
       394     16.1063     62.6611 307.9352272  +6.6436366     1600.218     3518.961     4838.031     90.93651     181.7286      363.385      2.753     5.88     1185.154     64.04614     194.5173        26     1.599     1.183 -26.84   0
       395    774.5062     57.4542 307.6199806  +6.6711333     1193.299     2468.835     2734.897     90.93651     181.6564     363.6017      2.176     8.33     1143.325     64.04614     144.9321        18     1.671     1.160 -37.60   0
       396    101.5961     51.0766 307.9000687  +6.6512875     5140.457     12404.69     14950.78     90.64736     181.1499     363.1682      2.536     6.27     1178.868     64.04614     592.3954        63     2.190     1.642 -37.13   0
       397    430.4258     51.1719 307.7633045  +6.6622528     1266.372     3197.416     3466.365     90.50244     181.5118     363.2043      2.485     8.42     1154.289     64.04614     172.1007        21     1.582     1.251 -24.71   0
       398    644.0412     42.9994 307.6747351  +6.6727566     10210.34     23719.83     28397.21     90.35728     181.3671     363.0236      2.432     5.63     1147.699     64.04614     1086.543        76     2.223     1.636 -35.01   0
       399    268.2700     45.5796 307.8309369  +6.6591401     840.0963     1741.017     3540.768     90.64736     181.5841     363.2766      3.002     5.29     1173.775     64.04614     105.2161         6     1.123     0.702  68.23   0
       400    543.9642     39.1279 307.7164912  +6.6710175     2713.178     6563.612     7672.212     90.93651     181.7286     363.3488      2.483     6.27       1148.4     64.04614     312.2878        48     2.057     1.524 -37.51   0
       401    270.0587     35.2938 307.8305433  +6.6634475     4881.442      12026.3     16240.97     90.93651     181.7286     363.5294      3.072     6.12     1173.437     64.04614     552.5631        67     2.646     1.569 -28.70   2
       402    449.4960     34.7362 307.7559319  +6.6696771      11987.9     29542.13     36016.45     90.93651      181.873     363.3488      2.576     5.98      1153.02     64.04614      1295.26        85     2.332     1.696 -35.60   0
       403    630.7347     33.0921 307.6806059  +6.6764043     1867.216     4493.391     5980.594     90.93651     181.9452     363.3488      2.726     7.54     1147.629     64.04614      213.181        36     1.855     1.564 -80.69   0
       404    926.9978     34.8199 307.5573202  +6.6855528     1284.286     2565.954     2642.385     90.64736     181.2947     363.0597      2.030     6.02      1137.51     64.04614     168.9755        18     1.506     1.011 -36.90   0
       405     35.3973     35.0436 307.9281473  +6.6556883     1329.096     2957.457     3643.582     90.35728     181.2223     362.9513      2.496     6.62     1181.848     64.04614      181.028        22     1.609     1.161 -38.85   0
       406    258.5121     31.9259 307.8354604  +6.6644519     1441.225     3713.484     5723.427     91.08073     182.0894     363.4211      3.185     9.16     1173.605     64.04614     202.4075        30     1.950     1.201 -28.27   0
       407    699.5546     23.9376 307.6522920  +6.6824784      1058.21     2388.502     3118.709     90.93651     181.6564     363.4211      2.374     8.79     1144.774     64.04614     130.5305        21     1.594     1.353 -32.61   0
       408    757.9896   1018.8964 307.5942829  +6.2735295     1056.337     1710.028     2280.883     90.79205     181.2947     345.6119      1.905     6.14     1206.739     64.04614     155.5068        13     1.471     0.720 -36.57  16
       409    965.7860   1012.8243 307.5081251  +6.2829439     6160.269     10245.08     10759.35     90.79205     181.5118     363.2766      1.749     4.13     1201.226     64.04614     958.8698        36     1.747     1.004 -30.92  16
       410    250.3142   1013.3561 307.8054590  +6.2588837     997.8138     1772.407      2021.06     91.08073     181.5841     363.3127      1.883     6.70     1213.232     64.04614     135.6344        11     1.663     0.758 -40.10  16
       411    719.2067   1013.6188 307.6105801  +6.2744184     803.7951     1216.502     3067.952     90.64736     181.3671     363.1682      1.589     3.50       1206.8     64.04614      131.078         5     0.782     0.453 -16.04   3
       412    724.9768   1011.3079 307.6082602  +6.2755648     2256.295     4225.071     5292.459     91.08073     181.5118     363.1682      2.225     6.17     1206.681     64.04614       297.22        26     1.987     0.908 -20.08  18
       413    304.7616    997.5990 307.7833672  +6.2672110     11244.29     21537.77     24623.34     90.06628     181.5118     363.0597      2.098     4.78     1213.842     64.04614      1388.73        63     2.223     1.226 -30.18   0
       414    740.8793   1010.2717 307.6016861  +6.2765220     980.8098     1583.838     1772.873     91.36852     182.0173     363.3127      1.753     4.47     1206.566     64.04614     161.8977         8     1.152     0.592 -27.73   0
       415    372.3895   1008.7595 307.7548824  +6.2648615     1402.911     2540.119     2746.205     90.35728     181.5118     363.0597      1.991     4.93     1214.073     64.04614      163.549        17     1.291     1.002 -34.67   0
       416    758.9659    998.0822 307.5945817  +6.2821579     6599.284     11718.23     13206.96     91.08073     181.7286     363.3127      1.944     4.63     1205.529     64.04614     924.8965        44     1.936     1.118 -30.06   0
       417    554.3730    998.7392 307.6795904  +6.2750723     3220.331     6077.808     6398.708     90.64736     181.8008     363.2043      2.077     4.62     1211.302     64.04614     408.1409        36     1.763     1.200 -38.74   0
