#   1 NUMBER                 Running object number                                     
#   2 X_IMAGE                Object position along x                                    [pixel]
#   3 Y_IMAGE                Object position along y                                    [pixel]
#   4 ALPHA_J2000            Right ascension of barycenter (J2000)                      [deg]
#   5 DELTA_J2000            Declination of barycenter (J2000)                          [deg]
#   6 FLUX_APER              Flux vector within fixed circular aperture(s)              [count]
#   9 FLUXERR_APER           RMS error vector for aperture flux(es)                     [count]
#  12 FLUX_RADIUS            Fraction-of-light radii                                    [pixel]
#  13 FWHM_IMAGE             FWHM assuming a gaussian core                              [pixel]
#  14 BACKGROUND             Background at centroid position                            [count]
#  15 THRESHOLD              Detection threshold above background                       [count]
#  16 FLUX_MAX               Peak flux above background                                 [count]
#  17 ISOAREA_IMAGE          Isophotal area above Analysis threshold                    [pixel**2]
#  18 A_IMAGE                Profile RMS along major axis                               [pixel]
#  19 B_IMAGE                Profile RMS along minor axis                               [pixel]
#  20 THETA_IMAGE            Position angle (CCW/x)                                     [deg]
#  21 FLAGS                  Extraction flags                                          
         1    464.9086     22.3727 307.7476855  +6.6792553     1654.707     2569.972     2258.619     78.01846     155.1731     310.6246      1.665     4.22     817.3598     54.77442     223.3807        18     1.315     0.905 -35.44   0
         2    712.2193     16.4930 307.6451306  +6.6899725     6920.156     10826.68     11006.02     77.77197     155.1731     310.5937      1.683     4.02     813.6448     54.77442     860.3464        33     1.510     1.044 -40.55   0
         3    632.5005     15.7141 307.6782786  +6.6876244     3584.954     5610.992     5035.941     77.89531     155.9138       310.81      1.695     4.07     813.9656     54.77442     454.0883        27     1.470     0.990 -41.37   0
         4    334.4693     15.6368 307.8021052  +6.6776559     844.5225     1401.262     2378.406     77.77197     155.4822     310.8409      1.994     6.33     823.7246     54.77442      109.858        10     1.240     0.908 -33.52   0
         5    432.6202     11.9431 307.7614510  +6.6824779     5824.115     9627.142     9564.618     77.52467     155.3586     310.5627      1.754     3.90      818.533     54.77442     741.9096        36     1.534     1.139 -39.54   0
         6     33.5471     11.5119 307.9272635  +6.6692304     8065.206     13056.45     13807.23     77.89532     155.2968     310.8717      1.785     3.93     825.1117     54.77442      1007.43        38     1.550     1.166 -34.69   0
         7    679.4523     10.7937 307.6589359  +6.6912287     822.9371      1255.52     1180.121     77.40073      155.235     310.4081      1.533     5.37      813.839     54.77442      118.944         9     1.295     0.628 -29.80   0
         8    329.1701      6.8658 307.8046020  +6.6810994     12035.19     20029.18     21763.97     77.64841     155.4204     302.2595      1.778     4.08     823.8541     54.77442     1525.882        47     1.648     1.155 -42.35  16
         9    508.2778      9.2055 307.7301092  +6.6861473     790.5217     1271.933     1567.636     77.52467     154.9255     310.5318      1.639     5.48     815.7256     54.77442     127.7655         9     1.451     0.604 -51.55  16
        10    424.3327      7.6105 307.7650399  +6.6839886     810.3707     1163.382     1213.161     77.40073      155.235     307.3309      1.451     4.31      818.863     54.77442     129.6794         9     1.144     0.562 -45.90  16
        11    102.7550      7.1489 307.8986586  +6.6733640     2398.853     3998.837     4019.422     78.01846     155.3586     304.3171      1.725     4.08     825.4737     54.77442     297.9044        23     1.467     0.894 -35.77  16
        12    395.3682      4.7509 307.7771700  +6.6841967     2241.781     3721.683      3343.82     77.64841     155.4204     281.6066      1.736     4.06     820.3389     54.77442     300.3025        22     1.528     0.859 -45.49  16
        13     94.0853      5.9654 307.9023003  +6.6735606     1352.636     2344.222     2694.241     77.89531     155.2968     294.3094      2.014     4.21     825.3724     54.77442     165.3854        16     1.309     0.806 -32.45  16
        14    797.4597      5.7382 307.6100745  +6.6972654     851.6627     1381.383     1573.572     77.89531     155.3586     292.2471      1.747     5.20     811.4903     54.77442     122.9232         9     1.199     0.636 -37.59  16
        15    655.8439      1.5437 307.6690552  +6.6942574     6119.967     7806.741     8323.122     70.24806     126.5467     237.1928      1.293     3.26     813.6299     54.77442     1223.659        21     1.463     0.710  -3.09  24
        16    990.5979      1.7912 307.5299579  +6.7053483     552.6816     598.2313     349.8068     72.40176      129.768     240.8082      1.266     5.26     807.2202     54.77442     78.66248         5     1.050     0.745  12.93  24
        17    820.3919      1.5267 307.6006873  +6.6997713     733.6652     1085.925     1182.207     69.56136      125.862     236.8283      1.435     4.20     811.0893     54.77442      142.691         6     1.011     0.574  30.01  24
        18    533.3035      1.2127 307.7199800  +6.6902870     615.8727     623.1702     519.4274     66.31099     121.5943     231.8298      1.185     3.68     814.5909     54.77442      139.504         6     1.061     0.368 -10.38  24
        19    532.8700    996.0529 307.6867726  +6.2794883     3733.504     6362.841     7301.043     77.77197     155.2968     310.6864      1.900     4.27     849.0608     54.77442     461.3157        31     1.633     1.127 -22.47   0
        20    960.4183   1022.0778 307.5084021  +6.2830392     5192.717     9496.302     9674.131     77.40073     143.7388     258.0521      1.908     4.41     842.8864     54.77442       571.99        39     1.641     1.266 -20.11  24
        21    720.1642   1020.5598 307.6081961  +6.2756394     2453.397     4374.521     4550.073     77.64841     155.4204     277.8311      1.912     4.18     848.0848     54.77442     313.4672        29     1.558     1.143 -42.26  26
        22    714.6691   1022.9092 307.6103987  +6.2744854     931.8206     1340.416     1705.717     75.89767     134.2767     245.7803      1.489     5.80     848.1579     54.77442     141.0546        10     1.242     0.763 -31.94  27
        23    244.8100   1022.3392 307.8054745  +6.2589679      1105.12     1800.576     1516.225      77.2766     141.2458     253.9265      1.581     5.40     850.3338     54.77442     164.5418        15     1.467     0.722 -36.01  24
        24    642.2702    995.2955 307.6413801  +6.2834651     1197.006     2023.023     2317.847     77.77197     155.4822     310.7482      1.760     4.20     847.9332     54.77442     171.2815        13     1.223     0.760 -22.75   0
        25    485.8314    992.8423 307.7064083  +6.2792373     2050.145     3481.324     3430.002     77.40073     155.2968     310.5937      1.790     4.38     849.1292     54.77442      254.851        23     1.436     1.022 -36.76   0
        26     67.9151    994.3625 307.8798492  +6.2645702     819.9769     1308.543     1153.414     77.89531     155.4204     310.7482      1.745     5.18     846.3041     54.77442     113.4315         8     1.311     0.579 -28.20   0
        27    920.3734    984.6809 307.5262764  +6.2971449     37083.29     67249.52     72465.06     77.77197      155.235     310.7791      1.949     4.06     843.5172     54.77442      4128.54        81     1.785     1.468 -33.34   0
        28    227.4551    983.0579 307.8140001  +6.2746042     1529.998     2584.913     2586.201     78.01846     155.4822     310.7791      1.864     5.42     848.9813     54.77442     222.3175        21     1.533     1.085 -44.17   0
        29    818.1404    978.6853 307.5689211  +6.2962060     1956.422     3417.891     3324.652     77.89531     155.4822     310.8409      1.816     4.64     844.4327     54.77442     224.8042        25     1.431     1.187 -37.96   0
        30    626.4970    981.1214 307.6484033  +6.2887899     870.9462     1355.626     1154.081     77.64841     155.6673     310.8409      1.578     5.73     847.9454     54.77442     131.7264        11     1.320     0.832 -25.91   0
        31    115.9779    981.2308 307.8603394  +6.2716099     574.0793     869.2831     742.5205     77.40073      155.235     310.5937      1.537     3.89     846.7766     54.77442     83.40924         5     0.845     0.512 -54.81   0
        32    766.5903    976.3492 307.5904012  +6.2954475     5772.632      10062.7     10974.09     77.40073     155.2968     310.4391      1.923     4.01     845.5857     54.77442     670.7551        43     1.703     1.267 -47.83   0
        33    553.1696    975.6089 307.6790306  +6.2886101     905.4324     1550.023     1562.117     77.40073      155.235     310.5627      2.101     4.06      848.708     54.77442     154.0847        12     1.281     0.737 -10.18   0
        34    236.0367    975.2203 307.8107012  +6.2781289     1405.072     2335.513     2421.887     77.52467     155.1731     310.5009      1.825     4.12     848.7151     54.77442     183.4985        17     1.220     0.943 -26.08   0
        35     60.7198    973.3658 307.8835435  +6.2729976     2529.482     4291.217     4300.531     77.77197     155.4822     310.7791      1.843     4.49      845.945     54.77442     296.1656        27     1.559     1.026 -44.28   0
        36    200.8661    974.5434 307.8253246  +6.2772262     743.2159     1596.583     1417.185     78.01846     155.3586     310.7482      1.959     6.22     848.3894     54.77442     127.9193        11     1.569     0.693 -29.51   0
        37    954.7413    971.4193 307.5124506  +6.3037681     5658.592      10513.2     11174.49     77.52467     155.2968     310.5627      1.983     4.13     841.6188     54.77442     607.2291        45     1.684     1.328 -34.28   0
        38    788.0856    959.6940 307.5820342  +6.3030435     1129.937     1906.156     1805.873     77.89531     155.8522     310.8409      1.778     4.42     844.5041     54.77442     172.1656        14     1.118     1.078  38.17   0
        39    649.2184    958.9361 307.6397133  +6.2987113     4184.919     7025.677     7176.596     77.52467     155.4204     310.5937      1.771     3.93      847.128     54.77442     479.4896        32     1.581     1.053 -33.06   0
        40     29.9904    956.7375 307.8968605  +6.2788288     2076.269     3612.334     3987.012     77.40073      155.235     310.5627      1.805     4.51     845.3692     54.77442      265.793        26     1.547     1.131 -53.34   0
        41    471.3193    957.4936 307.7136192  +6.2933468     997.9676     1557.644      1513.91     77.64841     155.6673       310.81      1.665     5.14     848.5728     54.77442     127.0996        10     1.344     0.554 -37.52   0
        42    881.2585    955.6797 307.5434850  +6.3078142     810.7651     1485.638     1291.735     78.01847     155.4204     310.7173      1.886     5.36     843.0211     54.77442     116.3074        10     1.279     0.849  32.60   0
        43    928.3561    963.2889 307.5236768  +6.3062447     1789.983     3228.099     2920.447     77.89531     155.3586     310.7791      1.886     4.08     842.2139     54.77442     216.8834        24     1.320     1.161   7.91   0
        44    261.3817    959.2433 307.8007167  +6.2855776     3925.477     6831.941     7335.671     77.40073     155.2968     310.5318      1.842     4.13     848.3208     54.77442     495.1547        33     1.684     1.037 -41.52   0
        45    573.9200    951.6588 307.6712188  +6.2991948     1494.777     2443.337     2528.318     78.01846     155.4204     310.7173      1.760     4.12      848.236     54.77442     189.4174        20     1.326     0.969 -29.49   0
        46    297.3961    952.7632 307.7859832  +6.2894632     819.2626     1018.729     1103.071     77.02772      155.235     310.5627      1.514     5.61     848.4049     54.77442     118.0156        10     1.167     0.761 -46.34   0
        47   1005.5778    950.6678 307.4920370  +6.3140331     617.2886     1328.343     1424.018     77.52467     155.3586     310.7173      2.255     5.57     839.8475     54.77442     108.2663         9     1.371     0.637 -37.80   0
        48    613.1588    948.0386 307.6550494  +6.3020038     1115.209     1831.334     1645.635     77.64841     155.4822     310.6246      1.752     5.28     847.7956     54.77442      139.203        20     1.348     1.141 -33.01   0
        49     62.6734    948.7662 307.8835613  +6.2832206     603.5828     1112.569     1188.694     77.77197     155.3586     310.7482      1.516     4.74     845.5562     54.77442     97.52997         7     1.435     0.445 -55.39   0
        50    292.9295    945.3830 307.7880856  +6.2923605       1446.9     2119.096     2244.569     77.40073     155.2968     310.6555      1.519     4.95     848.1937     54.77442     173.5501        19     1.464     0.957 -37.25   0
        51    561.1292    943.8719 307.6767901  +6.3019816     673.4198     955.7266     1291.343     78.01846     155.5439     310.6555      1.698     4.99     848.2532     54.77442     109.4996         7     1.152     0.612 -56.12   0
        52    897.4553    938.3527 307.5373394  +6.3155098     6038.808     10715.39     11170.38     77.89531     155.4204       310.81      1.893     4.07     841.8946     54.77442     724.3771        41     1.662     1.238 -34.36   0
        53    759.3492    941.5108 307.5945732  +6.3095910     920.8994     1518.397     1777.299     77.89532      155.235     310.8717      1.764     5.55     844.7951     54.77442     114.4388        11     1.354     0.641 -36.32   0
        54    433.1027    935.5401 307.7302221  +6.3011301     1913.809     3198.258     3502.666     77.64841     155.4204     310.8717      1.847     4.50      848.008     54.77442     232.2387        19     1.390     0.917 -39.95   0
        55    334.9271    933.8040 307.7710392  +6.2985521     8739.251     14607.71     15459.92     77.40073     154.9874     310.5937      1.782     4.02     848.2257     54.77442     1113.601        43     1.659     1.124 -36.67   0
        56    254.9278    932.7664 307.8042864  +6.2962933     6601.854      10706.2      11444.4     77.77197     155.4204     310.7173      1.753     3.91     847.4554     54.77442     824.0792        36     1.589     1.059 -35.99   0
        57    582.9209    927.2384 307.6683004  +6.3095799     1214.857     1908.254     1699.828     77.77197     155.4822     310.7482      1.644     4.54     847.8362     54.77442     153.7493        15     1.151     0.970 -69.54   0
        58    767.7647    926.6725 307.5915757  +6.3159995     656.2959     1162.878     1043.615     77.77197     155.4204     310.7482      1.801     5.05      844.136     54.77442     92.60052         5     1.047     0.690 -76.98   0
        59    912.8458    923.7714 307.5314366  +6.3220448     1054.427     1772.148     2185.751     77.40073     155.4822     310.6555      1.734     5.76     840.8593     54.77442     117.6807        14     1.329     0.834 -23.41   0
        60    868.8657    922.5902 307.5497363  +6.3210638     735.3544     1418.353      1211.17     77.40073      155.235     310.6246      2.140     6.36     842.4202     54.77442     107.1192        12     1.774     0.640 -10.98   0
        61    411.0872    921.9371 307.7398189  +6.3060084     517.0192     899.5834     894.8344     77.89531     155.6056     310.7791      1.704     3.75     847.6325     54.77442     83.90753         5     1.042     0.387 -57.20   0
        62    217.1095    922.4447 307.8203340  +6.2992842      688.316     1182.458     1638.682     77.89531     155.3586     310.8717      2.025     3.19     846.8074     54.77442     128.7998         5     0.832     0.666 -63.87   0
        63    980.4681    918.5138 307.5035358  +6.3264727      725.598     1278.175     1720.119     78.01847     155.6673     310.7791      2.648     5.56     839.7434     54.77442     98.03046        10     1.146     0.830 -44.13   0
        64    749.4015    916.4266 307.5995428  +6.3196162       1446.6      2506.09     2804.768     77.52467     155.1113     310.5318      1.867     4.54     844.3472     54.77442     169.3254        21     1.402     1.045 -38.25   0
        65    573.1923    917.3842 307.6726699  +6.3133231     597.8016     789.7253     292.9138     77.52467     155.1731     310.5937      1.748     5.32     847.5728     54.77442     75.44678         8     1.344     0.595 -42.00   0
        66     40.7065    916.9114 307.8937540  +6.2956339     474.0667     466.9244     712.5764     77.89531     155.8522       310.81      1.153     4.63     844.7676     54.77442     92.55176         6     0.827     0.736 -88.35   0
        67    980.4742    912.1057 307.5037472  +6.3291191     1136.891     1965.327     2097.677     77.64841     155.6056     310.7482      1.833     5.55     839.4482     54.77442     170.0298        18     1.510     0.867 -25.47   0
        68    613.0883    912.6205 307.6562655  +6.3166263     693.6749     1259.284     508.4699     77.77197     155.1731     310.6555      1.979     6.51     847.0544     54.77442     98.42889        11     1.600     0.743 -19.25   0
        69    534.8127    911.9781 307.6887856  +6.3142694      1209.44     1878.737     1969.173     77.64841      155.235     310.6555      1.687     5.27     847.6239     54.77442     163.1849        15     1.325     0.800 -29.97   0
        70      1.3169    912.8915 307.9102419  +6.2959671     509.1764     575.1325     620.0195     67.31685     123.5524     233.5626      0.988     2.21      844.177     54.77442      141.804         5     0.742     0.407 -68.68  24
        71    668.2930    909.7965 307.6334399  +6.3196405     2292.843     3762.063     3790.222     77.52467     155.1113       310.47      1.713     4.04     845.5331     54.77442     285.1004        25     1.465     1.042 -29.65   0
        72    957.6875    907.6019 307.5133586  +6.3302184     564.7941     974.9325     890.7426      77.2766     155.0493       310.47      1.882     3.90     839.6833     54.77442     88.65637         5     1.063     0.410  15.86   0
        73    945.3402    904.5490 307.5185872  +6.3310670     619.7914     1370.777      1403.38     77.89531     155.3586     310.7482      2.145     6.02     839.8738     54.77442     101.1315         8     1.750     0.582 -27.84   2
        74     81.9698    905.1745 307.8770191  +6.3018693     1820.355     3038.922     3274.573     77.40073      155.235     310.5937      1.667     5.44     845.2071     54.77442     227.0913        18     1.523     0.795 -43.26   0
        75     64.6530    905.8126 307.8841867  +6.3010229     2700.487     4665.689     4704.263      77.2766     155.3586       310.47      1.816     4.14     845.0043     54.77442     338.5347        28     1.485     1.086 -37.22   0
        76    829.0733    905.8098 307.5668189  +6.3266635     701.5471     963.2148     1407.846     77.40073     155.0493     310.6246      1.490     3.90     842.5684     54.77442      99.7804         6     0.922     0.473 -30.96   0
        77    207.9400    904.8271 307.8247335  +6.3062504      2113.51     3415.323     3486.006     77.52467     155.4822     310.6246      1.702     4.03     846.6403     54.77442     299.2256        22     1.413     1.017 -29.12   0
        78    241.9951    901.8387 307.8106957  +6.3086291     718.0773       1246.7     1193.641     77.02772     155.1731     310.5009      1.826     5.84      846.981     54.77442     113.7348        10     1.252     0.767 -14.70   0
        79    662.7447    898.7841 307.6361124  +6.3240021     6402.292     10810.52      11850.7      77.2766     155.3586       310.47      1.812     4.18     845.3944     54.77442     795.0502        40     1.637     1.143 -35.08   0
        80    347.1663    901.3013 307.7670501  +6.3123838     791.1945     1363.731     1549.581     77.89531     155.2968     310.8717      1.724     5.00     847.5502     54.77442     104.3255         9     1.164     0.607 -20.63   0
        81     22.6321    897.4388 307.9019139  +6.3030655     1099.042     1584.783     1389.961     77.52467      155.235     310.5627      1.602     3.82     844.4426     54.77442     165.0983        13     1.071     0.862 -11.08   0
        82    900.5262    895.1699 307.5375074  +6.3334438     2405.987     4460.475     4520.299     77.77197     155.4204     310.7482      1.932     4.65     840.7927     54.77442     311.3406        28     1.617     1.070 -37.85   0
        83     35.8155    895.7278 307.8964985  +6.3042159     983.3245     1574.218     1322.525     77.40073     155.2968     310.6555      1.562     4.33     844.5804     54.77442     145.8416        13     1.239     0.796 -26.58   0
        84    345.6895    892.0148 307.7679752  +6.3161687     15423.96     25361.42     27395.04     77.64841      155.235     310.5937      1.771     3.99     847.3326     54.77442     1978.357        50     1.673     1.157 -34.74   0
        85     80.1690    892.9258 307.8781794  +6.3068662      1138.67     1865.238      1815.85     77.77196     155.4204     310.7482      1.763     5.79     845.0147     54.77442     167.0859        13     1.220     0.925 -37.43   0
        86    216.3892    891.4547 307.8216757  +6.3120560     1217.671     1990.909     2120.694      77.2766     155.3586     310.4391      1.868     6.25     846.6725     54.77442     148.9498        16     1.461     0.891 -40.29   0
        87    396.2010    891.2946 307.7470283  +6.3181616     577.8422     1028.185     628.7863     77.40073     155.0493     310.4081      1.498     3.88     846.9769     54.77442     82.45923         6     1.061     0.406 -12.18   0
        88    423.1637    882.8486 307.7361175  +6.3225538      954.801     1343.349     726.1328     77.64841     155.3586     310.6246      1.615     5.88     846.6277     54.77442     108.5678        12     1.479     0.657 -27.24   0
        89    108.9438    882.5725 307.8665820  +6.3121096     1593.903     2502.611     2867.533     77.52467     155.4822     310.6246      1.779     4.66     845.2196     54.77442     203.7017        17     1.320     0.839 -31.08   0
        90    677.0288    878.7607 307.6308524  +6.3327482     881.6995      1062.34     1159.496     77.40073     155.1731     310.6246      1.491     5.37      844.641     54.77442     107.2053        10     0.955     0.853 -47.22   0
        91    890.7227    876.7624 307.5421930  +6.3407173      1775.32     3034.519     2971.847     77.77197     155.4822     310.7482      1.779     5.11     840.6214     54.77442     196.5485        22     1.583     0.894 -37.90   0
        92    861.6174    876.5256 307.5542856  +6.3398430     1876.146     3236.926     3302.018     77.40073     155.1731     310.6555      1.815     4.79     841.0603     54.77442     226.4189        23     1.518     0.992 -46.33   0
        93    824.9962    875.8432 307.5695138  +6.3389012     2757.419     4643.249     5026.247      77.2766     155.0493       310.47      1.808     4.08      841.972     54.77442     375.8143        24     1.406     1.039 -34.50   0
        94     92.5013    876.0690 307.8736274  +6.3142416     2209.572     3703.984     3809.479     77.89531     155.5439     310.7791      1.850     5.10     844.8678     54.77442     269.7156        23     1.651     0.843 -31.48   0
        95    339.9032    873.9953 307.7709831  +6.3234149     666.8094     1051.315     1480.619     77.64841     155.1113     310.4391      1.833     5.57     846.9224     54.77442     83.95673         9     1.258     0.694 -46.81   0
        96    560.7852    867.2587 307.6795018  +6.3336052     308863.6     508281.9     538680.1      77.2766     155.4204     310.5009      1.767     3.98     845.9556     54.77442     37843.97       188     1.835     1.385 -39.32   0
        97    405.0123    869.7406 307.7440939  +6.3273573     7011.693     11507.54      12218.4      77.2766     155.3586       310.47      1.725     4.00     846.3837     54.77442     897.1588        37     1.535     1.100 -37.24   0
        98    648.5701    870.2105 307.6429548  +6.3353263     1305.703     2060.097     2228.442     77.40073      155.235     310.5937      1.706     4.61      844.951     54.77442     167.1255        15     1.305     0.789 -36.14   0
        99    348.1851    868.2065 307.7677391  +6.3260832     11654.97     19041.55     19520.69     77.52467     155.1731     310.5937      1.727     4.00     846.7487     54.77442      1420.42        48     1.615     1.201 -32.09   0
       100    666.7121    864.5050 307.6356134  +6.3382894     3329.936     5485.377     5606.529     77.89531     155.7906       310.81      1.784     4.03     844.4942     54.77442     415.2235        29     1.449     1.126 -39.67   0
       101    899.0365    863.5567 307.5391824  +6.3464479     4764.284     8257.035     9059.102     77.64841     155.3586     310.5937      1.876     4.17     840.2711     54.77442     565.2247        37     1.570     1.249 -34.25   0
       102    737.9162    862.2307 307.6061253  +6.3416109     663.2726     1019.803     756.9767     77.89531      155.235     310.6246      1.663     3.09     843.2794     54.77442     97.14966         6     0.749     0.562 -44.48   0
       103    641.4485    858.5985 307.6463007  +6.3398827     3062.391     5118.456     5993.307      77.2766     155.0493     310.3463      1.803     4.11     844.8109     54.77442     373.0298        26     1.442     1.013 -42.39   0
       104    829.7155    857.6938 307.5681613  +6.3465533     1478.413     2378.733       2619.2     77.77197     155.8522     310.8717      1.800     5.55     841.4264     54.77442      160.384        15     1.300     0.864 -41.46   0
       105    631.4935    858.0057 307.6504539  +6.3397942     947.2541     1406.687     2023.199     77.52467     155.1113     310.5318      1.479     4.28     844.9647     54.77442     138.0685        10     1.163     0.639  56.40   3
       106    634.2906    853.2516 307.6494519  +6.3418509     2106.555     3859.669     4951.602     77.89531      155.235     310.8717      2.124     5.53     844.7863     54.77442     290.2073        27     1.792     1.029 -57.10   3
       107    957.7723    856.8264 307.5150192  +6.3511879     646.5905     1223.983     1131.105     77.40073      155.235     310.5937      1.831     5.80     838.4427     54.77442     89.59387         7     1.008     0.939 -25.23   0
       108    917.3936    851.1303 307.5319755  +6.3521921     2838.922     5794.781     6009.678     77.40073     155.0493     310.6246      2.032     8.00     839.8295     54.77442     891.5825        28     1.665     1.075  -4.40   0
       109    328.1685    851.9000 307.7765977  +6.3321443     1025.256     1416.659     1349.632     77.89531     155.2968     310.9026      1.464     4.65     846.4763     54.77442     136.4382        13     1.366     0.710 -36.79   0
       110    376.1435    847.0646 307.7568415  +6.3357516     2572.081     4249.823     4588.581     78.01846     155.3586     310.7482      1.780     3.78      845.941     54.77442     297.0206        28     1.443     1.117 -34.94   0
       111    512.3985    836.9203 307.7006094  +6.3445109     2855.233     4781.344      4771.69     77.15225     154.8635     310.5318      1.775     4.47     844.9998     54.77442     350.0165        27     1.582     1.042 -40.19   0
       112    856.6098    836.0027 307.5577196  +6.3564087      822.166     1444.081     2154.577     77.40073     155.1113     310.5627      1.782     4.06     840.3169     54.77442     139.2754         7     1.237     0.493 -30.44   0
       113    577.7070    834.5771 307.6735716  +6.3476670     944.6469     1347.299      931.517     77.89531      155.235     310.5937      1.581     4.07      844.748     54.77442      137.697        13     1.173     0.782 -69.16   0
       114    559.2171    833.0234 307.6813008  +6.3476891     5723.846     9297.638     10399.82     77.64841     155.2968     310.6555      1.747     3.83     844.6509     54.77442     751.6268        34     1.588     1.033 -42.23   0
       115    566.0270    832.2298 307.6784999  +6.3482449     1194.083     1863.783     2224.846     77.40073      155.235     310.5937      1.628     3.95     844.6246     54.77442     190.2722        12     1.115     0.750 -50.78   0
       116    476.9098    832.0290 307.7155085  +6.3453407     1446.623       2319.1      1771.29     78.01846     155.1731     310.6555      1.658     6.31     845.0123     54.77442     184.7127        16     1.463     0.764 -37.80   0
       117    270.7328    833.3420 307.8010682  +6.3378778     615.9755     1075.044     989.0794     78.01847     155.3586     310.7482      1.885     4.29     846.2172     54.77442     88.09552         7     1.107     0.473 -30.32   0
       118    118.3562    831.3613 307.8643991  +6.3335717     1377.376     2247.962     2012.522     77.64841     155.3586     310.5937      1.669     4.87     843.8754     54.77442     173.0311        18     1.551     0.791 -47.95   0
       119    894.8445    831.3217 307.5420002  +6.3596187     1246.916     2076.037     2057.962     77.77197     155.4204     310.7482      1.796     4.20       839.67     54.77442     177.5315        15     1.251     0.844 -28.42   0
       120    695.0196    829.5754 307.6250298  +6.3536600     544.5104     788.9484     428.0286     77.52467      155.235     310.6864      1.298     3.91     843.1886     54.77442     84.89435         5     1.281     0.342 -47.89   0
       121    529.9067    826.8975 307.6936761  +6.3492363     18699.37     30029.48     31182.83     77.89531     155.9754     310.6555      1.694     3.84       844.48     54.77442     2360.718        50     1.578     1.175 -34.97   0
       122    370.4661    828.4835 307.7598230  +6.3432334     761.0696     1105.517     888.6069     78.01847     155.6673       310.81      1.577     4.74     845.4461     54.77442     104.4778         8     1.100     0.766 -67.25   0
       123    943.5584    825.1680 307.5219787  +6.3637861     3428.786     5725.198     5808.612     77.40073     155.3586     310.5937      1.756     3.99     838.4728     54.77442     438.2349        31     1.539     1.141 -36.80   0
       124     62.9158    823.3972 307.8876850  +6.3349940      552.737     875.1759     783.5152      77.2766     155.0493       310.47      1.389     4.86     842.9612     54.77442     95.22382         6     1.393     0.481 -37.38   0
       125    415.8778    821.7135 307.7411955  +6.3475529     537.3366      830.488      1037.47     77.89531      155.729       310.81      2.633     5.95     844.7001     54.77442     91.79956         7     1.254     0.796  37.88   0
       126     39.7463    817.3210 307.8975092  +6.3367226     1324.122     2083.504     2168.256     78.01847     155.4204     310.7791      1.679     4.83     842.6189     54.77442     164.7941        17     1.363     0.905 -13.85   0
       127    322.3932    815.6623 307.7802135  +6.3469134     3101.583     4773.308     4736.535      77.2766      155.235     310.5318      1.676     4.05     845.7062     54.77442     386.4795        26     1.445     1.030 -32.80   0
       128    788.0469    811.5413 307.5870067  +6.3642181     50993.91      83313.8     88355.98     77.89531     155.4204     310.8717      1.768     3.96     841.1419     54.77442     6162.055        78     1.660     1.304 -37.27   0
       129     22.2194    813.7372 307.9049068  +6.3376121     2055.741     3434.886     3332.676     77.52467     155.4204     310.6246      1.745     5.05     842.4141     54.77442     249.5547        19     1.457     0.877 -48.02   0
       130    726.1934    813.0284 307.6126399  +6.3615356     493.5768     838.8954     1256.977     77.40073     155.2968     310.5627      1.713     3.88     842.3144     54.77442     86.00476         5     1.256     0.343 -24.91   0
       131    245.2554    809.2317 307.8124571  +6.3469770     4810.393     8248.498     10490.11     77.77197     155.4204     310.6864      2.086     4.08     845.3037     54.77442     565.3959        37     1.577     1.233 -38.80   0
       132    913.2982    806.8175 307.5351567  +6.3703533     7813.612     13154.49     14378.34     77.89531      155.235     310.5318      1.793     3.99      838.914     54.77442     929.9974        40     1.602     1.176 -33.08   0
       133    431.5026    809.9532 307.7351029  +6.3529332     751.1337     1214.504     1310.295     77.89531     155.2968     310.9026      1.716     4.61     844.2659     54.77442     108.7001         8     1.344     0.450 -28.63   0
       134    716.3066    806.0935 307.6169773  +6.3640684     19973.29     33059.61     35895.53     77.89531     155.9138     310.7173      1.771     3.97     842.2973     54.77442     2470.989        55     1.689     1.196 -33.93   3
       135    709.9807    802.6194 307.6197203  +6.3652913     81610.14     133626.2     141769.5     77.64841     155.3586     310.6864      1.768     4.04     842.3145     54.77442     10248.13        92     1.737     1.268 -37.73   3
       136    354.8685    803.4532 307.7671401  +6.3530452     19327.27     31451.21     32856.64     77.77197     155.3586     310.6555      1.755     3.99     844.9384     54.77442     2403.973        53     1.632     1.178 -35.16   0
       137    416.7625    801.2622 307.7415149  +6.3560273     20870.99     33711.31     35551.96     77.89531     155.4822     310.7482      1.735     3.97     843.9642     54.77442     2581.275        54     1.651     1.160 -35.95   0
       138    404.0179    803.5414 307.7467300  +6.3546585     1275.821     1960.137     1974.126     77.52467     155.2968     310.5009      1.634     5.44     844.2559     54.77442     157.7028        15     1.395     0.728 -35.15   0
       139    953.8494    800.2576 307.5185376  +6.3744158     1809.017     3153.279     2742.756     77.89531     155.4204     310.7791      1.770     5.21     837.6107     54.77442     214.8646        21     1.528     0.891 -44.92   0
       140    244.8691    787.7686 307.8133395  +6.3558263     773642.2      1889973      2120773     77.77197     155.4204     310.7482      2.370     7.07     844.5684     54.77442     63385.02       613     2.501     2.141 -46.30   4
       141    910.3165    798.1651 307.5366840  +6.3738266     6025.674     10508.52     11561.04     77.89531     155.4204     310.7173      1.878     4.14     838.7507     54.77442      714.676        39     1.591     1.214 -37.93   0
       142    883.2783    799.1480 307.5478783  +6.3725178     690.6144     1222.282      1145.63     77.89531     155.4204     310.7482      1.752     3.94     839.2618     54.77442     121.6351         6     0.749     0.645 -19.05   0
       143    650.7643    797.2032 307.6444898  +6.3655460     5936.797     9787.606     10174.34     77.02772      155.235     310.5318      1.730     4.07     843.0627     54.77442     755.0293        34     1.538     1.069 -42.04   0
       144    439.4441    795.2158 307.7323003  +6.3592849     1798.038      2816.95     2704.153     77.40073      155.235     310.5627      1.650     4.08     843.7289     54.77442     249.3932        19     1.422     0.817 -29.11   0
       145    165.0589    794.3440 307.8462553  +6.3504277     739.7234      1032.13     749.7139     78.01846     155.4204     310.7791      1.473     3.51     843.5242     54.77442     115.5893         7     0.866     0.566 -34.51   0
       146    685.7413    787.4556 307.6302929  +6.3707417     2342.461     3694.048     4040.261     78.01847     155.4204     310.7791      1.719     4.16     842.2562     54.77442     321.3054        20     1.436     0.869 -29.83   0
       147    603.8594    789.3207 307.6642300  +6.3672303     830.0276     1221.035      1102.08     78.01846     155.4204     310.6864      1.493     4.35     843.3531     54.77442     107.7626         7     0.864     0.625  25.97   0
       148    155.1335    787.9685 307.8505909  +6.3527263     921.2709     1501.892      1635.36     77.77197     155.4204     310.6864      1.751     4.66     843.2031     54.77442     156.9188        13     1.340     0.729 -36.44   0
       149    130.1046    787.7920 307.8609887  +6.3519571     1007.147     1580.014      1791.71     77.64841     155.0493     310.5318      1.628     5.01     842.7788     54.77442     140.8923        16     1.330     0.917 -29.64   0
       150    419.6860    783.9462 307.7408826  +6.3632754      51067.7      82471.5     87184.55     77.89531     155.3586     310.8717      1.742     3.91     843.3325     54.77442     6594.788        78     1.718     1.228 -35.10   0
       151    962.8884    786.2803 307.5152512  +6.3804891      535.183     906.2224     975.3736     77.64841     155.6673     310.8409      1.586     4.23     836.9711     54.77442     78.69385         6     1.254     0.408 -33.98   0
       152    537.4507    783.0081 307.6920160  +6.3676119     6617.681     10860.23     11544.27     77.40073     155.2968     310.4391      1.752     3.95     842.7277     54.77442     823.6196        39     1.578     1.132 -39.77   0
       153     71.6954    784.5665 307.8853484  +6.3513229     584.1132     844.7287     1204.209     78.01847     155.2968     310.8409      1.752     5.29     842.1017     54.77442      98.2431         6     1.124     0.704 -64.43   0
       154    454.4552    781.5197 307.7265273  +6.3654438     4111.821     6797.588     7867.788     78.01847     155.4204     310.7791      1.872     4.24      843.243     54.77442     515.7467        33     1.709     1.062 -30.41   0
       155    782.6156    779.6542 307.5903289  +6.3772035     10564.91     17276.85     18152.15      77.2766     155.4204       310.47      1.766     3.96     840.5015     54.77442     1360.905        42     1.613     1.118 -35.88   0
       156    450.6607    774.9326 307.7283240  +6.3680364     2213.791     3460.621      3788.67     78.01846     155.3586     310.7482      1.635     4.15     842.9872     54.77442      305.793        22     1.397     0.982 -49.02   0
       157     11.9505    775.4314 307.9104618  +6.3530827       1138.7     1751.414      2181.03     77.64841     155.4204     310.6864      1.749     4.34     841.8697     54.77442     145.1295        13     1.106     0.838 -31.92   0
       158    804.3997    773.7470 307.5814810  +6.3803710     1101.781     1781.259     1694.389     77.15226     154.9874     310.3153      1.744     5.16     840.0051     54.77442      161.012        14     1.291     0.860 -35.22   0
       159    140.3938    771.5619 307.8572633  +6.3590048     10759.39      17791.1     19510.03     77.02772     155.1731     310.5009      1.810     4.08      842.637     54.77442     1363.766        43     1.593     1.141 -37.74   1
       160    148.5285    771.8578 307.8538758  +6.3591563     2946.404     4959.124     5676.752     78.01846     155.4204     310.7173      1.891     4.15     842.7474     54.77442     372.5037        26     1.457     1.037 -30.89   1
       161    132.6228    769.0487 307.8605744  +6.3597810     2713.671     4771.574     5298.145     77.52467     155.4204     310.6555      1.918     4.16     842.4988     54.77442      330.027        26     1.415     1.144 -40.01   1
       162    928.1652    768.1606 307.5302751  +6.3868122      5913.87     10081.84     10913.99     77.64841     155.2968     310.5627      1.827     3.91     837.3871     54.77442     719.4415        39     1.590     1.168 -33.43   0
       163    977.2079    768.3167 307.5099051  +6.3883847     1533.833     2360.507     3146.886     77.52467     155.1113     310.5937      1.851     3.56     836.2148     54.77442     209.3784        15     1.137     0.862 -24.82   0
       164    683.7081    765.7916 307.6318629  +6.3796192     1506.062     2556.454       2981.9     77.52467     155.1113     310.5627      1.917     4.31     841.7376     54.77442     199.3063        19     1.337     0.973 -39.62   0
       165    570.5028    765.0902 307.6788929  +6.3761181     2230.718     3430.688     3660.092     77.89531     155.8522     310.7482      1.666     4.08      842.167     54.77442     308.7834        21     1.400     0.877 -33.82   0
       166    418.3284    764.7100 307.7420923  +6.3711728     1261.267     1951.686     2232.409     77.77197     155.6673     310.7482      1.748     5.50     842.6292     54.77442      153.849        11     1.180     0.773 -62.50   0
       167    132.6634    762.3723 307.8607824  +6.3625391     1844.239      3030.95     3522.991     77.52467     155.3586     310.6864      1.906     4.45     842.3768     54.77442     234.1696        19     1.350     0.927 -40.28   0
       168    701.2512    763.6869 307.6246488  +6.3810754     485.6388      826.706     530.2831     77.89531     155.2968       310.81      1.913     4.74     841.4659     54.77442     90.91486         6     1.505     0.424  -7.51   0
       169    951.6202    759.7379 307.5208169  +6.3910732     2626.714     4417.479     4550.063     77.52467     155.4204     310.6555      1.783     3.96      836.593     54.77442     310.7228        25     1.468     0.989 -39.97   0
       170    922.3397    760.1400 307.5329622  +6.3899297     2755.752     4627.536     4944.528     77.89531     155.4204     310.7791      1.794     4.14     837.3012     54.77442      346.882        28     1.489     1.112 -33.95   0
       171    982.4434    759.4831 307.5080261  +6.3922070     1701.465     2833.503     2520.675     77.89532     155.4204     310.7173      1.748     4.33     835.9414     54.77442     212.6372        17     1.224     0.928 -63.56   0
       172    674.4802    759.4565 307.6359068  +6.3819263     1313.074     2193.567     2638.283     78.01847     155.4204     310.7482      1.870     4.22     841.6821     54.77442     168.3463        15     1.245     0.854 -30.12   0
       173    821.8240    758.2145 307.5747653  +6.3873671     872.8834     1120.019      435.218     77.64841      155.235     310.6864      1.446     3.97     839.5148     54.77442     141.2595        12     1.085     0.868 -32.03   0
       174    247.2952    754.3317 307.8134571  +6.3697143     1830.907     3134.638     3705.963     77.77197     155.4822     310.7791      1.818     4.35     843.1964     54.77442     225.4459        20     1.378     0.972 -27.08   0
       175    685.5555    748.2283 307.6316840  +6.3869334     785.7203     1949.771      2690.96     77.52467     155.4822     310.6555      2.702     8.57     841.2447     54.77442     126.4985        19     2.660     0.771 -65.46   0
       176    939.9093    749.8102 307.5260115  +6.3947817     1010.248     1218.173     796.0514     77.64841     155.0493     310.5318      1.415     4.52      836.535     54.77442       124.58        11     1.034     0.788 -19.13   0
       177    966.5336    747.7552 307.5150244  +6.3965189     2327.256      4016.83     4435.086     77.89531     155.3586     310.7791      1.934     4.42     836.0099     54.77442     269.2817        25     1.473     1.056 -28.07   0
       178    913.6276    748.8373 307.5369576  +6.3943060     943.7377     1535.713     1412.168     77.40073     155.1731     310.5627      1.682     5.15     837.2296     54.77442     146.2821        10     1.297     0.578 -39.66   0
       179    162.6983    749.0325 307.8487610  +6.3690577     677.4721     1008.461     1252.323     77.89531     155.2968     310.8717      1.645     4.77     842.3242     54.77442     104.4021         7     1.339     0.481 -43.77   0
       180   1008.5879    740.8273 307.4977925  +6.4007828     1547.154     2681.001     2290.024     77.52467      155.235     310.6864      1.842     5.15     835.2336     54.77442     173.7364        19     1.346     1.018 -28.88   0
       181    477.5870    742.1436 307.7182442  +6.3824786     608.9007     853.0347     971.7903      77.2766     155.3586     310.4391      1.540     4.61     841.7737     54.77442     90.39075         6     1.048     0.576 -30.38   0
       182    406.8021    741.7542 307.7476493  +6.3802648     593.4847      1046.64     1073.984      77.2766     155.1113     310.3772      1.964     4.98     841.9188     54.77442      86.4043         7     1.413     0.498 -42.69   0
       183    810.2030    739.2548 307.5802251  +6.3948077     923.6942     1419.325     1271.928      77.2766      155.235     310.4081      1.640     4.51     839.2809     54.77442      122.223         9     1.026     0.701 -45.72   0
       184    634.6778    740.1700 307.6530806  +6.3885577     584.9302     755.5737     373.9854     77.77197     155.4822     310.7482      1.431     4.32     841.2211     54.77442     113.9048         7     1.020     0.551 -21.24   0
       185    896.0724    736.3778 307.5446638  +6.3988646     1348.625     2444.247     3142.463     77.52467      155.235     310.7173      2.112     6.77     837.5671     54.77442     166.0565        17     1.437     0.969 -56.09   0
       186    870.5290    732.1891 307.5554109  +6.3997410      953.545     1310.029     1557.427     77.40073     155.0493     310.5937      1.523     5.63     838.4213     54.77442      127.154        14     1.341     0.791 -41.76   0
       187    853.0490    728.0533 307.5628078  +6.4008648     1348.282     2229.032      1792.01     78.01846     155.4204     310.7791      1.617     4.60     838.6203     54.77442     189.0355        15     1.233     0.855 -32.43   0
       188     52.1456    727.0610 307.8954036  +6.3744088     2333.081     3667.318     4032.235     78.01846     155.3586     310.7173      1.704     4.03     841.7186     54.77442     291.0502        23     1.416     0.994 -42.74   0
       189    464.8077    725.3766 307.7241135  +6.3889734     531.0277     965.8155     1356.562     77.40073      155.235     310.5937      1.876     4.39     841.1882     54.77442     70.95343         5     1.145     0.478 -57.26   0
       190    664.7681    715.5164 307.6414118  +6.3997450     5910.053     9495.076     10199.34     77.89531      155.235     310.6246      1.747     4.08     840.2823     54.77442     802.2203        34     1.537     1.066 -35.18   0
       191    611.6655    714.5527 307.6634950  +6.3983649     1395.976      2357.83     2774.798     77.77197     155.3586     310.7791      1.891     5.87     840.4095     54.77442     176.3561        15     1.374     0.910 -54.88   0
       192    533.3544    715.3799 307.6959856  +6.3953995     695.9153     895.6729     1018.093     77.52467     155.3586     310.5627      1.368     4.54     840.4904     54.77442     117.7544         8     1.116     0.525 -22.91   0
       193    522.2979    715.3412 307.7005780  +6.3950449     713.2795     1080.052     581.1749     77.64841     155.3586     310.8717      1.463     4.10     840.5558     54.77442     105.6032         7     0.971     0.574 -21.97   0
       194    314.1049    712.0824 307.7871371  +6.3894043     627.9379     964.6481      1605.42     77.64841      155.729     310.8717      1.757     4.68     841.0971     54.77442     98.69415         6     0.997     0.647  81.10   0
       195    127.8198    711.2960 307.8645138  +6.3834658     3593.184     5858.018     5744.217     77.77197      155.235     310.5627      1.745     4.07     841.2575     54.77442     444.2825        25     1.391     1.049 -44.55   0
       196   1001.7049    710.8555 307.5016515  +6.4129294     2379.416     3865.681     4092.407     77.77197     155.4204     310.9644      1.735     3.84     835.3445     54.77442     262.6561        22     1.259     1.066 -36.20   0
       197    638.4585    711.2684 307.6524793  +6.4006184     2020.583      2908.28     2681.503     78.01847     155.3586     310.7482      1.598     3.96     840.1855     54.77442     261.9276        17     1.200     0.907 -37.20   0
       198    250.6779    710.6411 307.8135223  +6.3878682     597.3889     981.7673     1323.127     77.77197     155.4204     310.7791      2.099     5.60      840.925     54.77442     105.0841         6     1.325     0.666 -35.47   0
       199    781.6322    707.6244 307.5931477  +6.4069135     18597.17     30044.16     31381.23      77.2766      155.235     310.5627      1.749     4.04     838.9023     54.77442      2447.48        52     1.636     1.166 -39.09   0
       200    911.6973    707.3298 307.5391464  +6.4113811     3531.726     5732.719     6107.619     77.77197     155.6056     310.7482      1.788     3.83     836.3771     54.77442     410.0716        29     1.425     1.116 -29.96   0
       201    480.6958    707.7022 307.7181094  +6.3968043     1303.455     2321.976     2791.811     77.89531     155.9754     310.5937      1.834     4.38      840.548     54.77442      218.332        16     1.467     0.771 -38.98   0
       202    509.0733    707.3288 307.7063383  +6.3979101     877.0732     1138.719     1030.873     78.14143     155.5439     310.7791      1.346     4.18     840.3613     54.77442     177.6039         9     1.207     0.622 -46.43   0
       203    282.2782    707.8306 307.8004955  +6.3900907     597.4888      598.935     533.5764     77.77197     155.4822     310.7173      1.157     3.37      840.616     54.77442     107.6464         6     0.741     0.641  38.26   0
       204    255.1155    701.2315 307.8119963  +6.3919027     5921.071     9555.333     10578.61     77.89531      155.235     310.6246      1.732     3.98        840.3     54.77442     746.7737        33     1.546     1.043 -40.93   0
       205    662.1843    700.4189 307.6429906  +6.4058926     6549.859     10435.21     11169.57     77.64841     155.1731     310.6555      1.733     4.20     839.6672     54.77442     841.1444        35     1.526     1.105 -39.39   0
       206    644.5497    701.2243 307.6502865  +6.4049697     739.1617     1286.243     1741.687     77.52467     155.4204     310.6555      2.349     5.74     839.7937     54.77442      105.085        10     1.193     0.779 -30.62   0
       207    357.4948    700.4132 307.7695123  +6.3956799     674.2489     1055.919     584.8534     77.64841     155.1731     310.5937      1.597     4.89     840.9706     54.77442     109.2011         9     1.176     0.575 -41.27   0
       208    922.4242    692.8271 307.5351766  +6.4177278     1049.469     1916.735     1947.101     77.40073      155.235     310.5937      1.902     5.57     835.8593     54.77442     153.7821        14     1.450     0.913 -44.36   0
       209    733.8453    688.8002 307.6136218  +6.4130883     3358.132      5638.88     6342.323     77.15225     155.1731     310.3153      1.819     3.78     838.9855     54.77442      409.616        31     1.575     1.099 -58.44   0
       210    689.1827    689.2740 307.6321527  +6.4113983     1036.544     1678.344     1491.999     77.40073     155.1731     310.6555      1.782     4.86     839.1162     54.77442     132.3902        10     1.070     0.691 -37.32   0
       211   1000.1118    685.4539 307.5031613  +6.4233653     7909.238     13608.54     14294.37     77.89531     155.2968     310.8717      1.862     4.00     835.3988     54.77442     901.1678        44     1.602     1.249 -38.73   0
       212    938.6805    685.9499 307.5286556  +6.4211104     2172.905     3565.739     3625.969     77.89531     155.4822     310.7482      1.742     4.49      835.564     54.77442     267.8912        23     1.462     0.982 -37.90   0
       213     19.0676    685.2406 307.9105480  +6.3905623     1794.779     3424.678     3928.403     77.77197     155.3586       310.81      2.111     4.71      841.117     54.77442      229.403        26     1.509     1.138 -15.54   0
       214    553.1432    683.2533 307.6888461  +6.4093285     543.2922     932.1754     901.3724     78.01846     155.4204     310.7482      1.541     5.45     839.4132     54.77442     77.07947         6     1.331     0.630 -75.62   0
       215     77.5294    680.1816 307.8864439  +6.3946202     23649.55     39028.54     41567.92     77.40073     155.2968     310.6555      1.785     3.92     840.9813     54.77442     2804.201        63     1.675     1.235 -36.66   0
       216    538.7869    681.1398 307.6948785  +6.4097200     1964.488     3256.091     3114.194      77.2766     155.3586     310.4391      1.755     4.26     839.3715     54.77442     265.5193        21     1.320     1.062 -53.43   0
       217    507.3835    678.5961 307.7080042  +6.4097177     1226.142     1909.741     2434.895     77.52467     155.0493     310.5937      1.855     5.52     839.4163     54.77442     172.2636        15     1.481     0.758 -43.87   0
       218    928.2977    677.8475 307.5332381  +6.4241094     825.8067     1283.685     1397.845     77.89531     155.3586     310.9026      1.727     4.42     835.5034     54.77442     115.3089        10     1.073     0.681 -48.51   0
       219    547.7063    674.9915 307.6913809  +6.4125577       990.57      1460.13     1681.664     77.52467     155.0493     310.5627      1.507     5.81     839.1617     54.77442     131.7485        13     1.370     0.694 -39.46   0
       220    723.4991    672.4209 307.6184667  +6.4195056      3345.05     5278.328     5571.719     77.89532      155.235     310.5318      1.776     4.17     838.4907     54.77442     440.1758        25     1.423     0.992 -44.75   0
       221    745.5175    670.7430 307.6093793  +6.4209350     3844.692     6105.794     5923.187     77.89531     155.4204     310.8409      1.708     3.95     838.3668     54.77442     505.7002        29     1.437     1.051 -33.93   0
       222    577.1076    668.7480 307.6793811  +6.4161210     3000.341     4522.632     4434.031     77.77197     155.2968     310.9644      1.610     3.83     838.9777     54.77442      392.558        24     1.328     1.010 -26.43   0
       223    413.0128    669.2518 307.7475058  +6.4104105     1308.637     2054.487     2038.069      77.2766     155.3586     310.5009      1.618     5.11     839.7886     54.77442     184.4805        14     1.389     0.728 -40.73   0
       224   1018.4664    666.9198 307.4961579  +6.4316309     4464.879     7317.038     7440.498     78.01846     155.6056     299.5475      1.765     3.91     834.9056     54.77442     525.3674        33     1.525     1.151 -35.52  16
       225    237.6686    668.0627 307.8203569  +6.4050119     1735.529     2820.637     3052.395     77.89531     155.4204       310.81      1.715     4.32     838.6746     54.77442     240.0593        19     1.396     0.879 -46.15   0
       226    983.8423    665.8693 307.5105718  +6.4309095     7224.367     12086.32      12667.5     77.77196     155.4204       310.81      1.783     3.92     834.9705     54.77442     887.6641        41     1.573     1.186 -36.96   0
       227    321.2028    667.6547 307.7856835  +6.4079875     1333.041     2237.883     1886.823      77.2766      155.235     310.4081      1.673     4.03     838.9678     54.77442     196.3661        16     1.278     0.858 -10.64   0
       228    537.2022    667.0626 307.6960088  +6.4154796     619.8107     1007.885     980.2538      77.2766      155.235     310.5009      1.780     4.35     838.9694     54.77442     79.21136         7     1.179     0.457 -32.53   0
       229    703.4418    664.4785 307.6270619  +6.4221141     976.9177     1560.168     1853.257     77.77197     155.4204     310.7482      1.701     4.32     838.3276     54.77442     144.9919        11     1.204     0.611 -47.15   0
       230     95.2867    662.2813 307.8796737  +6.4026092     765.4448     1117.571     1452.519     77.64841     155.6673     310.8717      1.761     5.75      840.653     54.77442     109.0131         9     1.226     0.759 -78.40   0
       231    429.2872    660.0614 307.7410564  +6.4147515     2664.155     4339.938     5053.312     78.01846     155.6056       310.81      1.799     4.33     839.4596     54.77442     356.0283        27     1.587     0.969 -42.78   0
       232    142.2847    659.0897 307.8602661  +6.4055088     22563.63      36802.1     38844.39     77.64841     155.6673     310.8717      1.760     3.94     839.8125     54.77442     2802.521        58     1.655     1.208 -40.88   0
       233    810.5640    659.6992 307.5827369  +6.4276702      1173.72      1790.09     1913.457     77.89531     155.2968     310.9335      1.708     5.06     837.2506     54.77442      142.989        13     1.290     0.796 -31.10   0
       234    361.5315    654.0551 307.7693941  +6.4149573     651.3823     986.4776     888.1685     77.89531     155.2968     310.7173      1.613     4.60     839.2204     54.77442     82.75372         5     1.065     0.564 -13.45   0
       235    978.7669    648.7187 307.5132524  +6.4378221     5943.052     10852.61      11644.5     77.77197     155.3586     310.7482      1.947     4.03     833.9629     54.77442     705.9489        46     1.625     1.387 -25.28   0
       236     23.3604    647.9348 307.9100234  +6.4061106     1135.031     1729.754     2344.589     77.89531     155.3586     310.8409      1.867     4.91     840.9763     54.77442     146.5925        11     1.275     0.734 -36.57   0
       237    572.2756    643.9969 307.6822178  +6.4261793     44610.71     72293.95     76708.02     77.40073     154.9255     310.6555      1.724     3.97     838.2369     54.77442     5885.116        77     1.687     1.235 -37.12   0
       238    936.7171    645.9414 307.5308079  +6.4375654     697.7232     1086.387     316.6981     78.01846     155.4204       310.81      1.362     3.30     834.4955     54.77442       131.35         5     0.940     0.335 -44.38   0
       239    215.4407    644.8852 307.8303669  +6.4138348     539.7881     809.4524     633.2291     77.89531     155.3586     310.7173      1.574     5.53     838.5828     54.77442     82.33624         7     1.234     0.700 -57.94   0
       240    531.4598    644.3463 307.6991556  +6.4246671     606.6546     844.9633     1187.281     78.01847     155.3586     310.7482      1.357     3.98      838.426     54.77442      98.6131         6     1.062     0.426 -35.19   0
       241    179.7378    640.7324 307.8453322  +6.4143488     2580.989     4264.511     4751.017     77.89531     155.3586     310.7482      1.752     4.46     839.0021     54.77442     321.9365        23     1.520     0.912 -48.66   0
       242    502.4276    640.8411 307.7113293  +6.4251411     605.7029     947.0836     883.1412     77.52467      155.235     310.5937      1.609     4.25      838.576     54.77442     89.96765         5     1.186     0.435 -32.16   0
       243     72.1700    635.0190 307.8901914  +6.4130875      1255.26     2023.074     2204.111     77.52467      155.235     310.6246      1.748     4.97     840.4307     54.77442     157.1262        16     1.343     0.849 -26.90   0
       244    469.5512    627.8074 307.7254194  +6.4294205     58477.82     94536.57     99979.13     77.40073      155.235     310.3772      1.759     3.99     838.5456     54.77442     7612.989        76     1.676     1.239 -37.89   0
       245     12.9276    629.4667 307.9149783  +6.4133846     1727.174     3017.144     3163.038     77.89531     155.5439     310.7482      1.888     4.73     841.1368     54.77442     225.7669        22     1.582     0.923 -45.55   0
       246    654.6483    625.4720 307.6486315  +6.4365876     833.5214     1439.841     1213.833     77.89531     155.4822     310.7791      1.728     6.47     837.6151     54.77442     129.4308        13     1.384     0.925 -60.23   0
       247    143.9896    622.7192 307.8607831  +6.4205838     1444.729     2061.119     1667.997     77.52467     155.1113     310.5937      1.582     4.15     839.2719     54.77442     201.5719        17     1.299     0.823 -34.34   0
       248    423.1542    620.5257 307.7449312  +6.4308706     818.5329     1162.705     982.2902     77.77197     155.4822     310.7482      1.739     5.78     838.4976     54.77442     108.7696        10     1.302     0.724 -39.81   0
       249    939.0825    620.3984 307.5306792  +6.4481918     518.8992     865.5051     665.9459     77.15225     154.9874       310.47      1.424     3.96     833.5418     54.77442     94.35956         6     1.040     0.432 -14.07   0
       250    615.5262    619.4628 307.6650796  +6.4377588     880.0039     1357.873      1268.68     78.14143     155.4204     310.7482      1.627     4.08      837.303     54.77442     147.4346         8     1.193     0.445 -35.41   0
       251    315.2292    617.2267 307.7898597  +6.4286091     1907.967     3400.052     3615.789     77.40073      155.235     310.5937      1.880     5.61     837.6987     54.77442     227.5238        26     1.627     1.217 -61.93   0
       252    467.3759    615.8294 307.7267249  +6.4342934     852.0109     1507.396     2174.886     77.40073     155.2968     310.5627      2.163     5.72     838.3226     54.77442     127.7427        10     1.358     0.769 -62.85   0
       253    741.5681    611.3668 307.6130076  +6.4453207     5101.309     8062.461     7843.416     77.40073     155.1731     310.5009      1.721     4.13     836.9357     54.77442     636.3281        34     1.530     1.091 -33.82   0
       254   1012.1797    607.3776 307.5007570  +6.4560079     948.4181     1600.742     1632.298     77.64841     155.2968     310.6864      1.760     6.49     830.2116     54.77442      121.518        13     1.282     0.922 -64.14   0
       255    795.1933    606.6003 307.5908970  +6.4490822     12915.95     20872.71     21672.54      77.2766     155.1113     310.5627      1.740     4.18     835.9272     54.77442     1656.005        42     1.569     1.113 -34.78   0
       256    536.9442    605.9081 307.6981678  +6.4407228     1093.462     2273.499     2901.415     77.77197     155.2968     310.8717      2.505     6.73     837.4074     54.77442      201.998        16     1.589     0.925  85.16   0
       257    618.9818    604.6942 307.6641397  +6.4439728      2747.13     4220.927     4680.248     77.77196     155.1731     310.6246      1.675     3.99     836.8346     54.77442     337.5018        21     1.355     0.934 -36.44   0
       258    935.9254    600.8557 307.5326434  +6.4561561     987.4772     1420.777     2214.433     77.77197     155.3586     310.6864      1.958     4.76      833.067     54.77442     124.1263        14     1.182     0.930 -25.67   0
       259    376.9067    598.7634 307.7648676  +6.4383042     747.0705     1137.883     833.1104     78.01846     155.2968     310.8409      1.487     2.62     837.4799     54.77442     124.5923         7     0.896     0.705 -47.11   0
       260    231.8028    598.2094 307.8251434  +6.4336578     1145.841     2006.778     2596.514      77.2766     155.1113     310.5937      2.100     4.74     837.6498     54.77442     155.5737        15     1.322     0.845 -38.21   0
       261    871.1202    589.8713 307.5599244  +6.4585275      2579.06     4187.436     4381.044     78.14143     155.6673     310.7482      1.722     4.04     834.2719     54.77442     363.3235        22     1.327     1.020 -38.40   0
       262    829.9858    587.3825 307.5770909  +6.4581808     2344.733     3681.195     3973.167     77.64841     155.1113     310.6864      1.691     4.47      834.661     54.77442     277.8319        22     1.484     0.990 -42.40   0
       263    165.5888    589.7424 307.8529246  +6.4349268     686.2141      1203.14     1484.854      77.2766     155.4204       310.47      1.900     5.36      838.563     54.77442     103.7191         9     1.416     0.573 -32.16   0
       264    257.9097    582.2988 307.8148374  +6.4411051     7189.697      11642.9        11948     77.89531     155.8522     310.7173      1.736     3.95     837.2372     54.77442     864.8289        36     1.513     1.116 -36.51   0
       265    800.8986    583.1944 307.5893110  +6.4589378     2431.987       4090.3     5107.913     77.64841     155.0493       310.47      1.876     4.16      834.772     54.77442     322.2278        25     1.586     0.989 -40.34   3
       266    810.5455    578.4805 307.5854624  +6.4612068     149916.9     236716.8     250920.7     77.89532     155.4204     310.7791      1.757     4.06     834.4742     54.77442     19212.81       127     1.743     1.322 -37.08   2
       267    743.1063    583.2230 307.6133112  +6.4569934     678.3921     1147.672     1499.156     77.89531      155.235     310.5937      1.537     5.56     835.7979     54.77442     104.8867         7     1.179     0.748 -88.71   0
       268    192.1235    576.7610 307.8423428  +6.4411796      53684.8     88660.19     95436.59     77.77197     155.4822     310.7791      1.771     4.04     837.8978     54.77442     6779.318        87     1.762     1.271 -40.85   0
       269    116.1658    573.0312 307.8740111  +6.4401637     5666.705     9364.647     10174.24     77.40073     155.1731     310.5318      1.784     3.82     839.0329     54.77442     635.9132        36     1.535     1.156 -33.63   0
       270    981.6354    570.2306 307.5146831  +6.4703278     1289.224     2002.598     2260.089     77.52467     155.1731     310.5318      1.663     4.96     831.0401     54.77442     170.1749        15     1.160     0.984 -12.71   0
       271   1002.3676    568.8156 307.5061200  +6.4716038     806.1846     1286.092     1087.275     77.52467     155.1731     310.6555      1.666     6.20     830.5045     54.77442     109.8262        11     1.488     0.725 -40.88   0
       272    230.6547    568.2308 307.8266291  +6.4459975     767.6982     1499.723     1582.308     77.77197     155.4822     310.7173      2.229     5.77     837.0508     54.77442     107.0267         9     1.508     0.621 -48.29   0
       273    847.2250    565.7593 307.5706547  +6.4676856     4136.908      6549.36      6930.67     77.52467     155.2968     310.5318      1.677     3.97     833.7964     54.77442     547.0468        27     1.481     0.995 -30.19   0
       274    365.5137    563.9228 307.7707699  +6.4523078     15903.33     25899.24     27287.83     77.89531      155.729     310.8409      1.778     3.93      836.426     54.77442     2035.615        49     1.640     1.153 -40.95   0
       275    455.7349    564.2532 307.7332911  +6.4551995     855.5549     1247.072     1323.145     77.89531     155.3586     310.7173      1.551     3.40     836.5836     54.77442     131.7997         9     0.982     0.663 -21.75   0
       276    167.6024    562.7925 307.8529961  +6.4461223     1690.917     2794.759     3861.374      77.2766     155.1113     310.5627      2.171     4.90     838.1976     54.77442     232.8572        19     1.523     0.841 -33.76   0
       277    531.8739    558.7769 307.7018550  +6.4600141     5983.397     9624.985      9829.77     77.52467      155.235     310.6864      1.687     3.87     836.1535     54.77442     773.9796        34     1.522     1.054 -38.54   0
       278    242.5486    560.6274 307.8219457  +6.4495370      888.014     1386.849     1772.353     77.52467     155.5439     310.6864      1.728     3.97     836.8915     54.77442     121.7705         9     1.055     0.728 -29.48   0
       279    801.1102    559.1082 307.5900292  +6.4688907      5378.67     8798.025     10021.42     77.89531     155.9138     310.8409      1.788     4.20     833.7161     54.77442     682.6544        32     1.538     1.032 -40.57   0
       280    104.6572    560.1797 307.8792233  +6.4450827     810.0815     1379.205     1473.628     77.52467     155.2968     310.5627      1.695     4.83      839.033     54.77442     148.1678         9     1.370     0.483 -39.12   0
       281    390.1845    555.4180 307.7608103  +6.4566478     1326.573     2049.939     1561.727     77.64841     155.1113     310.6864      1.666     4.12     836.2189     54.77442     163.1092        14     1.142     0.848 -41.36   0
       282    576.5492    551.9004 307.6835321  +6.4643509     2338.972     4003.098     4401.495     77.89531     155.4204     310.9335      1.862     4.40      835.269     54.77442     344.4496        26     1.713     0.906 -40.16   0
       283    178.8871    551.8942 307.8486768  +6.4510020     6189.924     10382.97     11351.02     77.89531     155.8522       310.81      1.782     4.14     837.8064     54.77442     740.6249        37     1.573     1.141 -37.14   0
       284     50.5261    550.5956 307.9020252  +6.4472172     4663.115     7876.587     8388.751     77.52467     154.9874     310.6246      1.829     4.35     840.3245     54.77442     569.6227        32     1.519     1.105 -40.24   0
       285    817.6287    551.5553 307.5834216  +6.4725617     1279.146     1998.372     2564.043     77.52467     155.4822     310.6555      1.831     4.19     833.3801     54.77442     182.5815        16     1.262     0.832 -28.12   0
       286    274.1418    548.4180 307.8092365  +6.4556403      78860.4     131394.7     139037.5     77.52467     155.3586     310.5009      1.791     4.06     836.6357     54.77442     9465.624        90     1.736     1.289 -38.95   0
       287    563.5721    546.1774 307.6891135  +6.4662791     893.9224     1389.745     1968.673     77.40073      155.235     310.6246      1.812     5.91     835.3467     54.77442     108.5588        13     1.448     0.679 -36.38   0
       288    973.8167    542.3185 307.5188628  +6.4815925     1331.849     2314.897     2565.179     77.52467     155.1113     310.5937      1.889     4.15     830.8179     54.77442     187.3478        16     1.257     0.949 -61.08   0
       289    500.9180    539.2425 307.7153665  +6.4670423     36921.46     65143.32     70860.66     77.89531     155.4204     310.7173      1.920     4.03     835.5657     54.77442      4227.85        85     1.822     1.398 -29.61   0
       290    257.8931    543.2585 307.8161580  +6.4572246     620.2396     889.9581     853.6544     77.77197     155.3586     310.9026      0.959     4.24     836.5084     54.77442     212.1187        17     1.319     0.914 -45.51   0
       291    797.3296    540.8390 307.5922108  +6.4763081     15010.29     24032.95     25596.55     77.77197     155.4204       310.81      1.726     3.99      833.131     54.77442     1940.986        48     1.620     1.123 -37.85   0
       292    650.9915    537.8361 307.6530874  +6.4726518     768.6382     1319.593       1552.1     77.40073      155.235     310.5318      1.848     5.20     833.9216     54.77442     98.08582         9     1.205     0.633 -27.05   0
       293    213.3173    535.7073 307.8349237  +6.4588438     1661.689     2825.929     2652.563     77.64841      155.729     310.8717      1.762     4.60     836.5967     54.77442     209.4238        20     1.512     0.900 -46.32   0
       294     49.0474    535.7183 307.9031408  +6.4533102     1024.657     1956.803     1858.374     77.89531     155.4204     310.7791      1.988     5.61     840.1868     54.77442     147.7676        12     1.454     0.649 -46.08   0
       295    723.3624    533.7145 307.6231690  +6.4767760      1216.08     2190.507     2533.447     77.89531     155.4204     310.7482      2.060     7.87     833.9495     54.77442      159.424        20     1.523     1.290  42.73   0
       296    671.2278    534.3984 307.6447983  +6.4747488     1229.291     2028.216     2423.221     77.40073     155.1731     310.5318      1.727     4.50     833.7155     54.77442     174.5009        15     1.209     1.052 -60.92   0
       297    660.9043    534.2650 307.6490902  +6.4744582     2856.576      4649.94     5294.427     77.89531     155.5439     310.7791      1.741     4.61     833.7574     54.77442     398.1424        23     1.491     0.897 -39.03   0
       298    398.5253    529.9062 307.7582037  +6.4674620     1521.238     2702.784     3176.329     77.64841     155.5439     310.7173      1.989     4.12      835.229     54.77442     208.7651        18     1.306     0.898 -36.63   0
       299     80.3634    531.0800 307.8902925  +6.4562801      661.001     1150.985     1167.764     77.77197     155.4822     310.7482      2.665     4.35     839.2247     54.77442     110.7752         8     0.931     0.718   9.43   0
       300    329.9791    528.1767 307.7867288  +6.4658743     3479.486     5806.507     6333.071     77.64841      155.235     310.7173      1.786     4.08     835.3802     54.77442     421.1759        30     1.503     1.049 -38.14   0
       301    145.2303    526.8108 307.8634986  +6.4602266     23425.14     39027.94     41216.64     77.40073      155.235     310.5937      1.763     4.15     837.9536     54.77442     3051.191        57     1.670     1.209 -40.12   0
       302    509.9305    527.5446 307.7120163  +6.4721748     2094.691     3125.705      3352.28     77.89531     155.2968     310.7173      1.547     3.82     835.0025     54.77442     301.5691        19     1.367     0.860 -27.00   0
       303    873.3459    526.8056 307.5611092  +6.4846434     1444.282     2396.918     2248.833     77.40073     155.1731     310.4391      1.716     4.30      832.549     54.77442     209.4016        16     1.366     0.862 -22.71   0
       304    415.4217    526.1904 307.7513115  +6.4695634     409.3629     428.5014     225.2498     77.52467     155.1731     310.5627      1.426     4.14     835.0484     54.77442     68.98102         5     1.499     0.327 -49.30   0
       305    110.4606    525.0228 307.8779980  +6.4597945     2390.057     4016.613     4457.138     77.52467     155.3586     310.6555      1.814     3.94     838.4526     54.77442     289.7628        24     1.392     1.019 -45.49   0
       306    347.2919    523.1918 307.7797065  +6.4685142     936.9914     1514.337      1914.46     77.52467     155.1113     310.5627      1.812     5.99     834.9757     54.77442      132.247        13     1.459     0.730 -55.90   0
       307    970.8016    521.4994 307.5208107  +6.4900887     4772.898     7688.201     8290.202     77.40073     155.1731       310.47      1.735     3.86     830.0472     54.77442     602.0741        35     1.500     1.142 -28.24   0
       308    544.1854    513.8570 307.6982493  +6.4789750     1245.963     1766.274     1574.637      77.2766     155.2968     310.4081      1.550     5.05     834.1138     54.77442     160.2999        14     1.262     0.824 -33.91   0
       309      9.5043    511.1053 307.9203922  +6.4621406     23129.33     38357.33     40418.52     77.89531     156.0369     310.6555      1.794     4.03     840.7288     54.77442     2731.311        57     1.667     1.217 -39.30  16
       310    442.2618    507.9101 307.7407788  +6.4780123     39207.38     63805.21     67269.38     77.89531     155.5439       310.81      1.752     4.06     834.2356     54.77442     5009.809        70     1.668     1.234 -38.05   0
       311    650.2982    507.6552 307.6543870  +6.4850908     11209.57     18051.34     19232.61     77.77197     155.4204     310.9644      1.736     4.00     833.0063     54.77442     1422.929        41     1.579     1.089 -37.77   0
       312    290.0300    508.3407 307.8039866  +6.4727226     870.8405     1435.619        765.1     77.64841     155.4204     310.7173      1.793     6.29     834.8866     54.77442     118.1101        12     1.407     0.789 -40.99   0
       313    207.4115    505.4780 307.8383940  +6.4711270      16972.9     29872.26     31916.62     77.52467     155.0493     310.6246      1.892     3.95     835.7991     54.77442     2100.828        57     1.654     1.352 -35.04   0
       314    173.1451    506.3210 307.8525962  +6.4696262     1529.877      2343.18      2427.75     78.01846     155.4204     310.7791      1.696     4.85     836.8405     54.77442     195.2905        19     1.470     0.930 -46.60   0
       315    983.9460    505.9254 307.5158718  +6.4969583     1045.814     1810.605     1935.331     77.77197     155.4204     310.7482      1.896     4.87     829.0062     54.77442     138.5532        12     1.398     0.695 -54.31   0
       316    912.6604    505.5463 307.5454917  +6.4947350     831.7069     1057.402       954.22     77.89531     155.3586     310.7173      1.579     5.27     831.2492     54.77442     110.2462         9     1.193     0.656 -46.94   0
       317    824.2385    505.5793 307.5822150  +6.4917672     973.9085     1287.757     1290.327     77.52467      155.235     310.5009      1.457     4.25     832.5397     54.77442     136.6024        11     1.143     0.687 -41.34   0
       318    572.1174    504.3339 307.6869683  +6.4838434     2553.634     4109.237     4694.969     78.14143     155.6673       310.81      1.740     4.14      833.321     54.77442     332.4186        24     1.504     0.943 -39.47   0
       319    946.0123    501.6646 307.5317694  +6.4974515     4345.201     6972.315     7191.452     77.40073      155.235     310.5937      1.722     3.90     830.2048     54.77442     572.9845        30     1.509     1.033 -36.35   0
       320    619.1200    499.9634 307.6675938  +6.4872228     5965.833     9766.192     10532.21     77.77197     155.4822     310.7482      1.737     4.02     832.8076     54.77442     799.3652        34     1.480     1.104 -42.12   0
       321    106.6198    500.7122 307.8804123  +6.4697031      857.046     1523.976     945.9662     77.64841     155.1731     310.6555      1.751     4.99     838.0828     54.77442      117.401        12     1.263     0.733 -53.51   0
       322    218.3497    500.2507 307.8340274  +6.4736533     540.2927     703.6582     1016.214     77.89531     155.2968     310.6864      1.443     4.51     835.3096     54.77442     75.91296         5     0.823     0.704 -25.32   0
       323    968.5078    493.7989 307.5226890  +6.5014504     3096.519     5106.152     5371.288      77.2766     155.0493     310.5009      1.760     3.93     829.0617     54.77442     390.1949        26     1.454     1.008 -35.30   0
       324    531.2561    491.2225 307.7043786  +6.4878877     6847.304     11242.29      11790.1     77.52467     155.4204     310.5627      1.774     3.94     833.0299     54.77442     834.8026        38     1.550     1.137 -37.53   0
       325    377.3758    491.3940 307.7682815  +6.4826541     2407.294     3935.449     4117.938     77.40073     155.1731     310.5937      1.776     4.08     833.4679     54.77442      308.974        24     1.519     0.915 -39.80   0
       326    746.7366    491.9902 307.6148586  +6.4947869     503.6015      626.881      577.672     77.40073      155.235     310.5627      1.440     3.80     832.7217     54.77442     82.39764         5     0.817     0.506 -35.05   0
       327    100.3488    490.0529 307.8833758  +6.4738932      455.838     790.5029     1170.195     78.01846     155.2968     310.7791      1.961     4.93     838.0327     54.77442     77.54028         5     1.253     0.550 -39.94   0
       328    887.7577    487.0818 307.5564522  +6.5015277     2959.395      4940.36     6009.318     77.89531     155.4204     310.6864      1.890     4.11     831.3788     54.77442      361.092        26     1.486     0.975 -35.87   0
       329    235.5503    486.2000 307.8273570  +6.4800333     783.1468     1007.321     805.2541     77.15225     154.9255     310.2844      1.508     5.10     834.5043     54.77442     114.5502         9     1.173     0.627 -36.34   0
       330    895.2484    481.5036 307.5535275  +6.5040813     1913.777     3100.034     2963.958     77.77197     155.2968     310.9026      1.775     4.54     831.1221     54.77442     263.9068        17     1.369     0.836 -44.04   0
       331    934.3275    480.7926 307.5373201  +6.5056800     1041.952     1681.601     1641.632     77.52467     154.9874     310.6555      1.649     4.24     830.1441     54.77442     162.2606        11     1.114     0.730 -37.53   0
       332    114.1743    481.3059 307.8779290  +6.4779704     600.6105     1135.017     1066.262     78.01846     155.1731     310.5937      1.865     4.18      837.587     54.77442     114.5733         5     0.977     0.509 -35.19   0
       333    719.1587    477.4254 307.6268005  +6.4998783     2795.251     4377.686     4622.941     77.52467     155.2968     310.5318      1.688     3.87     832.1674     54.77442     361.8934        24     1.338     1.028 -39.63   0
       334    430.3030    475.7200 307.7468268  +6.4909028     1019.543     1800.822     2173.121     77.64841      155.729       310.81      1.813     6.14     832.7793     54.77442     137.7672        14     1.478     0.718 -43.72   0
       335    389.7918    475.7072 307.7636522  +6.4895482     3311.615     5640.235     5867.772     77.52467     155.1113     310.5627      1.774     4.20     832.7579     54.77442     440.2036        27     1.475     1.040 -34.68   0
       336     81.0555    476.2369 307.8918539  +6.4789482     1610.604     2565.028     2528.838     77.77197     155.4204     310.7791      1.756     5.79     838.2364     54.77442     179.5316        19     1.434     0.930 -39.97   0
       337    617.7532    472.1847 307.6690930  +6.4986474     9135.342      14985.1     16059.17      77.2766      155.235     310.5009      1.748     4.03     831.8131     54.77442     1153.173        42     1.577     1.113 -41.20   0
       338    780.6624    468.5196 307.6015540  +6.5056131     15074.78      24114.9     26830.41     78.01847     155.4822     310.7482      1.812     4.42     831.7462     54.77442     2000.358        61     2.089     1.127 -45.97   0
       339    300.1390    468.9719 307.8011127  +6.4893180     2388.073     3731.976     4039.403     77.52467     155.4822     310.6864      1.644     3.91     832.9405     54.77442     325.2535        21     1.327     0.954 -38.66   0
       340    423.5848    468.7731 307.7498504  +6.4935458     621.9892      870.717     719.4925     77.52467      155.235     310.6555      1.524     5.14     832.4578     54.77442     93.31323         6     1.187     0.628 -41.22   0
       341    809.2757    466.0303 307.5897531  +6.5075977     1181.229     2065.408     2180.583     77.77197     155.4822     310.7482      2.021     4.93     831.4753     54.77442     167.9269        16     1.429     0.785 -38.81   0
       342    382.9637    465.7315 307.7668233  +6.4934381     1646.348     2662.993     3268.506     77.77197     155.4822     310.8409      1.703     4.51     832.2171     54.77442     211.3622        18     1.338     0.924 -25.77   0
       343    965.3997    463.8133 307.5249820  +6.5137285     1822.152     2820.363     2894.016     77.52467     155.1113     310.5627      1.657     4.81     828.1138     54.77442     239.8979        19     1.453     0.832 -40.87   0
       344    755.9196    459.9626 307.6121172  +6.5083190     2048.416     3297.784      3240.85     77.77197     155.4822     310.7173      1.651     4.08     831.2919     54.77442     258.5129        20     1.470     0.817 -49.69   0
       345    371.7614    461.9034 307.7716045  +6.4946426     646.9031      986.889     1174.639     77.89531     155.2968     310.9026      1.612     2.94     831.9563     54.77442      107.461         6     0.738     0.569  46.16   0
       346    117.7679    460.5563 307.8771359  +6.4866589     4078.471     6554.775     7208.485     77.52467     155.4204     310.6246      1.750     3.97     837.0347     54.77442     520.3204        29     1.530     1.010 -32.72   0
       347   1019.7037    458.5410 307.5026029  +6.5177176     3536.218     6471.567     6590.962     77.77197     155.4204     287.8113      1.883     4.54     825.7208     54.77442     388.3049        36     1.587     1.297 -11.65  16
       348    275.7753    457.6635 307.8116117  +6.4931686     1355.049     2367.064     2627.288     77.52467     155.4204     310.6864      2.137     4.14     832.7787     54.77442     222.1608        17     1.399     0.822 -17.40   0
       349    353.7812    455.4043 307.7792905  +6.4967223     2942.069     4885.221      5102.05     77.52467     155.0493     310.5627      1.741     4.10     831.4592     54.77442     393.1155        25     1.528     0.930 -42.03   0
       350    709.5774    453.3074 307.6315879  +6.5095165     1548.184     2592.724     2594.501     77.89531      155.235     310.5937      1.818     4.87     831.0744     54.77442     184.4629        22     1.441     1.063 -28.00   0
       351    241.4045    451.4552 307.8260953  +6.4945765     894.6407     1367.359      1266.16      77.2766      155.235     310.4391      1.661     4.72     833.1826     54.77442     155.0301         8     1.224     0.515 -58.52   0
       352    452.2664    446.9356 307.7386719  +6.5035252     502.3915     608.2266     454.3531     77.89531     155.4204       310.81      1.387     4.24      831.297     54.77442     101.4849         5     1.090     0.471 -52.16   0
       353    551.2760    445.6988 307.6975916  +6.5073563     896.1061     1572.116     1832.264     77.52467     155.5439     310.7173      1.729     6.22     831.0976     54.77442       116.59        13     1.426     0.763 -44.00   0
       354    473.3561    444.3285 307.7300003  +6.5053093     1148.267     1581.927     1454.672     77.77197     155.4204     310.7791      1.532     4.01     831.0336     54.77442     177.6469        12     1.184     0.662 -41.97   0
       355    835.8992    443.5053 307.5794490  +6.5177887     1418.442     2234.064     2045.686     77.89531     155.9138     310.5937      1.682     4.36     830.0441     54.77442     182.5064        17     1.323     0.832 -28.17   0
       356    821.4603    442.3743 307.5854840  +6.5177732     1999.895     3144.874     2832.452     77.52467     155.4204     310.6555      1.678     4.26     830.0226     54.77442     251.0947        19     1.411     0.846 -42.89   0
       357    718.9192    440.4803 307.6281376  +6.5151257     13867.56     21927.09     23281.61     78.01846     155.6673     310.9026      1.705     4.02     830.4285     54.77442      1825.66        42     1.574     1.083 -38.44   0
       358    621.4019    442.5765 307.6685705  +6.5109953     676.9434     1065.726     1272.884     77.52467     155.1113     310.5318      1.845     4.96     830.6483     54.77442     102.6557         7     1.021     0.682 -38.59   0
       359    640.0926    436.3976 307.6610146  +6.5141727     2436.887     3938.227     4502.563     77.40073     155.1113       310.47      1.791     4.38     830.4645     54.77442     325.4348        23     1.474     0.980 -43.34   0
       360    712.5360    435.5365 307.6309545  +6.5169535     615.7855     1110.009     1828.045     77.89532     155.4204     310.7791      2.515     5.14     830.2919     54.77442     96.33722         7     1.099     0.746  34.78   1
       361    614.8110    433.4243 307.6716148  +6.5145537     5027.925     8488.683      9126.85     77.52467      155.235     310.6555      1.814     4.43     830.2126     54.77442     604.8721        28     1.524     1.064 -35.95   3
       362    611.3210    430.9679 307.6731467  +6.5154511     13730.35     22411.56     23922.25     77.77196     155.4204     310.7173      1.737     3.81     830.1077     54.77442     1785.639        47     1.632     1.150 -35.19   3
       363    944.2075    430.5087 307.5348974  +6.5267734     3437.883     5643.054     6214.322     77.52467     155.1113     310.5318      1.770     3.95     827.6027     54.77442     430.1422        29     1.512     1.040 -29.68   0
       364    383.3385    426.3136 307.7679926  +6.5097268     26525.91     43463.49     46129.58     77.89531     155.6056     310.7482      1.776     3.97     830.0856     54.77442     3289.403        60     1.670     1.196 -39.64   0
       365    421.1017    427.8713 307.7522560  +6.5103513     520.0544     975.5081     909.3218     77.77197     155.6056     310.7482      1.549     3.84     830.5723     54.77442     75.73676         5     1.322     0.319 -31.90   0
       366    899.6087    425.9735 307.5535735  +6.5271567     1326.974     2360.271      3155.85     77.52467      155.235     310.5937      2.280     5.13      828.368     54.77442     165.5834        17     1.177     1.102  76.37   0
       367    129.4269    425.8154 307.8734646  +6.5013960     2048.254     3523.486     3214.962     77.52467      155.235     310.6555      1.763     5.10     835.8454     54.77442     243.6135        21     1.544     0.880 -33.11   0
       368    895.5797    422.7542 307.5553546  +6.5283515     614.9103     1089.025       1527.9     77.52467     155.3586     310.5937      1.795     3.37      828.291     54.77442      80.3797         5     0.763     0.430  67.42   1
       369     62.6943    421.2978 307.9013317  +6.5010142     1293.768     2374.638     2707.576     77.89531     155.9754     310.5937      2.041     5.40     837.4775     54.77442      151.469        20     1.552     0.928 -51.64   0
       370    913.0693    420.6798 307.5481595  +6.5297922     4580.445     7465.426     7635.927     78.14143      155.729     310.7173      1.733     4.07     827.9167     54.77442     603.6844        29     1.487     1.055 -43.35   0
       371    240.8081    416.8426 307.8275081  +6.5088482     12392.74     20814.66      21815.6     77.40073      155.235     310.5009      1.772     4.09     831.9556     54.77442     1519.954        43     1.589     1.160 -38.74   0
       372    735.8079    410.6178 307.6221233  +6.5280217     638.4963     912.6304     1198.161     77.52467     155.1731     310.5937      1.621     4.40     828.9289     54.77442     97.57343         7     1.572     0.350 -45.05   0
       373    704.0648    409.9686 307.6353297  +6.5272275     755.0512     1221.215     1281.277     77.64841     155.4204     310.6864      1.514     5.37     829.2221     54.77442     104.7226        11     1.268     0.642 -65.73   0
       374     76.6086    410.7301 307.8959092  +6.5058462     757.3792     1128.952     1153.302     77.40073     155.0493     310.6246      1.608     5.42     836.9484     54.77442     97.83246        10     1.233     0.672 -56.33   0
       375    964.1774    408.8932 307.5273251  +6.5363656     931.6623     1530.006     1602.931     77.89531      155.235     310.5937      1.710     5.50     826.1311     54.77442     125.5508        11     1.043     0.819 -37.00   0
       376    141.1579    405.4560 307.8692785  +6.5101973     4714.847     7587.803     7916.796     77.77197     155.3586     310.7482      1.740     3.93     834.7861     54.77442     606.1221        32     1.543     1.052 -45.37   0
       377    353.8191    406.6015 307.7809157  +6.5168748     1256.621     2128.427     2823.925     77.52467     154.9874       310.47      1.908     5.19     828.9184     54.77442      179.529        16     1.466     0.817 -15.99   0
       378    186.3157    406.9009 307.8504748  +6.5111204     848.8594     1278.089     1363.547     77.89531     155.9138     310.8409      1.561     4.71     833.3441     54.77442     114.8209         8     1.002     0.851 -32.65   0
       379    438.6833    403.9991 307.7457558  +6.5207985     535.7716     916.6058     706.4839     77.15225     154.9874       310.47      1.549     3.93     829.2604     54.77442      98.0791         6     1.379     0.320 -60.87   0
       380    246.0004    404.1913 307.8257774  +6.5142466     1290.494     1918.015     1712.086      77.2766     155.1113     310.5318      1.593     4.34     831.4164     54.77442     205.1951        16     1.303     0.826 -51.26   0
       381    826.9269    402.7274 307.5845403  +6.5343270     738.5638     1215.672     888.0253     78.14143     155.5439     310.7791      1.686     4.23     828.3273     54.77442     94.48138         7     0.768     0.664  15.00   0
       382    163.2482    401.2985 307.8602440  +6.5126574     2240.687     3705.471     3730.593     77.89531     155.3586     310.9335      1.793     4.15     833.8928     54.77442     251.4363        22     1.463     0.893 -43.56   0
       383    558.9854    400.3131 307.6959126  +6.5263552     860.8748     1429.499     1142.826     77.52467      155.235     310.6246      1.666     4.82     828.5795     54.77442     118.3723        11     1.217     0.722 -61.67   0
       384    975.2946    395.8991 307.5231416  +6.5421022     864.5567     1429.691     1185.505     77.89531     155.9138     310.5937      1.760     6.26     825.3149     54.77442     119.9131        12     1.444     0.762 -65.31   0
       385    386.6381    396.1352 307.7676366  +6.5222985     1903.521       3045.7     3075.171     77.77197     155.3586     310.8409      1.718     3.96     828.8757     54.77442     234.1768        20     1.329     0.963 -37.19   0
       386    275.3358    396.6700 307.8138466  +6.5183385     671.9973      1224.65     1233.099     77.89531     155.4822     310.7482      1.900     5.31     830.4603     54.77442     92.90869         6     1.118     0.713 -82.82   0
       387    320.3419    393.9177 307.7952466  +6.5209874     665.2741     948.2492      932.698     78.01846     155.4204       310.81      1.641     5.21     829.3248     54.77442     97.49414         6     1.092     0.702  82.92   0
       388     36.8994    390.3966 307.9130868  +6.5129042     2829.183     5063.524     5319.643     77.64841     155.1731     310.4391      1.944     5.15     837.3434     54.77442     369.4833        31     1.795     1.014 -41.74   0
       389    440.4680    389.6244 307.7454975  +6.5267939     6591.391     10875.73        11400     77.52467     155.2968     310.6555      1.807     4.09     828.5612     54.77442     836.5944        35     1.564     1.087 -38.81   0
       390    773.2715    388.5409 307.6073018  +6.5383909     1882.885     3238.373     3558.826     78.01847     155.4204     310.7482      1.911     5.45     828.1925     54.77442     223.1732        19     1.536     0.848 -48.21   0
       391    781.1399    387.0199 307.6040845  +6.5392821     11906.53     19272.29     20661.76     77.52467     155.2968     310.6246      1.708     3.93     828.1336     54.77442      1547.74        42     1.568     1.125 -37.06   0
       392    344.4841    385.5399 307.7855012  +6.5252578     1046.206     1848.139      1873.29     78.01847     155.4822       310.81      1.842     5.64     828.5702     54.77442      131.605        14     1.239     0.892 -30.44   0
       393   1023.6387    382.5074 307.5035081  +6.5492452      1826.98     2099.331     2036.695      68.3079     124.0952     234.1784      1.126     2.80     823.1443     54.77442     416.0228         9     0.994     0.539  88.23  24
       394    189.5803    378.0222 307.8500916  +6.5231543     801.3209     1134.505     871.7626     77.64841     155.3586     310.6864      1.608     5.00     832.2609     54.77442     99.31207        10     1.139     0.971 -78.73   0
       395    906.6652    377.4984 307.5522636  +6.5474089     467.7667     1033.209     730.0208     77.89531     155.4822     310.7791      1.196     3.51     826.7429     54.77442     109.7411         5     1.477     0.240 -40.94   0
       396    916.9697    373.5003 307.5481171  +6.5494040     696.5059     1095.484     1557.859     77.89531     155.1731       310.81      1.898     5.08     826.4365     54.77442     107.4528         7     1.308     0.558 -58.65   0
       397    488.7831    373.3488 307.7259765  +6.5351353      2788.38     4550.094     4464.972     77.40073     155.4822     310.5009      1.755     4.45     827.1191     54.77442      375.018        27     1.554     1.039 -38.09   0
       398    460.8431    373.8221 307.7375655  +6.5340025     2018.276     3258.343     3147.015     77.40073     155.2968     310.5627      1.694     4.10     827.5172     54.77442     277.3295        20     1.341     0.945 -31.07   0
       399    846.4627    369.9718 307.5775220  +6.5485054      30562.5     50538.66      53698.4     77.52467     155.4204     310.6864      1.788     4.02     827.6011     54.77442     3653.129        61     1.666     1.225 -46.37   0
       400     63.6376    366.0728 307.9028022  +6.5238483     663.7486     1143.584     1069.918     77.77196     155.4204       310.81      1.669     4.87     835.9987     54.77442     104.4691         8     0.979     0.687  -9.60   0
       401    338.7927    365.0421 307.7885544  +6.5335303     767.5883     1217.013     1413.833     77.40073     155.1731       310.47      1.773     4.69     828.1618     54.77442     103.8686         8     0.975     0.639 -31.11   0
       402     26.0458    362.7723 307.9185264  +6.5239445     1064.129     1703.043     1511.402     77.40073     155.4822     310.6555      1.526     5.01     837.1772     54.77442     141.2419        12     1.354     0.615 -47.02   0
       403    618.2562    362.3769 307.6725667  +6.5440058     2521.708     4051.068     4688.975     77.52467     155.4204     310.5627      1.753     3.84     825.5505     54.77442     315.9539        20     1.395     0.833 -36.47   0
       404    149.6575    360.4900 307.8672635  +6.5290500     558.3212     916.4479     1094.936     77.77197     155.3586     310.8717      1.670     4.71     833.0096     54.77442     80.37482         6     1.310     0.481 -39.74   0
       405    702.9153    355.9709 307.6376167  +6.5494857     73548.53     118428.5     124798.2     77.89531     155.1731     310.5937      1.716     3.95     826.6379     54.77442     9186.505        90     1.691     1.260 -36.23   0
       406    861.0286    357.2878 307.5718961  +6.5542297     1105.734     1657.282     2046.103     78.01846     155.1731     310.6246      1.683     5.72     827.2721     54.77442     125.6501        12     1.083     0.852 -27.45   0
       407     82.0850    355.5882 307.8954940  +6.5287988     1233.689     1993.341     1656.931     77.52467     155.1731     310.5937      1.670     4.98     835.0987     54.77442     178.5847        15     1.369     0.749 -44.29   0
       408    944.3837    353.2048 307.5374084  +6.5586999     830.2216     1395.473     1429.373     77.52467     155.1113     310.5937      1.904     5.67     824.9507     54.77442     133.6881        10     1.147     0.790 -54.36   0
       409    565.3396    352.7430 307.6948697  +6.5462106      2591.67     4220.569     4930.635     78.01847     155.3586     310.7791      1.886     4.05     824.7269     54.77442     377.4805        27     1.475     1.092 -33.16   0
       410    102.6317    351.4356 307.8871002  +6.5312053     5629.405     9275.938     9511.327     77.52467     155.1731     310.5009      1.794     4.17      834.215     54.77442     706.2253        36     1.592     1.135 -45.10   0
       411    548.6023    348.7952 307.7019543  +6.5472797      6615.29     10858.58     11801.96      77.2766     154.9874     310.5318      1.764     3.99     824.6262     54.77442     880.7786        37     1.557     1.133 -35.06   0
       412    277.4878    346.4855 307.8146416  +6.5391323     2526.035     4029.335     3979.758     77.64841     155.6056     310.8409      1.724     3.72     829.1996     54.77442     337.4568        25     1.549     0.966 -31.28   0
       413    411.5585    344.0127 307.7590379  +6.5446571     23705.99     39567.05     42054.87      77.2766      155.235     310.5009      1.780     3.90     826.8474     54.77442     2983.271        56     1.636     1.232 -39.27   0
       414    589.5114    343.4886 307.6851400  +6.5508420     470.4942     862.8613     1005.198     77.64841     155.9138     310.8409      1.889     4.31       824.51     54.77442     61.22107         6     1.306     0.405 -45.00   0
       415    519.0926    342.7343 307.7144151  +6.5487929     1196.021     2107.131     2016.421     77.77197     155.6056     310.7482      1.826     5.47     824.9962     54.77442     148.3345        16     1.565     0.715 -34.10   0
       416    391.2357    342.2105 307.7675397  +6.5447190     1127.768     1858.966     2642.744     77.40073      155.235     310.5318      1.670     4.61     826.9781     54.77442     164.1337        14     1.311     0.802 -29.78   0
       417    678.2748    342.1895 307.6483136  +6.5543515      525.552     790.4781     724.7347     77.52467     155.0493     310.5627      1.476     4.24     825.5703     54.77442     83.92517         6     0.766     0.670 -25.07   0
       418    491.2051    339.4309 307.7261095  +6.5492216     1066.083     1723.481     2308.678      77.2766     155.2968     310.5318      1.851     6.03     825.4044     54.77442     139.2612        15     1.512     0.727 -33.09   0
       419    806.1588    336.6756 307.5953779  +6.5609069     856.4726     1462.469     1590.161     77.77197     155.4204     310.7791      1.812     5.14     826.6855     54.77442     143.7075        12     1.165     0.847  22.12   0
       420    388.2942    336.4917 307.7689537  +6.5469815     782.8503     1396.146     1788.464     77.89531     155.9138     310.7482      1.831     4.95     826.8683     54.77442     107.5418         8     0.901     0.770 -79.54   0
       421    642.4100    336.2354 307.6634106  +6.5556091     565.8591     902.5054     1059.799     77.40073     155.1731     310.5318      1.530     4.74     824.8282     54.77442     107.1054         6     0.954     0.668 -13.52   0
       422    500.6829    334.4288 307.7223407  +6.5516050     8124.088     13239.54     13783.69     77.77197     155.1731     310.6864      1.769     3.95     825.0298     54.77442      1034.84        40     1.595     1.109 -38.45   0
       423    924.9476    333.3896 307.5461444  +6.5662330     841.1909     1363.993      1137.19      77.2766     155.2968     310.5009      1.566     5.03     824.8475     54.77442      117.308        11     1.123     0.771 -31.04   0
       424    769.6779    333.1482 307.6106495  +6.5611434     2995.341     4909.819      5829.42     77.89531     155.4822     310.7482      1.831     3.79     826.4269     54.77442     381.1588        26     1.435     1.035 -32.32   0
       425    717.5452    332.5687 307.6323240  +6.5596385     663.9302     1102.735     1246.257     77.77197     155.4822     310.7173      1.643     4.54     825.9692     54.77442     91.66254         7     1.195     0.490  -3.64   0
       426    327.2372    330.8584 307.7945038  +6.5472568     998.8892     1751.562     1358.927     77.89531     155.4822     310.7791      1.804     6.22     827.7234     54.77442     133.3422        12     1.338     0.812 -48.61   0
       427    162.9626    324.6343 307.8629455  +6.5443027     1147.721     1784.688     1714.404     77.64841      155.235     310.5318      1.733     5.72     831.9284     54.77442     142.3539        17     1.436     0.872 -49.11   0
       428    438.6301    325.1273 307.7484279  +6.5533638     494.7382     775.2259     478.4919     77.77197     155.4204     310.7173      1.353     3.39     825.8442     54.77442     83.72504         5     0.768     0.434 -70.46   0
       429    390.4814    318.6045 307.7686466  +6.5544408     6919.688     11224.72     12037.64     77.40073     154.9874       310.47      1.785     4.07     826.4572     54.77442     889.0876        37     1.602     1.073 -39.21   0
       430    246.3065    319.1109 307.8285144  +6.5493871     1933.337     3152.909     3325.318     77.89531     155.8522       310.81      1.739     3.95     829.2366     54.77442     253.1037        19     1.301     0.931 -29.57   0
       431    758.4055    314.5290 307.6159555  +6.5684546      50768.6     80443.81     84864.63     77.40073     155.0493     310.6555      1.749     4.07        825.6     54.77442     6410.557        79     1.668     1.230 -37.52   0
       432    744.2054    318.3667 307.6217255  +6.5663949      984.203     1609.892     1702.877      77.2766      155.235     310.5318      1.663     4.08     825.7028     54.77442     160.8759        11     1.181     0.778 -25.76   0
       433    430.1407    314.0108 307.7523277  +6.5576690     2068.677     3443.041     3418.426      77.2766     155.2968       310.47      1.693     4.09     825.6866     54.77442     264.3717        21     1.433     0.932 -43.94   0
       434    993.3646    311.6667 307.5184505  +6.5774869     1592.688     2559.399     2618.175     77.77197     155.4822       310.81      1.792     4.94     821.9388     54.77442     212.2757        16     1.425     0.757 -35.38   0
       435    934.1221    310.7317 307.5430911  +6.5758954     2088.388     3388.046     3252.159     78.01846     155.5439     310.7482      1.770     4.16     823.7556     54.77442     274.6298        20     1.387     0.921 -48.19   0
       436    576.3192    311.3581 307.6916978  +6.5636671     1243.134     1821.833     1817.935     77.89531     155.4204     310.7173      1.622     5.32     823.7657     54.77442     148.5475        16     1.233     0.933 -40.02   0
       437    466.8394    310.3291 307.7372078  +6.5604207     1016.353     1700.958     1809.713     77.77197     155.4204       310.81      1.581     4.18     824.7115     54.77442     139.9531        10     1.175     0.630 -32.81   0
       438    416.6154    309.3788 307.7581014  +6.5591276     1752.878     2899.608     3330.481     77.64841     155.1731     310.6555      1.837     4.44     825.8367     54.77442     223.0558        18     1.422     0.786 -37.24   0
       439    296.7346    308.9391 307.8079108  +6.5552824     512.1419     922.9036     976.9794     77.89531     155.3586     310.7791      2.014     5.76     827.8609     54.77442     106.9757         6     1.399     0.669 -13.05   0
       440    837.8455    303.9323 307.5833116  +6.5754865     1130.194     1955.084     1869.088     77.89531     155.3586     310.7791      1.831     5.88     824.9247     54.77442     168.8036        13     1.391     0.755 -63.01   0
       441    467.0808    304.5381 307.7373020  +6.5628200      695.437     1146.759     1600.149     78.01846     155.4204     310.7173      1.910     4.45     824.5186     54.77442       101.91         6     0.921     0.860  44.16   0
       442    969.6255    302.3831 307.5286220  +6.5805281     499.6777     845.3481     825.6992     77.52467      155.235     310.6864      1.504     3.95     822.3474     54.77442     93.65796         5     1.166     0.384 -53.63   0
       443    447.2893    301.1171 307.7456379  +6.5635684      1111.01     1724.792     1755.582     77.64841     155.6056     310.7791      1.642     4.69     824.8647     54.77442     152.0062        11     1.220     0.648 -46.07   0
       444    193.1319    300.9286 307.8512132  +6.5551060     2170.016     3531.011     3804.306     77.89531     155.5439     310.7173      1.651     4.15     830.5227     54.77442     288.8296        21     1.438     0.927 -38.65   0
       445    756.9100    299.0445 307.6170954  +6.5747984     5662.408     9089.219     9423.826     77.89531     155.2968     310.8409      1.690     4.23     824.8975     54.77442     662.2347        29     1.494     1.013 -39.34   0
       446    228.6380    299.1533 307.8365251  +6.5570335     648.9376      997.628      618.614     77.77197     155.3586     310.6246      1.671     4.52     829.2884     54.77442     97.47571         8     1.054     1.010 -16.32   0
       447    773.0349    297.1696 307.6104600  +6.5761120     2493.722     4097.066     4492.473     77.52467     155.1731     310.5318      1.710     4.13      824.819     54.77442     332.8383        24     1.436     0.999 -37.01   0
       448     89.4373    298.0117 307.8943816  +6.5528197     981.2292     1640.393     1762.692     77.40073      155.235     310.4391      1.887     4.05     833.0588     54.77442     135.6274        12     1.093     0.834 -25.37   0
       449    475.9736    296.2416 307.7338869  +6.5665441     595.7747     749.8361       1184.9     77.52467     155.3586     310.5937      1.567     4.31     823.9363     54.77442     67.62939         5     1.028     0.516 -35.87   0
       450    362.8941    291.9220 307.7810027  +6.5645317     1578.145     3484.077      3874.67     77.64841     155.6056       310.81      2.302     7.91     826.3047     54.77442     191.9189        28     1.952     1.172   4.60   0
       451     76.3922    292.4330 307.8999881  +6.5546837      1129.05     1953.252     1764.648     77.40073     155.2968     310.5627      1.825     5.74     833.4175     54.77442     160.8962        13     1.243     0.746 -47.43   0
       452   1011.4977    287.9234 307.5117113  +6.5878962     5322.177     8631.319     9028.992     77.52467     155.6673     310.7791      1.755     3.95     820.7627     54.77442     667.7296        29     1.504     1.029 -41.71   0
       453    489.7479    287.6259 307.7284547  +6.5705637     1975.438     3029.154     2534.305     77.52467     155.5439     310.6555      1.721     4.50     823.4054     54.77442      223.322        20     1.339     0.953 -43.35   0
       454    252.1016    283.2712 307.8273138  +6.5643803     5212.364     8729.412     9371.797     77.77197     155.6056     310.7173      1.764     4.20     828.4832     54.77442     633.3344        34     1.541     1.096 -40.43   0
       455    771.6895    276.6404 307.6117065  +6.5845439      754.841     1205.778     1228.377     77.89531     155.4204     310.7791      1.653     5.40     823.7947     54.77442     110.8419        10     1.032     0.798 -37.56   0
       456    386.1938    274.2505 307.7719187  +6.5726110     1444.896     2286.127     2753.717     77.40073      155.235     310.4081      1.850     5.04     825.4433     54.77442     158.0873        16     1.273     0.878 -48.22   0
       457    972.7925    273.1713 307.5282829  +6.5926960     957.5873     1812.238     1995.051     77.52467      155.235     310.5627      2.044     5.25     820.9991     54.77442     160.3475        15     1.464     0.752 -39.70   0
       458    192.9108    271.1836 307.8523070  +6.5673804     566.1646     895.9589     1229.203     77.64841     155.1731     310.6246      2.073     4.74     830.1665     54.77442      99.7923         5     0.967     0.658 -27.84   0
       459    155.9045    269.8267 307.8677239  +6.5666952     1664.406     2693.318     3092.589     78.01846     155.1731     310.6246      1.690     4.27     831.1835     54.77442     211.0219        18     1.341     0.944 -57.42   0
       460    308.5736    270.0052 307.8043034  +6.5717563     1068.058     1534.786     1120.123     77.40073      155.235     310.5937      1.591     5.51     826.9677     54.77442     159.5468        11     1.327     0.646 -37.17   0
       461    565.6870    265.5460 307.6976517  +6.5822271     1934.333     3071.897     2928.768     77.89531     155.2968     310.9026      1.726     4.72     822.1561     54.77442     270.5005        17     1.394     0.811 -43.62   0
       462    909.3514    264.9552 307.5549118  +6.5939703     1638.778     2828.115     3493.295     77.89531     155.2968     310.7482      2.011     4.69     822.0674     54.77442     228.9258        17     1.300     0.971 -29.54   0
       463    729.2520    263.1293 307.6297878  +6.5887030     4733.105     7634.389     8157.471     77.77197     155.3586     310.7482      1.706     4.01     822.7991     54.77442     554.3622        31     1.410     1.118 -32.94   0
       464    670.0747    263.0037 307.6543745  +6.5867741     2083.823     3365.215      3160.13     77.40073     154.9254     310.6555      1.667     4.17       822.22     54.77442     259.9127        21     1.379     0.955 -30.07   0
       465    967.1965    263.2922 307.5309377  +6.5965885      685.664      1054.53     627.8674     77.52467     155.1113     310.5318      1.599     4.58     820.6112     54.77442     102.3854         7     1.135     0.524 -27.33   0
       466    384.6400    257.7159 307.7731200  +6.5793861     612.3505     887.7921     1066.351     77.89531     155.3586     310.6864      1.685     4.88     825.0482     54.77442     87.74329         6     1.245     0.542 -28.04   0
       467    925.5621    255.0683 307.5485083  +6.5985942     971.2085     1592.005     1743.446     77.77197     155.4204     310.8409      1.592     4.93     821.1481     54.77442      146.899        10     1.288     0.628 -31.18   0
       468    228.7575    248.3757 307.8381853  +6.5780037     2171.225     3441.726      3408.41     77.52467     155.2968     310.5318      1.709     4.45     829.1079     54.77442      259.871        19     1.354     0.931 -46.45   0
       469    871.6227    247.2980 307.5711755  +6.6000008     1668.222     2497.372     2807.376     77.89531     155.1731     310.5627      1.677     4.35     821.9924     54.77442     238.9627        15     1.299     0.812 -40.93   0
       470    761.9870    246.7187 307.6167392  +6.5965745     1424.991     2374.489     2213.229     77.52467     155.1731     310.5937      1.685     4.58     822.0689     54.77442     198.0476        18     1.397     0.879 -30.61   0
       471    462.6989    238.3481 307.7413459  +6.5900035     21564.97     35362.37     37496.04     77.77197     155.4204     310.9644      1.784     3.92     821.6635     54.77442     2634.662        57     1.666     1.200 -39.18   2
       472    468.3154    232.8735 307.7391968  +6.5924525     1347.045     2236.675     2650.218     78.01846      155.729     310.7791      1.945     4.91      821.223     54.77442     193.6018        18     1.484     0.957 -38.36   3
       473    788.6959    237.5056 307.6059526  +6.6012721     12483.18     20253.78     21822.42     77.89531     156.0369     310.6555      1.789     4.15     821.7646     54.77442     1668.672        48     1.631     1.214 -27.36   0
       474    324.2160    239.5638 307.7988300  +6.5848514       649.04     1039.472     876.7319     77.52467      155.235     310.5318      1.693     5.92     826.2831     54.77442     83.14569         8     1.307     0.755 -45.95   0
       475    727.1251    233.4414 307.6316662  +6.6008905     701.6459     1190.894     1175.898     77.77197     155.4204     310.7791      1.795     6.23     821.0223     54.77442     107.1497        11     1.310     0.833 -51.35   0
       476    150.8507    231.5549 307.8711129  +6.5823275     2158.937     3496.119     3506.583     78.01846     155.2968     310.7791      1.740     4.48     830.6711     54.77442     222.3392        20     1.371     0.949 -50.04   0
       477    125.6365    230.3501 307.8816269  +6.5819761     994.0214     1652.698     1413.307     77.64841     155.3586     310.6246      1.790     4.49     831.4088     54.77442      145.742        11     1.221     0.673 -60.02   0
       478    781.3834    229.8071 307.6092481  +6.6042064     553.7698     1085.031     1511.988     77.52467     155.1731     310.5937      1.845     3.61     821.2706     54.77442     109.7225         5     1.363     0.276 -43.70   0
       479    925.2712    227.7779 307.5495418  +6.6098532       1386.3       2074.7     2255.393     77.52467      155.235     310.7482      1.534     3.91     819.6187     54.77442     196.8186        16     1.262     0.849 -42.85   0
       480    623.9976    226.3939 307.6747430  +6.6003475     506.9362     901.6832     509.6969      77.2766     155.1113     310.5937      2.001     4.85     820.3677     54.77442     73.10437         5     1.416     0.470  -5.69   0
       481    586.8351    224.0776 307.6902584  +6.6000588     4379.408      7104.63     7001.169     77.77196     155.4822     310.7791      1.710     3.84     820.2458     54.77442     565.0554        31     1.516     1.033 -35.67   0
       482    307.3430    224.6618 307.8063403  +6.5904374     973.5307     1590.351     1222.115     78.01847     155.3586     310.7791      1.663     5.74     826.5641     54.77442     129.4032        14     1.359     0.896 -41.00   0
       483    549.5948    223.9055 307.7057341  +6.5988816     1877.994     3077.713     2986.335     77.64841     155.1113     310.5009      1.753     4.53     820.2373     54.77442     224.0742        20     1.437     0.892 -31.31   0
       484    893.7767    220.7231 307.5628615  +6.6117144     10486.33     16754.94     17462.62     77.52467     155.2968     310.7173      1.719     3.97     820.1548     54.77442     1335.586        42     1.570     1.117 -38.44   0
       485    391.4117    223.1107 307.7714707  +6.5939022     1584.404     2326.604     2515.685     77.64841     155.1113     310.6246      1.664     4.93     823.9133     54.77442     196.8474        14     1.214     0.821 -37.66   0
       486    947.6138    221.1186 307.5404828  +6.6133491     2459.989      3843.79     3605.215     77.52467     155.1731     310.5627      1.660     4.53     818.8218     54.77442     297.1259        19     1.348     0.870 -39.92   0
       487    980.4498    218.5728 307.5269269  +6.6154965     8994.445     14552.18     15254.48     77.52467     155.5439     310.6864      1.777     4.14     818.1678     54.77442     1153.109        40     1.551     1.143 -32.71   0
       488    321.6611    220.7579 307.8005240  +6.5925306     765.9278     1163.993     912.6746     77.89531     155.4204     310.8409      1.504     4.87     826.0984     54.77442     121.8795         8     1.184     0.568 -43.36   0
       489    691.7604    218.4920 307.6468583  +6.6058797     2699.936     4270.424     4985.366     78.01847     155.3586       310.81      1.725     3.86     820.3038     54.77442     371.3324        24     1.333     1.043 -30.28   0
       490    569.2145    220.1645 307.6977095  +6.6010840     830.7584     1196.393     1031.367     77.52467      155.235     310.5627      1.517     4.85     820.0829     54.77442      124.374         8     1.032     0.646 -52.12   0
       491    212.6618    220.1485 307.8458219  +6.5891173     599.3354     1027.039      1018.28     77.89531     155.3586     310.7482      1.682     5.42     829.3733     54.77442      131.803         8     1.449     0.698 -22.49   0
       492     19.9117    217.2051 307.9259858  +6.5838418     23410.63     39357.22     41608.05     77.40073     155.1113       310.47      1.785     4.04     834.8926     54.77442     2790.354        59     1.651     1.254 -39.64   0
       493    266.2917    218.2173 307.8236096  +6.5917184     1057.772     1672.605      1785.35     77.64841     155.1731     310.6246      1.716     4.37     827.8146     54.77442     146.5385        15     1.291     0.797 -39.93   0
       494    500.3723    213.4130 307.7265339  +6.6015634     1846.926     3198.463     3238.803     77.40073      155.235     310.6555      1.910     4.65     819.8063     54.77442     208.7864        22     1.482     0.933 -34.55   0
       495    884.5736    209.3130 307.5670665  +6.6161183      1921.46     3016.263     3581.111     78.01847      155.235     310.6555      1.806     4.22     819.7808     54.77442     227.3695        21     1.354     0.957 -35.34   0
       496    832.2936    209.9548 307.5887636  +6.6141061     1867.143     2880.775      2726.63     77.77197     155.3586     310.8717      1.645     4.34     820.3101     54.77442      224.717        19     1.316     0.911 -41.82   0
       497    512.5200    209.3269 307.7216248  +6.6036580     2411.969     3767.885     3368.306     78.14143     155.6673     310.7791      1.667     4.17     819.6234     54.77442      333.761        20     1.440     0.860 -38.03   0
       498    743.9832    206.6619 307.6255603  +6.6125123     37315.14     60119.71      63108.5     77.40073     155.3586     310.5627      1.709     3.94      820.098     54.77442     4712.447        65     1.627     1.201 -37.84   0
       499    347.0195    205.9818 307.7904873  +6.5994837     5520.885      11612.3     13185.31     77.64841     155.3586     310.6864      2.223     6.33     825.0785     54.77442     630.7441        50     2.063     1.238 -63.99   0
       500    977.6746    205.5218 307.5285161  +6.6207929      2706.36     4193.954     4285.627     78.14143     155.6673     310.7791      1.690     4.34     817.9454     54.77442     306.9704        23     1.394     0.950 -37.92   0
       501   1016.1550    204.0166 307.5125802  +6.6226986     1653.625     2767.025     3108.111     77.40073     155.2968     310.5318      1.770     4.72     817.3818     54.77442      215.388        20     1.495     0.895 -44.11  16
       502    911.9218    203.7675 307.5558907  +6.6193218     7058.557     11224.94     11722.85     77.77197     155.4204     310.7173      1.675     3.80     818.9442     54.77442     949.7277        36     1.494     1.093 -40.20   0
       503    455.5138    202.7391 307.7455271  +6.6044657       4626.5     7577.387      8025.88     78.01847     155.5439       310.81      1.772     3.88     820.5074     54.77442     631.4796        30     1.474     1.080 -36.65   0
       504    229.8550    199.5011 307.8393754  +6.5982210     618.8865     943.3271     1075.221     77.77197     155.4204     310.9952      1.541     3.76     828.8684     54.77442     95.15326         6     0.815     0.499   2.35   0
       505    112.7059    194.0139 307.8882231  +6.5965438     4392.641     7157.114     7317.054     77.64841     155.1731     310.5937      1.709     3.64     831.0044     54.77442     569.4205        32     1.520     1.068 -39.36   0
       506    931.9115    193.6157 307.5479258  +6.6241813       764.31     1207.458     1856.814     77.64841     155.1731     310.5937      1.719     5.02     818.1924     54.77442     125.9847        10     1.013     0.830 -29.40   0
       507    283.0671    190.7433 307.8175660  +6.6036265     31378.77     51882.98     55046.49     78.01846     155.3586     310.7173      1.765     3.97     827.1799     54.77442     3932.069        65     1.671     1.238 -36.76   0
       508    258.3380    191.7780 307.8278036  +6.6023678     5934.918     9912.455     10664.93     77.52467     155.4204     310.6555      1.800     4.10     827.9482     54.77442     769.2521        34     1.557     1.086 -40.41   0
       509    608.3982    192.9678 307.6823446  +6.6136270     495.6306     926.1691     1035.731      77.2766      155.235     310.5318      2.006     3.37     819.3014     54.77442     91.67511         4     0.835     0.694   5.46   2
       510    712.0709    190.6666 307.6393536  +6.6180491     881.6077     1396.675     1457.784     77.89531     155.4822     310.7482      1.714     5.93       819.64     54.77442     119.9875        12     1.382     0.715 -26.03   0
       511    407.1192    186.2763 307.7661841  +6.6096388     46855.47     76613.66     80833.54     78.14143     155.6673     310.8409      1.761     3.95     821.8541     54.77442     5547.745        70     1.674     1.242 -39.33   0
       512    163.1274    187.5404 307.8674966  +6.6009143     3903.482     6491.155     6799.574     78.01846     155.4204     310.7482      1.777     4.06     829.6341     54.77442      502.634        31     1.540     1.057 -41.35   0
       513    424.3372    186.9248 307.7590097  +6.6099491     1269.108     2129.127     2035.458     78.14143     155.4204     310.7482      1.830     5.37     821.1412     54.77442     157.4729        13     1.265     0.771 -36.72   0
       514    311.1557    183.9694 307.8061258  +6.6073676      16917.6     28054.36     29564.36     77.52467     155.4822     310.6246      1.755     4.07     826.0971     54.77442     2150.725        49     1.606     1.215 -39.25   2
       515    318.6811    183.5620 307.8030134  +6.6077888     2020.683     3887.832     5325.414     77.89531     155.4822     310.6864      2.201     6.07     825.7751     54.77442     234.6469        25     1.748     1.014 -62.40   2
       516    746.4645    182.5193 307.6253384  +6.6225642     31555.51     49659.04     52216.27     78.14143     155.4822     310.7173      1.752     3.97     819.3495     54.77442     3910.688        59     1.625     1.185 -37.34   0
       517    694.6528    184.1042 307.6468095  +6.6201757     968.9672     1447.959     1344.184     77.77197     155.4204     310.9952      1.522     5.14     819.4454     54.77442     125.9602        13     1.189     0.799 -44.23   0
       518    794.6064    182.9791 307.6053232  +6.6239847     1217.301     2108.577     2156.061     77.52467      155.235     310.5627      1.810     5.06     818.8015     54.77442      151.902        15     1.315     0.859 -48.55   0
       519     33.6152    182.2153 307.9214744  +6.5987508     608.3911     1186.883     1540.108     77.64841     155.1113     310.6864      2.133     7.44     834.6491     54.77442     81.11359         8     1.561     0.992  -2.16   0
       520     63.1580    179.7346 307.9092863  +6.6007706     8498.477     14025.41     15015.44     77.89531     155.3586     310.8409      1.767     4.01     832.9916     54.77442     1106.186        43     1.605     1.143 -38.61   0
       521     96.9289    177.6122 307.8953298  +6.6027847     1293.051     2153.532     2203.234     77.40073     155.1731     310.5627      1.762     4.26     830.9743     54.77442     175.9672        15     1.278     0.864 -39.94   0
       522   1004.7985    176.8233 307.5182069  +6.6335483     900.7746     1305.446     1490.855     77.52467     155.1113     310.5318      1.615     5.32     817.2281     54.77442     127.7609        10     1.305     0.667 -54.10   0
       523    580.7765    166.8959 307.6946943  +6.6234667     671.5754     1170.389     1293.412     78.01846     155.1731     310.6246      1.809     4.74     818.1415     54.77442     96.51642         8     1.035     0.617 -23.81   0
       524   1005.7915    163.0224 307.5182556  +6.6392801     1953.463     3410.097     4011.149     77.52467      155.235     310.5627      1.844     4.46     817.0691     54.77442     239.5559        20     1.396     0.974 -46.72   0
       525    597.3256    159.0326 307.6880832  +6.6272682      1813.48       2947.2     3455.924     77.77196     155.4822     310.7173      1.799     4.84     818.1132     54.77442     230.1272        20     1.483     0.900 -47.71   0
       526    588.9756    160.7635 307.6914939  +6.6262736      975.414     1654.815     2072.093     77.52467      155.235     310.5009      1.812     4.57      818.039     54.77442     128.2151        10     1.144     0.689 -22.31   0
       527    281.8916    157.0345 307.8191889  +6.6175054      28312.9     47169.12     50627.85     78.01846     155.2968     310.7791      1.794     4.05     827.1258     54.77442     3480.428        77     1.889     1.260 -34.56   0
       528    341.7056    158.5472 307.7942904  +6.6188911      1115.79     1769.662     2201.795     77.77197     155.2968     310.9952      1.790     5.85     824.4313     54.77442     160.2319        18     1.507     0.874 -53.53   0
       529     27.3214    155.4251 307.9249928  +6.6096001     4114.381     6704.808     6924.451     77.64841     155.2968     310.7173      1.776     3.90     835.0696     54.77442     493.1355        29     1.577     0.984 -44.64   0
       530    713.6938    153.7249 307.6399175  +6.6333571     7410.949     11903.51     12440.39     77.77197     155.6056     310.7173      1.733     4.09     818.5364     54.77442     957.4259        36     1.529     1.076 -39.96   0
       531    190.9457    154.8887 307.8570411  +6.6153324     866.9893     1186.992     1350.216     77.89531     155.2968     310.8717      1.724     4.94     828.8491     54.77442     117.4792        11     1.183     0.706 -32.24   0
       532    267.2138    152.0784 307.8254532  +6.6190583     624.9869     1160.986     1344.121     77.52467     155.1731     310.5627      1.954     4.92     827.5183     54.77442     111.8835         8     1.257     0.756 -61.97   0
       533    124.3979    150.7359 307.8848254  +6.6148069     4506.905      7586.68     7792.093      77.2766     155.1731     310.5318      1.790     4.25     829.6116     54.77442     596.0369        33     1.516     1.119 -44.85   0
       534    586.1464    148.4964 307.6930810  +6.6312441     661.9409      1297.82     1515.072     77.77197     155.4204     310.9952      2.249     6.20     817.7284     54.77442     82.80017         9     1.507     0.717 -39.19   0
       535    463.2699    148.0213 307.7441437  +6.6273193     1282.329     1919.389     1693.449     77.52467     155.2968     310.7173      1.560     4.34      818.363     54.77442     178.8579        13     1.176     0.755 -46.55   0
       536    395.1287    146.7690 307.7724935  +6.6255489      3429.68     6315.495     6739.221     77.77197     155.4204     310.6864      1.986     4.45     821.3505     54.77442     387.4955        33     1.573     1.240 -58.50   0
       537    652.0883    147.7444 307.6657115  +6.6337639     784.0828      1210.27     1064.972     77.89531     155.2968     310.9026      1.640     5.11      818.173     54.77442     102.2433        10     0.953     0.863 -40.03   0
       538    571.8655    145.8791 307.6991016  +6.6318461     642.5934     1217.503     1275.339     78.14143     155.4822     310.7173      1.915     6.44     817.5154     54.77442     79.45911        10     1.619     0.720 -37.71   0
       539    359.5327    145.6128 307.7873198  +6.6248308     3071.833     4741.979     4920.499     77.40073      155.235     310.6555      1.706     4.16      823.465     54.77442     391.6328        28     1.506     0.988 -42.04   0
       540    113.8803    145.4915 307.8893713  +6.6166180     1585.876     2467.441     2264.914     77.64841     155.6673     310.7791      1.679     4.09     829.5972     54.77442     186.6039        19     1.266     0.960 -36.07   0
       541    675.6758    143.2953 307.6560615  +6.6363909     893.5624     1437.218     1665.916     77.52467     155.6056       310.81      1.652     4.70     818.0137     54.77442     113.2911         8     0.925     0.678 -64.22   0
       542   1006.3643    139.9117 307.5187901  +6.6488421     1463.775     2344.838     2359.665     77.89531     155.3586     310.7482      1.682     4.61     815.3614     54.77442     197.8748        15     1.442     0.694 -54.23   0
       543    211.3248    134.5649 307.8492601  +6.6244098     5201.259     8529.636      8851.78     77.77197     155.4822     310.7482      1.782     4.07     828.4559     54.77442     619.7766        34     1.521     1.124 -43.46   0
       544     94.0685    134.3632 307.8979765  +6.6205456     2072.223     3453.521     3675.037     77.77196     155.4204     310.8717      1.845     4.19     829.7477     54.77442     240.8878        22     1.405     0.978 -38.13   0
       545    673.1563    133.4290 307.6574390  +6.6403804     5730.586     9093.789     9371.954     77.52467     155.4822     310.6555      1.695     4.13     817.5414     54.77442     721.5386        32     1.498     1.036 -39.94   0
       546    821.2819    133.1779 307.5959088  +6.6454404     1067.979     1555.432     1437.925     77.64841     155.1113     310.6864      1.690     5.63       816.67     54.77442     136.9952        11     1.141     0.782 -33.81   0
       547    625.3373    130.6577 307.6773981  +6.6399231      8970.88      14734.8     16384.02     78.01847     155.3586     310.7791      1.813     3.93     817.5646     54.77442     1131.183        46     1.672     1.162 -41.28   3
       548    628.8967    122.2295 307.6762021  +6.6435224     49918.52      81177.7     85784.14     78.01846     155.1731     310.7482      1.744     4.04     817.2712     54.77442     6010.092        74     1.667     1.255 -40.53   3
       549    259.9252    130.9456 307.8291925  +6.6275390     826.8823     1269.886     1216.901     77.77197     155.4204     310.7482      1.556     5.74     827.6282     54.77442      108.349        11     1.187     0.783  -8.18   0
       550     23.6819    129.7645 307.9273706  +6.6200725     882.5192     1310.307     926.4523     77.89531     155.4204     310.7173      1.569     5.84     834.3521     54.77442     140.7161        12     1.246     0.772 -48.76   0
       551    563.4080    129.9267 307.7031507  +6.6381495     632.4248     961.2322      974.433     77.52467     154.9874     310.6246      1.671     4.93     817.1407     54.77442     95.44189         7     1.300     0.528 -27.80   0
       552    352.3397    126.5177 307.7909503  +6.6324735      3462.73     5871.835     6543.293     78.01847     155.4204     310.7791      1.878     4.19     823.9078     54.77442     431.0921        30     1.649     1.002 -38.86   0
       553    534.3587    125.6186 307.7153636  +6.6389543     1747.428     2898.959     3350.011     77.40073      155.235     310.5009      1.789     4.59     816.9826     54.77442     230.7271        21     1.468     0.968 -25.67   0
       554    998.9301    125.3356 307.5223659  +6.6546128     864.5094     1451.293     1429.575     77.89531     155.4822     310.7482      1.813     6.47     814.2642     54.77442      123.748        13     1.296     0.907 -17.10   0
       555    307.9686    115.8400 307.8097426  +6.6353913     3029.623     5119.211     5759.548     77.52467      155.235     310.5937      1.863     4.28     826.0176     54.77442     391.1393        23     1.474     0.933 -44.82   0
       556    707.6886    110.5349 307.6438602  +6.6509899     936.4633     1202.684     1040.078     77.89531     155.6056     310.7482      1.493     5.21     816.5365     54.77442     110.2146        10     1.156     0.663 -52.24   0
       557    679.3482    109.4029 307.6556723  +6.6505085     1292.628     2196.052     2421.487      77.2766     155.1731     310.3463      1.938     4.27      816.416     54.77442      164.592        17     1.263     0.879 -66.87   0
       558      5.5963     98.9081 307.9359250  +6.6322031       737610      1719302      1888798     77.52467     155.1113     290.6989      2.284     6.13     834.4168     54.77442      60641.9       380     2.260     1.827 -48.37  28
       559    693.2100    106.1080 307.6500238  +6.6523331     2974.475     4540.608     4637.977     77.64841     155.0493     310.5009      1.664     4.30     816.2889     54.77442     376.9104        22     1.428     0.873 -39.77   0
       560    435.1174     97.1118 307.7575503  +6.6473953     3986.355     6428.162     6701.582     77.64841     155.6056     310.7791      1.663     4.20     818.4606     54.77442     472.8135        28     1.518     0.987 -37.80   0
       561    907.5384     92.5530 307.5614323  +6.6650978      3761.89     5855.369     5917.077     77.77197     155.2968       310.81      1.694     3.95     814.2566     54.77442     487.4992        25     1.380     1.010 -45.74   0
       562    889.4702     93.6203 307.5689034  +6.6640535     1969.852     2808.499      2410.56     77.52467     155.2968     310.6864      1.549     4.40      814.626     54.77442     245.9858        16     1.236     0.844 -52.08   0
       563    587.3020     93.5880 307.6944438  +6.6539550     655.3325     880.3441      902.769     77.64841     155.1731     310.5318      1.462     4.28     816.5935     54.77442     92.89819         7     0.991     0.527 -62.09   0
       564    599.6272     91.2361 307.6894022  +6.6553392     1516.436     2552.894     2710.415     77.40073     155.1113     310.5318      1.876     4.50     816.5369     54.77442     203.1976        20     1.392     0.972 -43.06   0
       565    398.4127     88.8452 307.7730770  +6.6495762     1682.536     2788.091     2437.209      77.2766      155.235     310.5009      1.661     4.42      820.483     54.77442     233.8584        17     1.410     0.793 -40.61   0
       566    245.5091     89.9953 307.8365603  +6.6439624     891.9346     1459.656     2312.194     77.52467     155.1113       310.47      1.915     4.78     827.6002     54.77442     132.3935         9     1.170     0.553 -29.91   0
       567    146.2374     85.9989 307.8779354  +6.6422719     3047.108     5231.462     5452.464     77.02772      155.235     310.5318      1.817     4.05     827.0786     54.77442     411.2702        27     1.623     0.963 -33.03   0
       568     28.2101     83.6178 307.9270470  +6.6392787     11414.26     19239.64     20754.37     77.64841     155.1113     310.6246      1.815     4.10      831.673     54.77442       1474.9        51     1.668     1.209 -41.76   0
       569    294.9066     84.0840 307.8162378  +6.6480643     1329.247     2309.207     2809.328     77.64841     155.8522     310.8717      2.021     6.03     826.4783     54.77442     201.3309        18     1.650     0.759 -44.48   0
       570    567.4725     83.5328 307.7030196  +6.6574422     576.0413     851.0677      1056.19     78.01847     155.5439     310.7482      1.693     3.75     816.2382     54.77442     82.99786         6     0.965     0.418 -18.21   0
       571    555.2911     83.2000 307.7080916  +6.6571712     718.7489     1057.225     779.6656     77.15225     154.9255     310.5318      1.512     4.62     816.1884     54.77442     98.28723         8     1.085     0.559 -34.57   0
       572    157.9862     82.1029 307.8731860  +6.6442760     537.0707     939.9727     1242.142     77.77197     155.1731     310.5318      1.943     3.77     826.8221     54.77442     83.96381         5     0.821     0.498 -62.24   0
       573    896.9755     79.6657 307.5662522  +6.6700663     540.8586     904.6035     540.9073     77.52467     155.4204     310.6555      1.419     4.82     813.9764     54.77442     80.06238         6     1.364     0.483 -37.71   0
       574    829.9152     78.2615 307.5941608  +6.6684049     5906.705     9545.897     10056.76     78.01846     155.5439     310.7791      1.738     4.05     814.6781     54.77442     691.8707        34     1.503     1.089 -38.55   0
       575    775.1292     78.6876 307.6169085  +6.6663968     3094.785     4872.665     4987.809     78.01846     155.6673     310.7482      1.710     4.32     815.1602     54.77442     373.6557        23     1.460     0.911 -37.48   0
       576    420.1738     79.3562 307.7643555  +6.6542250     992.4806     1442.951     1114.472     77.52467     155.4822     310.6555      1.430     4.71     819.0098     54.77442     126.8986         9     1.058     0.660 -40.35   0
       577    537.5430     76.5013 307.7156901  +6.6593421     1020.436      1585.76     2271.381     77.64841     155.4204     310.9335      2.064     4.37     816.1011     54.77442     127.5483        12     1.185     0.721 -39.18   0
       578     68.4214     75.5403 307.9106149  +6.6439691     3036.348      5199.59     5231.419     77.52467     155.3586     310.6555      1.816     4.21     828.9941     54.77442     409.3922        28     1.518     1.047 -39.89   0
       579     52.8782     76.3833 307.9170435  +6.6430972      887.817     1282.787     923.7172     77.52467     155.1731     310.6246      1.517     3.59     829.7234     54.77442     136.1293         9     0.865     0.788 -80.44   0
       580    429.6083     75.2041 307.7605755  +6.6562561     911.8184     1379.368     997.0518      77.2766     155.1113     310.5937      1.592     5.78     818.6435     54.77442     122.2748        12     1.530     0.614 -43.99   0
       581    592.4701     71.8925 307.6930249  +6.6630865     1256.914     1886.604      2070.98     77.89531     155.5439     310.7482      1.743     6.17     815.8964     54.77442     160.1393        17     1.618     0.732 -33.83   0
       582     10.9268     70.9754 307.9346536  +6.6439159     2410.761     4101.685     5520.392     77.52467     155.2968     310.6864      1.963     4.29     831.2316     54.77442     321.4117        26     1.580     0.959 -39.74   0
       583    769.3695     66.2132 307.6197194  +6.6713550     1858.763     2984.281     3168.208     77.40073      155.235     310.6864      1.746     4.19     814.6665     54.77442     231.4753        20     1.317     1.051 -56.52   0
       584     83.3203     66.5701 307.9047281  +6.6481748     743.6873     1134.748     808.6288     77.77197     155.4204     310.7173      1.633     5.42     827.8746     54.77442     105.9138         9     1.263     0.713 -32.75   0
       585    660.3631     66.4144 307.6650016  +6.6676231      468.455     567.7211     955.5322     77.52467      155.235     310.5318      1.192     3.44     815.2542     54.77442     74.02545         5     1.055     0.324 -21.69   0
       586    410.2607     66.1475 307.7689180  +6.6593460     1026.164     1323.535     894.2758     77.89531     155.3586     310.7482      1.442     3.39     819.5906     54.77442      161.876         9     0.911     0.686 -15.89   0
       587    107.2893     65.2546 307.8948151  +6.6495254      796.023     1179.979     1009.554     77.89531     155.2968     310.8717      1.678     4.54     827.1343     54.77442     120.0229         8     0.988     0.593  -8.05   0
       588    425.2716     59.5660 307.7629029  +6.6625676     2450.781     3883.325     3638.615     77.77197     155.3586     310.7482      1.702     4.21     818.8265     54.77442     304.8393        22     1.418     1.017 -41.43   0
       589     96.3040     59.7885 307.8995630  +6.6514123     8760.412     14622.48     15644.99     77.64841     155.1113     310.5627      1.777     4.04     827.1221     54.77442     1131.129        44     1.610     1.182 -38.79   0
       590    246.5694     59.0653 307.8371615  +6.6567691     563.2556     1004.531     1251.226     77.64841     155.4822     310.6864      1.671     3.81     826.7886     54.77442     96.58099         5     1.236     0.337 -42.73   0
       591    639.0170     51.9136 307.6743566  +6.6728956     17051.13     28060.08     29609.88     77.52467     155.1731     310.6864      1.733     4.01      815.024     54.77442     2213.644        53     1.661     1.158 -42.92   0
       592    262.8913     53.9009 307.8305546  +6.6594504     1364.031     2330.328     3228.316     77.89531     155.8522     310.7173      1.714     4.92     826.5573     54.77442     182.1845        14     1.315     0.749 -37.34   0
       593    538.8287     47.9375 307.7161151  +6.6711793     4834.595     7833.478     8077.488     77.64841     155.4204     310.6864      1.680     4.06     815.4214     54.77442     603.2809        29     1.491     1.002 -38.49   0
       594    257.0139     48.0904 307.8331920  +6.6616519     1882.899     3230.732     4651.273     77.64841      155.235     310.5937      1.941     4.89     826.4608     54.77442     236.8886        22     1.561     0.925 -39.33   1
       595    625.1875     41.7015 307.6804450  +6.6766489     2968.174     5189.221     6252.853     77.64841     155.1731     310.5318      2.017     4.27      814.786     54.77442      341.861        30     1.496     1.137 -52.55   2
       596      6.4465     45.9640 307.9373591  +6.6540918     1140.297     1931.079     1993.324     77.52467     155.4822     298.8415      1.752     5.95     828.6744     54.77442     147.4608        14     1.442     0.776 -23.53  16
       597    444.3933     43.5347 307.7554976  +6.6698289      21496.9      35117.8     36741.64     77.40073     155.1731     310.5627      1.761     3.94     818.1301     54.77442     2739.343        55     1.630     1.205 -37.81   0
       598    324.8275     44.2349 307.8051486  +6.6655237      936.623     1722.779     1587.673     77.40073     155.1731     310.5318      1.875     6.81     824.5127     54.77442     110.8913        15     1.413     1.005 -54.11   0
       599    264.9177     43.8938 307.8300497  +6.6636504     8632.076     14221.95     15568.45     77.64841     155.6673     310.8717      1.741     3.83     826.3435     54.77442     1108.332        41     1.574     1.144 -38.65   0
       600    922.1481     43.7987 307.5569935  +6.6857172     1854.452     2999.979     3015.774      77.2766     155.0493     310.3153      1.689     4.14     812.5873     54.77442     222.3778        18     1.307     0.881 -44.48   0
       601     30.2956     43.5347 307.9275335  +6.6558989     2131.278     3449.127     3758.633     77.89531     155.5439     310.7791      1.721     4.10     827.9612     54.77442     294.1821        23     1.427     1.033 -48.18   0
       602    252.8862     40.4976 307.8351626  +6.6646481     2895.367     4900.298     5655.585     77.89531     155.8522       310.81      1.816     4.29     826.2889     54.77442     348.8304        25     1.487     1.005 -40.83   0
       603    305.9816     38.5772 307.8131686  +6.6672263      921.085     1462.606     1701.438     77.64841     155.3586     310.6864      1.713     6.02      825.373     54.77442     126.7443        14     1.351     0.832 -43.94   0
       604    942.8331     33.7187 307.5487363  +6.6905703      1075.56     1803.842     1856.593     77.77197     155.3586     310.7482      1.910     5.32     811.5354     54.77442     150.8194        11     1.135     0.703 -31.01   0
       605    694.3713     32.9145 307.6519955  +6.6825944     1546.573     2434.628      2627.32     78.01846     155.1113     310.5937      1.680     4.75     814.2458     54.77442     233.9654        17     1.480     0.755 -48.69   0
       606    204.7997     29.1982 307.8555207  +6.6676958     668.6113     1134.567     728.8846      77.2766     154.9874     310.4391      1.571     3.98     826.0168     54.77442     89.32355         6     0.798     0.569 -50.71   0
       607    182.4971     25.9893 307.8648945  +6.6682702     10086.95     16723.75     17477.29     77.64841     155.0493     310.5627      1.784     3.88     825.9855     54.77442     1284.924        45     1.635     1.161 -38.57   0
       608    259.7710     27.9820 307.8327238  +6.6700473      733.571     1406.045     1880.449     77.52467      155.235     310.6864      2.007     4.01     826.0145     54.77442     124.4186         8     0.908     0.752  -3.41   0
       609    526.6385     24.1923 307.7219773  +6.6805750     2756.808     4568.897     4878.675     77.15225     155.1731       310.47      1.710     3.81     815.2628     54.77442     368.8445        25     1.401     1.024 -40.29   0
       610    928.1642     23.6827 307.5551669  +6.6942244     3859.138     6282.102     6069.441     77.89531     155.3586     310.7173      1.726     4.03       812.02     54.77442     482.3267        28     1.493     1.041 -42.93   0
       611    728.6912     22.3275 307.6380912  +6.6881147     1778.643     2736.976     2730.944     77.77197     155.6056     310.7482      1.568     3.99     813.6641     54.77442     226.2268        17     1.332     0.785 -40.33   0
       612    443.4097   1021.0923 307.7230715  +6.2661500     797.7456     1181.705     1352.688     77.52467     152.3635     271.2213      1.557     4.14     849.6666     54.77442     112.5075         6     0.956     0.511 -12.97  16
       613    735.8655   1019.6205 307.6017090  +6.2765524     904.4938     1274.995     718.3232     77.52467     155.4204     288.5443      1.435     4.08     848.0155     54.77442     128.2192         9     1.053     0.703  22.00  16
       614    366.9390   1017.8644 307.7549256  +6.2649171      1566.52     2746.183     3001.082     77.89531     155.3586     304.2856      1.806     4.74     849.6986     54.77442     216.2137        22     1.580     0.928 -29.59  16
       615    976.9766   1015.3984 307.5017507  +6.2863498     548.8705     1317.013     1379.475     77.52467     155.1113     310.5318      2.466     4.22     841.3693     54.77442     77.24463         5     1.598     0.317 -27.96  16
       616    753.7330   1007.4639 307.5946980  +6.2821696      7014.31     12076.04     12352.35     77.89531     155.4204       310.81      1.840     3.95      846.965     54.77442     772.9373        39     1.546     1.245 -35.96   0
       617    549.1291   1008.1168 307.6796181  +6.2750517     3718.394      6483.12     6762.446     78.14143     155.6673     310.7791      1.844     4.03     849.1387     54.77442     457.5438        34     1.621     1.162 -35.42   2
       618    546.2543   1000.1967 307.6810772  +6.2782257     7521.642     12718.89     14114.23      77.2766      155.235     310.4081      1.796     3.88     849.0716     54.77442     930.2372        42     1.606     1.241 -38.94   2
       619    519.5818   1009.3526 307.6918431  +6.2735513     991.2137     1581.763     1915.747     77.40073     155.3586     310.5318      1.910     4.78     849.2648     54.77442     122.2241        13     1.230     0.866 -48.74   0
       620    299.4042   1006.6844 307.7833372  +6.2672660     13383.47     23265.44     25686.12     77.40073     155.0493     310.4391      1.917     4.28     849.6739     54.77442     1636.282        60     2.000     1.202 -34.84   0
       621    591.8091   1009.8237 307.6618424  +6.2757766     497.1808     998.3017      1411.99     77.52467      155.235     310.6246      2.791     3.58     848.7028     54.77442     92.19446         5     1.131     0.326 -10.49   0
       622    423.7115   1007.5478 307.7317036  +6.2710820     823.8382     1444.967     2041.399     77.89531      155.235     310.8717      2.083     5.09     849.4531     54.77442     106.4609         9     1.164     0.630 -43.13   0
       623    815.3126   1006.5073 307.5691647  +6.2846231     944.3311     1766.957     1728.325     77.89531     155.8522     310.8409      1.899     6.13     845.1483     54.77442     117.2346        14     1.526     0.693 -25.92   0
       624    270.5113   1004.2754 307.7954125  +6.2672902      987.204     1937.838     1864.293     77.89531      155.729     310.8409      2.002     5.72     849.6678     54.77442     134.5193        12     1.199     1.038 -43.93   0
       625    914.9653   1000.9156 307.5279793  +6.2902606     7284.715     13722.35      14878.8     77.89531     155.3586     310.7173      2.015     4.21     844.3542     54.77442     850.5659        47     1.702     1.351 -34.24   0
       626    993.0103     19.9363 307.5283489  +6.6979364      1916.57     3244.229      3554.42     77.40073      155.235     310.5937      1.791     4.43     808.0656     54.77442     232.4809        22     1.446     0.955 -35.52   0
       627    888.6022    997.1305 307.5390509  +6.2909433     10357.48     19345.22     21030.54     77.40073     155.0493     310.5627      2.002     4.22     844.2983     54.77442     1156.602        55     1.757     1.362 -30.92   0
       628   1010.4853    996.6171 307.4884659  +6.2952230     3899.221     7878.111     8446.539     77.52467     155.1731     310.6864      2.093     4.63     839.0805     54.77442     447.7843        42     1.725     1.366 -36.77   0
       629    601.2595    997.3914 307.6583357  +6.2812266     1265.208     2256.619     2231.072      77.2766     155.2968       310.47      1.782     5.38     848.4713     54.77442     151.5754        14     1.386     0.720 -36.39   0
