#   1 NUMBER                 Running object number                                     
#   2 X_IMAGE                Object position along x                                    [pixel]
#   3 Y_IMAGE                Object position along y                                    [pixel]
#   4 ALPHA_J2000            Right ascension of barycenter (J2000)                      [deg]
#   5 DELTA_J2000            Declination of barycenter (J2000)                          [deg]
#   6 FLUX_APER              Flux vector within fixed circular aperture(s)              [count]
#   9 FLUXERR_APER           RMS error vector for aperture flux(es)                     [count]
#  12 FLUX_RADIUS            Fraction-of-light radii                                    [pixel]
#  13 FWHM_IMAGE             FWHM assuming a gaussian core                              [pixel]
#  14 BACKGROUND             Background at centroid position                            [count]
#  15 THRESHOLD              Detection threshold above background                       [count]
#  16 FLUX_MAX               Peak flux above background                                 [count]
#  17 ISOAREA_IMAGE          Isophotal area above Analysis threshold                    [pixel**2]
#  18 A_IMAGE                Profile RMS along major axis                               [pixel]
#  19 B_IMAGE                Profile RMS along minor axis                               [pixel]
#  20 THETA_IMAGE            Position angle (CCW/x)                                     [deg]
#  21 FLAGS                  Extraction flags                                          
         1    173.4807     13.4837 307.8650409  +6.6681682     11491.19     16832.17     17498.72     78.07175     156.2674      312.008      1.605     3.57     835.7036     54.98556     1455.325        38     1.448     1.053 -73.52   0
         2    919.0825     11.2869 307.5553465  +6.6941012     4359.497      6220.18     6080.757     77.94772     156.2054      312.008      1.507     3.46     825.9296     54.98556     623.4916        25     1.352     0.923 -69.34   0
         3    517.6662     11.7730 307.7221071  +6.6804510     3010.906     4378.247     4402.672     77.82351     155.8954      311.884      1.541     3.53     827.4463     54.98556      420.394        23     1.343     0.943 -59.40   0
         4    455.9198     10.2358 307.7478120  +6.6790117     1913.813     2889.941     3020.539     78.07175     156.0815      311.977      1.602     3.95      828.305     54.98556     268.6529        21     1.407     0.969 -65.17   0
         5    719.8789      9.8801 307.6381582  +6.6880146     2134.377     2976.742     2878.634     78.44263     156.2674      312.101      1.488     3.67     826.6608     54.98556     315.5579        16     1.255     0.782 -79.71   0
         6    983.8458      7.6838 307.5285593  +6.6977532     2125.191     3173.442     3397.428     78.19557     156.0195     308.9543      1.692     3.59      822.208     54.98556     306.9955        16     1.286     0.730 -76.93  16
         7    778.9498      7.0090 307.6137123  +6.6911783     484.8235     589.1725     688.9139     77.69909     155.8954     304.3161      1.297     3.66     825.7442     54.98556     73.26923         5     0.628     0.613   1.45  16
         8    703.2421      4.0631 307.6452660  +6.6898582     7645.938     11442.96     11736.08     78.19557     154.3362     274.5316      1.569     3.73     826.6982     54.98556     1031.647        32     1.407     1.031 -72.24  24
         9    623.3426      3.3695 307.6784853  +6.6874659     4066.683     5984.377     6139.872     78.07175     149.1072     265.1741      1.600     3.73        826.9     54.98556     575.8087        24     1.395     0.923 -68.15  24
        10    325.4616      3.1170 307.8022517  +6.6775642     947.5097     1626.425     1625.487      78.3192     146.7527     261.7959      1.875     4.87     836.6979     54.98556     115.8099        14     1.309     0.814 -67.01  24
        11    379.3875      1.6570 307.7798972  +6.6799805     660.0197     809.1542     691.8374       71.608     128.6991     239.5654      1.281     4.23     833.8215     54.98556     100.3217         7     0.971     0.525 -28.51  24
        12     23.9076      1.2838 307.9275914  +6.6681601     1997.448     2341.721     2513.711     67.28938     123.5598     234.0913      0.990     1.91     833.6771     54.98556      642.471        10     1.006     0.503  -5.44  24
        13    423.1361      1.2620 307.7617349  +6.6816142     2290.933     2637.903      2761.26     67.14545     123.0104     233.6362      1.037     2.32     829.3225     54.98556     641.7479         9     1.001     0.440   0.25  24
        14    540.0491    995.5308 307.6796826  +6.2751262     4434.876     6729.706       6906.3     78.19557     155.9575      311.977      1.632     3.82     862.2458     54.98556     612.4592        25     1.415     0.970 -72.66   0
        15    885.9964   1023.5632 307.5351248  +6.2751382     818.1689     836.6183     883.2802     68.99318     125.2706     236.1077      1.066     3.43     857.2842     54.98556     208.8928         8     1.070     0.539 -19.86  24
        16    744.5815   1022.2018 307.5938773  +6.2709699     651.8732      1127.84     982.2816     77.82351     142.9455     257.0597      2.029     6.09     861.1795     54.98556     79.59552        10     1.334     0.780  67.45  25
        17    711.6678   1020.3170 307.6076043  +6.2706460     7475.384     11724.16     12220.56     78.31921     156.2674     281.9724      1.690     3.49     861.7455     54.98556     1006.552        37     1.505     1.133 -67.42  24
        18    578.8830   1022.9765 307.6626381  +6.2650993     62243.25     76798.47     79533.42     75.55264     133.7856     245.8242      1.341     3.57     862.9693     54.98556     10291.86        54     1.284     1.054  -2.10  24
        19    426.4791   1020.5413 307.7259867  +6.2609911     4136.294     6197.028     6312.294     78.31921     156.0195      279.318      1.662     3.61     863.1973     54.98556      570.215        29     1.508     1.010 -70.51  24
        20    290.2770    994.2267 307.7834138  +6.2672769     15772.46     24055.21     25469.57     78.07175     155.9575      311.915      1.664     3.72     861.0472     54.98556     2200.843        55     1.771     1.152 -48.57   0
        21    805.7482    994.4101 307.5694173  +6.2844888     1169.653     1638.533     1291.361     77.57447     155.8954     311.6978      1.503     4.13     857.7783     54.98556     160.1793        11     1.057     0.784 -80.00   0
        22    414.9441    994.5245 307.7316515  +6.2713429     1134.492     1368.938      1134.12     78.19557     155.9575      311.884      1.478     5.34     861.9586     54.98556      147.213        14     1.193     0.891 -37.51   0
        23    261.7487    991.9344 307.7953339  +6.2672638     871.6572     1182.476     1383.274     78.19557     155.9575      311.946      1.485     4.67     860.4612     54.98556     116.8963         9     1.098     0.648 -53.14   0
        24    905.8703    988.5145 307.5280492  +6.2902703     8694.558     14019.25     15045.88      78.3192     156.2674      311.977      1.754     3.79     855.8942     54.98556     997.2253        42     1.528     1.195 -71.54   0
        25    624.2389    990.3292 307.6449071  +6.2800959     466.1176     801.4697     682.0316     78.07175     156.0195      312.008      1.553     5.14     861.3163     54.98556     72.99182         5     1.044     0.716 -77.17   0
        26    537.2518    987.7573 307.6811054  +6.2782411     8749.054     13082.69     13617.99     78.19557     156.0195      311.977      1.604     3.62     861.9119     54.98556     1200.343        33     1.425     1.045 -62.16   0
        27    879.4563    984.6759 307.5391438  +6.2909719     12279.08     20061.95     21717.87     78.19557     155.9575     311.8529      1.797     3.73      856.564     54.98556     1460.636        53     1.603     1.294 -58.35   0
        28   1001.2548    984.2214 307.4885935  +6.2952287     4417.165     7911.412     7662.595     77.69909     156.0195     311.7599      1.905     4.03     854.1435     54.98556     547.5161        37     1.647     1.222 -72.61   0
        29    592.2238    985.0456 307.6583755  +6.2812038     1277.094     2048.725     1739.163     77.82351     156.0195     311.8219      1.673     4.62     861.4434     54.98556       151.89        14     1.203     0.813 -70.95   0
        30    633.2215    983.1516 307.6414193  +6.2833597      1496.02     2160.147     1820.266     77.82351     156.0195     311.8219      1.517     4.13     860.9473     54.98556      231.368        16     1.404     0.793 -66.48   0
        31    523.7262    983.5894 307.6868606  +6.2795079     4400.594     6628.772     7475.056     77.69909      155.647     311.8219      1.695     3.63     861.7509     54.98556     573.4767        30     1.403     1.218 -44.66   0
        32     58.4533    982.2844 307.8800505  +6.2644032     906.2131     1502.303     1475.379     78.19557     156.0195      312.101      1.442     3.72     856.7648     54.98556     171.1022         7     1.233     0.405 -55.32   0
        33    476.8370    980.0801 307.7064442  +6.2793831     2296.879      3093.72     2859.285     78.07175     156.0815      311.915      1.457     3.54      861.594     54.98556     303.6772        17     1.279     0.821 -67.66   0
        34    911.2292    972.2296 307.5263704  +6.2971717     42793.37     68461.89     72874.45     77.69909     155.7713     311.6978      1.716     3.64     855.4783     54.98556     5401.113        76     1.623     1.311 -71.08   0
        35    512.3098    975.2611 307.6918802  +6.2825626     494.3235     624.7114     733.6498     78.19557     156.1435      312.008      1.260     3.85     861.3922     54.98556     99.82642         5     0.991     0.430  -5.86   0
        36    218.4243    970.5281 307.8140411  +6.2746424     1777.043     2821.881     3025.935     77.82351     155.8954      311.915      1.734     3.93     859.0952     54.98556     260.6055        17     1.223     0.923 -37.96   0
        37    617.2421    968.4999 307.6485456  +6.2888722     881.4044     1404.294     885.0901     78.19557     155.8954      312.163      1.629     4.78     860.6234     54.98556      141.574        10     1.239     0.587 -70.33   0
        38    106.6906    969.5356 307.8604575  +6.2712906     611.4742     1000.082     825.5612     78.07175     156.2054      312.008      1.897     3.55     857.2554     54.98556     125.1837         5     1.162     0.380 -76.13   0
        39    809.1375    966.0030 307.5689635  +6.2963284     2491.412     3964.756     4403.665     77.57447     155.7713     311.6978      1.717     3.73     857.3107     54.98556     338.5443        21     1.344     0.976 -72.86   0
        40    757.4058    963.8693 307.5905119  +6.2954782     7011.217     10819.16     11910.59     77.69909      155.647     311.7909      1.674     3.56     858.6694     54.98556     885.7217        36     1.628     1.048 -69.07   0
        41    226.7280    963.0203 307.8108474  +6.2780208     1459.211     2214.468     2505.958     77.82351     155.8954      311.915      1.558     3.99     859.0684     54.98556     190.5312        15     1.297     0.809 -75.76   0
        42    544.4298    962.9523 307.6789600  +6.2887210     883.0154     1290.595     1207.603     77.82351     156.0815     311.8529      1.555     3.40     860.8596     54.98556     148.8165         6     0.789     0.483 -80.09   0
        43    191.5554    962.7660 307.8254571  +6.2769422     931.0868     1435.909     1411.951     77.82351     155.9575     311.8529      1.666     5.81     858.4614     54.98556     164.7511        13     1.547     0.704 -26.46   0
        44     51.7661    960.8464 307.8835512  +6.2730268     2796.419     4203.873     4206.592     77.82351     156.0195      311.884      1.538     3.34     856.3339     54.98556     451.1083        22     1.331     0.982 -59.40   0
        45    945.5587    958.9819 307.5125621  +6.3037872     6794.564     11044.51     11227.27     77.69909     155.8334     311.7288      1.737     3.61     854.4927     54.98556     850.0812        39     1.539     1.158 -67.30   0
        46    201.7381    955.0215 307.8214914  +6.2804816     670.1879     971.3667     929.9926     77.82351     156.0195     311.8529      1.548     4.99     858.4922     54.98556     119.6015         8     1.120     0.630 -60.26   0
        47    628.0385    953.4631 307.6445691  +6.2954411     692.5776     798.1513     512.1484     78.19557     155.9575      312.008      1.466     4.63     859.8994     54.98556     99.47473         8     1.164     0.522 -65.70   0
        48    919.4761    950.6159 307.5236711  +6.3063692     2229.451     3519.848     3503.789     77.69909     155.7713     311.8219      1.724     4.12     855.0016     54.98556     261.9744        22     1.301     1.070 -74.68   0
        49    778.8224    946.8919 307.5821906  +6.3032030     1382.826     2004.827     1772.327     78.19557     155.8334     311.7909      1.666     4.44     857.6514     54.98556     181.7904        14     1.289     0.776 -75.73   0
        50    640.0788    946.6226 307.6398004  +6.2986682     4750.682      6868.34     7033.592      77.8235     155.7092      311.915      1.552     3.49     859.4505     54.98556     663.5709        26     1.357     0.968 -58.32   0
        51    252.2684    946.6426 307.8007975  +6.2856403     4679.922     6854.479     7352.455     78.19557     155.9575      312.039      1.592     3.53     859.0105     54.98556     648.0109        26     1.370     0.985 -68.64   0
        52    989.3909    945.9388 307.4948013  +6.3106354     664.2873     1032.091     958.4724     77.57447     155.8954     311.7288      1.650     5.83     852.9664     54.98556     89.65411        10     1.153     0.829  67.48   0
        53    462.4344    944.7503 307.7136129  +6.2934832     1198.397     1711.768      1789.22     78.07175     156.0195      311.884      1.512     3.28     860.0776     54.98556     177.8285        11     1.010     0.730 -64.99   0
        54     20.8613    944.1058 307.8969464  +6.2788951     2247.669     3355.343     3463.952     78.07175     156.0815      311.977      1.548     3.60     855.5082     54.98556     310.9347        20     1.246     0.921 -67.14   0
        55    871.9275    943.2078 307.5436601  +6.3078379     1048.537     1647.258     1462.458     77.82351     155.5226     311.8529      1.686     5.34     855.6012     54.98556     129.0671        16     1.286     0.990 -56.70   0
        56    943.5544    940.1044 307.5140268  +6.3115128     667.5952     858.5125     945.2677     78.19557     155.9575      312.101      1.383     4.61     854.2198     54.98556     115.5443         8     1.226     0.556 -35.81   0
        57    287.8935    940.0471 307.7862308  +6.2895608     883.2234     1425.111     2313.489     78.07175     155.9575       312.07      1.970     5.29     859.2694     54.98556     122.0989         9     1.144     0.690 -69.20   0
        58    995.3601    939.1830 307.4925494  +6.3136235      789.236     1304.545     1477.381     77.82351     155.8334     311.7288      1.823     5.25     852.5197     54.98556     112.7458         8     1.410     0.553 -65.45   0
        59    964.3651    940.1612 307.5053849  +6.3121846     525.1787     725.8556     618.4685     77.94772     155.8954     311.7599      1.425     3.44      853.568     54.98556      70.1228         5     0.780     0.438  71.90   0
        60    564.6166    939.0900 307.6713823  +6.2992479     1694.021     2554.112     3069.262     77.94772     155.7713     311.8529      1.704     4.02     859.8224     54.98556     228.7848        18     1.187     1.025 -64.91   0
        61    603.9922    935.5350 307.6551548  +6.3020356     1232.464     1553.396     1140.092     77.69909     155.7713     311.8219      1.365     3.46     859.6687     54.98556     229.3367        11     1.145     0.608 -66.19   0
        62     53.4715    936.4936 307.8836666  +6.2831363     642.3994     1059.122     1685.725     78.07175     156.0815      311.977      1.554     3.59     855.9302     54.98556     119.7943         6     0.940     0.394 -68.98   0
        63     47.7670    936.3575 307.8860392  +6.2830002     441.7808     671.4965      1032.32     77.94772     156.0195     311.7909      1.810     3.28     855.8383     54.98556     82.33331         5     0.743     0.444 -17.59   0
        64    551.7552    932.4346 307.6769457  +6.3015639     641.5394     914.5975     646.3433     77.94772     155.9575     311.8219      1.538     6.93     859.5511     54.98556     88.47217        10     1.787     0.753 -74.31   0
        65    283.8341    933.1526 307.7881486  +6.2922702     1449.151     2311.638     3168.566     77.94772     156.0195      311.884      1.777     4.27     858.9946     54.98556     227.5206        16     1.406     0.721 -58.68   0
        66    750.9718    929.4231 307.5943397  +6.3094818     1036.081      1430.52     1478.746     77.69909     155.8954     311.7909      1.429     3.90     857.6208     54.98556     147.0347         8     0.887     0.708 -87.92   0
        67    888.2770    925.9389 307.5374514  +6.3155130     7214.005     11195.71     10972.27     78.44263     156.0815      311.915      1.658     3.51     854.9798     54.98556     894.5441        38     1.497     1.140 -66.79   0
        68    126.0124    927.3925 307.8538605  +6.2893368     609.4417     752.8789     898.8765     77.82351     155.8334     311.8529      1.251     2.72     857.0977     54.98556     121.2537         5     0.771     0.527  88.63   0
        69    424.0691    922.9537 307.7302744  +6.3011924     2265.481     3396.993     3929.762     78.19557     155.9575      311.946      1.566     3.45     858.9058     54.98556     387.9631        20     1.241     0.972 -60.75   0
        70    325.8255    921.3131 307.7711155  +6.2985689     10142.13     14893.44     15656.07     78.31921     155.8334     311.8219      1.572     3.50     859.2692     54.98556     1450.532        40     1.439     1.100 -66.52   0
        71    245.8896    920.2075 307.8043377  +6.2963374     7572.941     11425.99      11452.6     77.69909     155.7092     311.6978      1.612     3.57     858.4208     54.98556     1115.946        31     1.431     1.006 -74.91   0
        72    758.2408    914.7076 307.5918159  +6.3157995     762.7004     1098.653     1365.195     78.31921     155.9575      312.039      1.796     5.56      857.264     54.98556      112.896        11     1.330     0.655 -56.55   0
        73    573.8838    914.7126 307.6683550  +6.3096213     1384.224      1858.29     1843.624     77.94772     156.2054      311.977      1.385     4.37     859.0449     54.98556     194.0984        10     0.971     0.729 -55.80   0
        74    904.0740    911.0031 307.5313937  +6.3222064     946.3051      1156.81     1297.827     77.69909     155.5226     311.8219      1.374     5.25     854.3846     54.98556     119.0781        10     1.153     0.675 -69.59   0
        75    860.5428    909.8030 307.5495072  +6.3212465     700.5145     1189.052      1046.66     77.57447     155.8334     311.6667      1.455     4.42     855.1744     54.98556     123.2305         7     1.135     0.489 -84.80   0
        76    137.4212    909.2347 307.8497378  +6.2972160     509.4384     718.5419      1001.66     77.69909     155.8334     311.6978      1.661     4.30      856.978     54.98556     83.28687         5     1.056     0.500   3.53   2
        77    402.7693    908.7484 307.7395957  +6.3063407      578.402     649.7776     800.2198     78.07175     156.1435      311.884      1.369     4.64     858.7953     54.98556     94.44855         8     0.972     0.630 -82.40   0
        78    972.0791    906.8406 307.5032987  +6.3261968     804.7394     1190.443     1341.151     78.07175     156.0195      311.915      1.552     4.51      852.395     54.98556     101.0626         8     0.813     0.711  49.34   0
        79    832.9902    905.0529 307.5611058  +6.3222859      672.134     1146.329     1242.735     77.57447     155.8954     311.6667      1.758     5.45     855.7223     54.98556     102.2323         9     1.259     0.665 -66.10   0
        80    740.4438    903.8651 307.5995688  +6.3196795     1744.332     2519.312     2642.273     78.19557     155.9575      311.946      1.582     4.33     857.3376     54.98556     256.2599        15     1.347     0.860 -65.16   0
        81    564.4973    904.0833 307.6726095  +6.3136942     661.2123      1044.83     883.1885     78.19557     156.3911      312.008      1.569     4.86     858.7713     54.98556     150.9899         9     1.296     0.896 -89.54   0
        82    525.4464    899.8308 307.6889652  +6.3141397     1325.623     1932.875     1724.807     77.69909     156.0195     311.8529      1.497     4.34     858.7771     54.98556     199.0217        15     1.363     0.773 -78.32   0
        83    971.5323    899.9403 307.5037569  +6.3290269     1398.475     2301.502     2708.267      78.3192     155.9575      311.946      1.981     3.81     852.2045     54.98556     209.2433        14     1.179     0.788 -75.02   0
        84    616.5922    900.1826 307.6511125  +6.3170509     709.8062      1089.71     1120.447     77.82351     155.7713     311.7909      1.700     5.14     858.4235     54.98556     102.2117         8     1.185     0.631 -75.79   0
        85    604.3887    900.7762 307.6561591  +6.3163968     870.6924     1288.952     1273.622     77.82351     155.8334      311.884      1.437     3.42     858.5714     54.98556     143.8267         8     0.939     0.678 -59.59   0
        86   1009.4443    896.8846 307.4881187  +6.3315543     751.2208     1117.675     1044.178     78.19557     155.9575      311.946      1.442     5.06     851.0112     54.98556     152.9943        12     1.267     1.058  31.56   0
        87    658.8857    897.2762 307.6336511  +6.3196679      2629.28     3726.625     4050.972     78.31921     156.3293      312.008      1.507     3.21     857.8446     54.98556     382.1696        18     1.195     0.900 -67.84   0
        88     55.3997    893.2924 307.8843268  +6.3010334      3017.23     4589.923     4695.296     77.69909     155.5226     311.6046      1.610     3.77     855.2388     54.98556     402.8329        23     1.484     0.845 -73.30   0
        89    819.9286    893.8482 307.5669047  +6.3264742     729.0986     1103.421     1100.527     78.19557     156.0195      311.977      1.620     5.09     855.7998     54.98556      114.194         9     1.396     0.525 -44.77   0
        90    199.2405    892.3817 307.8246431  +6.3062536     2435.547     3577.337     3467.182     77.82351     155.8334     311.6978      1.576     3.94     857.7374     54.98556     339.8522        18     1.285     0.865 -66.37   0
        91     73.0926    892.6835 307.8770024  +6.3018810     2074.809     3136.581      3553.93     77.94772     156.3911       312.07      1.678     3.77     855.5322     54.98556     316.3319        22     1.361     0.989 -65.78   0
        92    937.2676    892.3908 307.5182362  +6.3309986     785.6325     1372.925     1386.235     77.69909     155.8334     311.8529      1.770     4.74     852.9996     54.98556     123.3475         8     1.162     0.547 -73.44   0
        93    955.8884    889.8469 307.5105903  +6.3326708     447.0106     627.9135     838.7607     78.19557     155.8954      312.039      1.473     5.02     852.3883     54.98556     72.02264         6     1.063     0.670 -74.99   0
        94    232.7738    889.1531 307.8108308  +6.3087147     818.4735     1099.458     634.5447     77.82351     156.0815     311.8219      1.360     4.72       858.21     54.98556     122.7805         8     0.950     0.665 -64.92   0
        95    653.5471    886.4741 307.6362307  +6.3239480     7467.804     10493.78     11399.89     78.19557     156.0815      311.946      1.535     3.48     857.7192     54.98556     1065.253        28     1.381     0.957 -66.26   0
        96    338.0714    888.6729 307.7671322  +6.3124537     913.9208     1479.935     1893.569     78.44263     156.1435      311.977      1.714     3.05     859.0389     54.98556     174.2031         9     1.033     0.547 -61.46   0
        97    791.1050    887.2472 307.5790933  +6.3282347     820.3242     1181.669     1056.785     78.07175     155.9575       312.07      1.560     5.11      856.191     54.98556     139.6304         8     1.111     0.664 -53.39   0
        98     13.4292    884.6036 307.9020442  +6.3032050     1418.529     2414.228      2478.25     77.69909     155.7713     311.7909      1.856     4.73     854.4455     54.98556     181.8082        16     1.346     0.898 -55.60   0
        99    891.3723    882.6828 307.5376169  +6.3334722     2973.567     4448.004     4659.253     78.07175     155.8334      311.884      1.652     3.75     854.0211     54.98556     387.0978        22     1.332     0.952 -63.11   0
       100     26.8190    883.4069 307.8965260  +6.3041504     1263.558     1854.233     1637.608     77.82351     155.7092     311.7909      1.509     3.38     854.6351     54.98556      184.556        11     1.000     0.712 -70.31   0
       101    336.5554    879.5464 307.7680693  +6.3161700     17524.76     25326.13     27044.64     78.19557     156.0195      311.946      1.605     3.50     858.9382     54.98556     2296.592        47     1.495     1.109 -66.31   0
       102     71.2198    880.6238 307.8781876  +6.3067957     1330.682     1931.252      1955.23     77.94772     155.8334      311.884      1.607     4.27     855.2798     54.98556      185.505        13     1.350     0.712 -60.93   0
       103    207.5031    878.9898 307.8216650  +6.3120595      1263.48     1853.198     1611.917     77.94772      155.647     311.7599      1.477     4.04     857.8022     54.98556     239.1789        13     1.330     0.694 -61.88   0
       104    386.9040    878.6750 307.7471957  +6.3182215     604.5536     910.7628     1067.344     77.82351     156.2054      311.977      1.565     3.89     858.5596     54.98556     130.2225         8     0.958     0.733 -32.66   0
       105    667.8937    866.8252 307.6309347  +6.3325395     927.9776     1655.726      2388.65      78.3192     155.7713     311.7909      2.167     2.95     857.3708     54.98556     145.5026        10     0.899     0.729 -88.91   2
       106    414.3681    870.4985 307.7360691  +6.3225191     1205.554     1572.337     1838.335     78.19557     155.8954       312.07      1.651     4.29     858.1066     54.98556     145.2203        13     1.219     0.804 -70.20   0
       107     99.7908    870.2261 307.8666779  +6.3120502     1757.193     2675.915     3122.364     77.82351     155.8334     311.8219      1.719     3.81     855.5189     54.98556     280.3437        18     1.352     0.866 -71.79   0
       108    494.6960    866.9379 307.7028391  +6.3266856     764.0944     1049.265      1352.52     77.94772     156.0815      312.008      1.399     3.46     858.0225     54.98556     140.2731         7     0.909     0.664 -87.37   0
       109    881.7106    864.5277 307.5422372  +6.3406435     2129.217     2990.077     2867.518     78.19557     156.2674      311.946      1.517     3.81     853.9657     54.98556     287.5141        17     1.231     0.844 -60.55   0
       110    852.3615    864.1795 307.5544344  +6.3398059     2127.482     2996.516     3018.953     77.82351     155.8334     311.6978      1.508     3.43     854.7689     54.98556       306.39        17     1.251     0.808 -73.56   0
       111     83.2265    863.6892 307.8737755  +6.3141904     2600.085     3852.634     4584.786     78.31921     155.7713     311.8219      1.631     3.50     855.1393     54.98556     388.5015        22     1.467     0.861 -67.11   0
       112    815.7453    863.5421 307.5696586  +6.3388444     3122.568      4656.03     5110.082     78.31921     156.0815      311.977      1.699     3.70     855.3066     54.98556     419.2266        23     1.372     0.914 -66.62   0
       113    551.6426    854.8113 307.6796042  +6.3336018     353575.2     518215.5     542668.2     77.57447     155.8334     311.6667      1.594     3.63     857.5326     54.98556     51109.87       189     1.680     1.307 -72.34   4
       114    639.3222    857.8524 307.6430988  +6.3352860     1207.543      1637.98     1712.135     78.31921     156.0195      311.946      1.477     4.41     857.2025     54.98556     170.9062        13     1.237     0.782 -79.44   0
       115    451.9817    858.1590 307.7208687  +6.3288756     512.0381     928.2451     1422.012     77.69909     155.8334     311.7288      2.251     5.47     857.8318     54.98556     93.02979         7     1.656     0.509 -56.57   0
       116    395.9231    857.3230 307.7441709  +6.3273382     8239.368     11978.83     12264.84     78.44263     156.2674      312.039      1.550     3.47      858.045     54.98556     1177.919        32     1.429     0.979 -74.25   0
       117    339.0551    855.7692 307.7678332  +6.3260687     13143.68     19167.18     19855.25     78.07175     156.0815      311.915      1.526     3.43     858.5208     54.98556     1964.457        37     1.458     0.991 -65.91   0
       118    657.4346    852.1541 307.6357703  +6.3382451       3745.5     5554.298     5599.954     77.82351     155.9575     311.7909      1.547     3.35      857.006     54.98556     611.4385        23     1.313     0.920 -59.72   0
       119    890.1176    850.9999 307.5392003  +6.3465088     5422.136     8462.586     8825.933     77.44965     155.5226     311.6046      1.622     3.55     853.4536     54.98556     758.1137        31     1.395     1.093 -65.93   0
       120    729.1671    848.5494 307.6061087  +6.3421357     856.0822     1334.873     1008.505     78.07175     156.0815      311.884      1.573     4.24     856.4817     54.98556     133.0763         9     1.087     0.578 -65.86   0
       121    632.2967    846.1362 307.6464096  +6.3398868     3619.771     5312.352     5538.898     78.07175     156.1435      311.977      1.550     3.44     856.8956     54.98556     494.4972        22     1.329     0.874 -70.41   0
       122   1023.0798    845.2141 307.4841879  +6.3533389     4359.527     5966.762     6202.364     74.13065     132.1119     243.9277      1.446     3.91     849.7264     54.98556     564.9366        22     1.414     0.803 -81.66  24
       123    820.6542    845.5284 307.5682250  +6.3464445     1581.923     2386.894     2509.088     78.07175     155.8954      311.884      1.536     3.76     854.9529     54.98556     239.4948        14     1.217     0.713 -61.03   0
       124    622.6066    845.2673 307.6504620  +6.3399208      1018.95     1444.787     2399.977     77.69909     155.7713     311.7599      1.543     3.97     856.8889     54.98556     151.1956         9     1.014     0.679 -69.84   3
       125    625.0712    840.5928 307.6495959  +6.3419329     2313.666     3815.976     4117.919     77.69909     155.5226      311.884      1.746     4.26      856.779     54.98556     295.8748        22     1.404     0.946 -73.68   2
       126    175.0969    844.8636 307.8362711  +6.3250551     425.7738     796.5623     956.6237     78.07175     156.1435      311.977      1.153     4.11      856.627     54.98556     108.2138         6     1.165     0.414  62.96   0
       127    947.9344    843.7702 307.5154371  +6.3514253     799.9847     1372.366     1808.422     77.94772     156.0195      311.884      2.142     6.00     851.4628     54.98556     115.5403        11     1.264     0.800 -65.13   0
       128    908.8684    838.7719 307.5318250  +6.3521832      3340.36     5012.239     4834.746     77.94772     156.0195      311.884      1.590     3.60     852.5657     54.98556     489.7007        23     1.410     0.900 -71.09   0
       129    319.1376    839.9993 307.7766342  +6.3319087     862.1754     1336.009     1655.446     77.44965     155.8334     311.6357      1.882     5.43     858.1823     54.98556     126.5777        12     1.334     0.624 -73.06   0
       130    366.9114    834.6729 307.7569793  +6.3357130     2831.594     4412.159     5031.052     78.19557     156.2674      311.977      1.639     3.86     857.7084     54.98556     420.6387        22     1.396     0.920 -64.56   0
       131    503.1697    824.4736 307.7007506  +6.3444985     3199.444     4692.156     4508.758     78.07175     156.0195      311.946      1.596     3.85     856.8812     54.98556      473.772        22     1.453     0.866 -67.48   0
       132    847.8499    823.5280 307.5576715  +6.3564357     1169.767     1611.695     1599.762     78.19557     156.0195      311.977      1.552     4.34     854.2101     54.98556     147.1189        12     1.126     0.763 -64.55   0
       133    568.3993    821.8017 307.6737577  +6.3477897      959.723     1377.607     1208.109     77.57447     155.5848     311.6357      1.419     5.19     856.4866     54.98556     134.3316        10     1.285     0.593 -84.42   0
       134    556.8079    820.1938 307.6786245  +6.3480646     1327.175     2293.999     2323.552     77.57447     155.8334     311.7909      1.695     4.49     856.4707     54.98556     206.2501        17     1.448     0.860 -61.88   0
       135    550.0126    820.6144 307.6814317  +6.3476631     6531.756     9355.017     9789.455     78.07175     155.7092      311.884      1.533     3.53     856.5271     54.98556     941.3462        27     1.353     0.964 -71.63   0
       136    467.9223    819.4579 307.7155539  +6.3453859     1633.034     2419.213     2441.974      78.3192     156.0195      311.884      1.630     3.89     856.8961     54.98556     264.8194        17     1.362     0.836 -71.10   0
       137    261.6214    820.5922 307.8011682  +6.3379854     702.5201     865.5594      603.563     77.69909     155.8334     311.7288      1.275     3.90     857.6774     54.98556     120.9843         7     1.108     0.482 -86.92   0
       138    885.8532    818.7816 307.5420515  +6.3596657     1293.083     1958.162     2111.772     77.69909     156.0815     311.7288      1.603     3.50     853.1028     54.98556     189.6567        14     1.042     0.927 -40.99   0
       139    109.6072    818.5037 307.8643507  +6.3337303     1526.634     2119.313      2150.49     77.94773      155.647     311.7288      1.468     3.80     854.8802     54.98556     214.8924        13     1.146     0.733 -67.23   0
       140    685.7272    817.7109 307.6251810  +6.3534107     745.5087     968.5976     914.8593     78.19557     156.2674      311.977      1.498     4.56     855.9888     54.98556     111.3499         8     1.027     0.575 -67.11   0
       141    520.7208    814.4791 307.6938000  +6.3492130     21330.94     30457.91     31312.06     78.44263     156.2674      312.101      1.582     3.59     856.4968     54.98556     2971.345        47     1.493     1.055 -66.98   0
       142    361.9289    815.9819 307.7596781  +6.3432608     835.2513     1182.982     1419.665     77.69909     155.8954      311.884      1.497     4.49     857.1676     54.98556     135.3386         9     0.974     0.700  83.61   0
       143    934.4035    812.8622 307.5220913  +6.3637318     3945.621     5919.839     6602.804     77.57447     155.7713     311.6667      1.656     3.52     851.2966     54.98556     517.1178        22     1.302     0.936 -69.55   0
       144     54.5606    810.3289 307.8874805  +6.3352498     595.3411      924.405      1106.41     78.07175     156.0195      312.008      1.516     3.71     853.8389     54.98556     111.8964         6     1.017     0.388 -70.78   0
       145    313.3889    803.2212 307.7802615  +6.3468966     3414.193     4867.805     4996.417     77.82351     155.7713     311.7909      1.511     3.37      857.389     54.98556     486.8481        21     1.374     0.818 -67.32   0
       146     31.0195    804.9598 307.8974355  +6.3366724     1454.865     2199.058     2181.609     77.82351     155.8334     311.6667      1.522     3.80     853.3622     54.98556     197.6638        12     1.192     0.638 -67.03   0
       147    778.9233    799.0670 307.5871115  +6.3642270      57930.4     84254.96     87342.05     78.31921     156.0815      311.915      1.522     3.47     854.8215     54.98556     8327.182        66     1.497     1.118 -70.44   0
       148     13.3082    801.2493 307.9049141  +6.3376069     2105.089     3096.426     3184.486     78.07175     155.8954      312.101      1.564     3.39      852.994     54.98556      289.735        17     1.137     0.909 -59.53   0
       149    235.6883    775.4395 307.8134593  +6.3557509     761453.6      1690921      1870753     78.19557     155.9575      311.977      2.255     6.06     856.2288     54.98556     63357.27       639     2.895     2.062 -82.89   4
       150    707.1462    793.6663 307.6170957  +6.3640534     22664.46     33561.71     36971.21     78.19557     155.9575      311.915      1.610     3.62     855.3085     54.98556     3152.036        53     1.515     1.138 -69.94   3
       151    700.8737    790.1320 307.6198188  +6.3653023     93450.15     135949.6     141858.9      78.3192     156.1435      311.915      1.532     3.52     855.1647     54.98556     13552.12        79     1.533     1.143 -68.11   3
       152    904.2190    794.3282 307.5352458  +6.3703738     8777.712     13121.51     13878.44     77.82351     155.8954      311.884      1.623     3.44     851.9496     54.98556     1253.605        37     1.465     1.082 -68.08   2
       153    901.1149    785.8878 307.5368178  +6.3737542     6844.804     10563.31     11111.58     77.94772     156.2054      312.008      1.616     3.58     851.8177     54.98556     949.8252        32     1.481     1.009 -70.60   2
       154    345.7600    790.9731 307.7672345  +6.3530405     21610.77     31883.54     33294.46     77.82351     155.8334     311.7909      1.563     3.57      856.371     54.98556     3203.161        51     1.507     1.090 -68.31   0
       155    395.1708    791.0305 307.7467175  +6.3546771     1462.831     2088.055     2661.411     77.69909     155.7713     311.6978      1.540     5.60      856.116     54.98556     179.6028        13     1.316     0.683 -62.57   0
       156    634.5379    790.3788 307.6473538  +6.3629779     759.9882     1084.009     1082.224     77.82351     156.0195     311.8219      1.461     3.91     855.2448     54.98556     159.7893         7     1.095     0.615 -54.51   0
       157    407.6046    788.7971 307.7416303  +6.3560167     23169.88     34179.46      36028.5     77.57447     155.5848     311.7909      1.605     3.65     855.9819     54.98556     3256.984        52     1.508     1.096 -68.28   0
       158    944.8924    787.9144 307.5185724  +6.3743806     2077.835     3138.931     3323.144     77.94772      156.453      312.039      1.546     3.84     850.5469     54.98556     294.7869        19     1.305     0.848 -64.68   0
       159    873.7589    786.8558 307.5481441  +6.3724400     744.3393      818.999     1152.266     78.07175     156.0195      311.977      1.225     3.45     852.7737     54.98556     109.3546         7     0.855     0.578 -60.56   0
       160    641.6751    784.7310 307.6445803  +6.3655484       6832.4     9957.667     10523.57     78.31921     156.1435      311.946      1.563     3.56      855.024     54.98556     1017.422        32     1.428     0.972 -61.70   0
       161    430.4003    782.7831 307.7323683  +6.3592648     1891.652     2580.642     2209.034     77.82351     155.5848     311.6357      1.443     3.66     855.6494     54.98556     254.6365        15     1.202     0.814 -66.43   0
       162    155.5058    781.6666 307.8465396  +6.3504815     770.1899     983.6356     780.8577     78.07175     156.2054      311.946      1.396     3.74     854.9777     54.98556     137.9237         8     1.058     0.500  89.58   0
       163    729.0167    779.9275 307.6084763  +6.3704570     553.5635     715.6166     781.0629     77.69909     155.9575     311.8529      1.278     3.69     854.8882     54.98556     92.93317         5     0.804     0.501  63.33   0
       164    594.7606    776.7388 307.6643285  +6.3672749     996.5952     1429.419     1689.502     78.19557     156.0195      311.977      1.692     4.83     854.8033     54.98556     138.9358        11     1.166     0.674 -78.37   0
       165    869.8926    776.8268 307.5500859  +6.3764507     752.4589     886.8682     1082.234      78.3192     155.7713     311.7909      1.273     4.44     852.5499     54.98556     99.24646         7     0.955     0.587 -13.62   0
       166    676.7024    774.9164 307.6303665  +6.3707734     2536.772     3629.891     3651.428     78.19557     156.3911      312.008      1.515     3.67     854.5696     54.98556     368.0906        18     1.366     0.775 -63.78   0
       167    410.5703    771.5100 307.7409816  +6.3632521     57724.88     82947.26     86936.65     78.31921     155.7713      311.884      1.592     3.54      855.185     54.98556     7852.099        72     1.550     1.139 -67.08   0
       168    145.8068    775.6779 307.8507688  +6.3526269     1069.787     1498.147     1177.947     77.82351     155.5226     311.7288      1.543     4.00     854.7591     54.98556     163.0841        13     1.243     0.701 -62.73   0
       169    121.1196    775.4429 307.8610263  +6.3518924     1108.151      1542.25     1719.623     78.19557     156.0195      311.915      1.558     4.73     854.4515     54.98556     170.6244        11     1.221     0.695 -58.14   0
       170    953.7025    773.5270 307.5153965  +6.3806140     780.9175     1066.036     1297.629     77.82351     156.1435      311.946      1.432     4.92     850.0423     54.98556     92.88055         9     1.392     0.492 -55.04   0
       171     62.8182    772.6608 307.8853260  +6.3510763     497.2755     682.0034     597.4761     77.82351     155.9575     311.7599      1.430     3.65     853.7135     54.98556     93.68018         5     1.198     0.320 -79.27   0
       172    528.3100    770.5430 307.6921279  +6.3676037       7579.7     10861.73     11120.34     78.07175     155.9575       312.07      1.561     3.56     854.6969     54.98556     1048.279        31     1.359     0.986 -62.27   0
       173    445.0326    769.1533 307.7267521  +6.3653822     4845.533      7225.71     8235.932     77.94772     156.0195      311.884      1.585     3.35     854.9414     54.98556     705.4865        26     1.379     0.971 -62.67   0
       174    773.5298    767.1641 307.5904223  +6.3772157     12235.79      17844.8     18320.88     78.07175     156.0195      311.977      1.549     3.46     853.7635     54.98556      1719.28        36     1.432     1.009 -64.58   0
       175      2.7632    763.4320 307.9105716  +6.3528610     1341.509     2078.788     2505.165     77.82351     142.7423     256.6076      1.674     4.48     852.9732     54.98556     179.0135        15     1.331     0.759 -66.05  24
       176    441.6094    762.4158 307.7284004  +6.3680484     2336.593     3460.751     4535.206     77.94773     155.7713     311.8529      1.625     3.54     854.6155     54.98556     387.8684        18     1.385     0.815 -62.33   0
       177    795.4022    761.5902 307.5815275  +6.3802485     1322.444     2035.836     1901.811     77.57447     155.7092     311.7288      1.621     4.37     853.1456     54.98556     212.6545        15     1.336     0.923 -33.23   0
       178    131.2850    759.0426 307.8573601  +6.3590044     12051.61     18167.74     19781.15     78.19557     155.8954      311.946      1.608     3.55     854.3594     54.98556     1571.688        41     1.469     1.120 -72.78   2
       179    123.4030    756.2563 307.8607268  +6.3598890     2957.402     4683.108     5954.195     77.57447     155.8334     311.6357      1.822     4.22     854.2488     54.98556     402.8173        20     1.320     1.024 -80.59   3
       180    139.3483    759.3633 307.8540015  +6.3591436     3177.483     4732.458     5445.381     78.07175     156.0195      311.946      1.622     3.65     854.4344     54.98556     421.7762        22     1.387     0.894 -66.53   0
       181    422.1852    797.7996 307.7352732  +6.3527903     934.2314     1263.258     830.4854     77.82351     155.7092     311.7288      1.364     4.41     856.3634     54.98556     145.8141         8     1.058     0.523 -52.58   0
       182    968.3340    755.8853 307.5099123  +6.3883851     1512.133     2110.275     3121.594      78.3192     156.2674      312.008      1.559     3.59     849.3896     54.98556     216.0204        13     1.182     0.712 -69.23   0
       183    919.0972    755.7508 307.5303617  +6.3867955     6723.999      9842.78     9818.423     78.07175     155.9575      312.101      1.560     3.58     850.4155     54.98556     921.2405        30     1.339     1.054 -69.21   0
       184    674.6003    753.3167 307.6319653  +6.3796191     1845.333     2515.179     2760.569     77.44965     155.5226     311.6046      1.563     3.69     853.7318     54.98556     309.0489        15     1.205     0.785 -70.20   0
       185    561.3922    752.6644 307.6789935  +6.3760935     2452.209       3594.2     3943.052     77.69909     155.7092     311.7909      1.563     3.74     853.8091     54.98556     372.0222        18     1.305     0.831 -62.02   0
       186    409.3275    751.9344 307.7421573  +6.3712908     1075.513     1671.546     2206.493     78.19557     156.0815      311.946      1.636     6.30     854.2607     54.98556     176.5397        14     1.713     0.696 -71.64   0
       187    123.5953    749.8970 307.8608619  +6.3625204     2039.716     3112.854     3591.602     77.94772     155.7092     311.6357      1.661     3.69     854.1855     54.98556     284.0006        20     1.239     1.000 -80.92   0
       188    942.7567    747.3796 307.5208181  +6.3910417     3202.603     4576.035     4674.728     77.69909     155.8954     311.7909      1.551     3.35     849.6633     54.98556     427.8646        19     1.218     0.902 -65.33   0
       189    913.3144    747.7593 307.5330309  +6.3899011     3164.813      4354.35     4871.146     78.19557     155.9575      311.915      1.502     3.56     850.3642     54.98556     428.3805        20     1.292     0.843 -72.74   0
       190    973.5846    747.1057 307.5080264  +6.3921847     1890.469     2517.123     2604.191     77.94772     155.8334     311.7909      1.429     3.42      849.103     54.98556     252.7493        15     1.130     0.824 -76.75   0
       191    665.4497    747.1753 307.6359713  +6.3818476     1457.686     2172.898     2474.181     77.82351     156.0815     311.8529      1.552     3.76     853.4967     54.98556     228.3106        13     1.230     0.669 -54.68   0
       192    812.8599    745.1985 307.5748289  +6.3875990     1233.785     1854.501     1282.078     77.57447     155.7713     311.6667      1.474     3.57     852.1965     54.98556     220.7254        15     1.238     0.810 -82.44   0
       193    888.2322    742.7375 307.5436143  +6.3911356     849.3359     1261.642     1379.698     77.94772     156.0815      311.915      1.552     4.82     850.8636     54.98556     135.7852         9     1.044     0.676 -56.82   0
       194    238.1383    742.0044 307.8135708  +6.3696344     1913.034     2709.203     3216.986     77.57447     155.7713     311.6978      1.540     3.73     855.3468     54.98556     261.9717        18     1.238     0.897 -68.81   0
       195    676.6048    735.1968 307.6317421  +6.3871659     827.4814     1790.004     2828.192     77.57447     155.5848     311.7909      2.820     7.49     853.0886     54.98556     164.1777        17     2.436     0.645 -65.72   0
       196    931.1517    737.2335 307.5259771  +6.3948422     1006.606     1566.378     1436.845     77.94772     156.0195      311.884      1.672     4.34     849.6397     54.98556     156.2294        12     1.153     0.765 -68.77   0
       197    904.8299    736.3618 307.5369362  +6.3943223     1341.464     1920.143     1951.894     77.82351     155.7713     311.8219      1.542     4.27     850.2394     54.98556     174.9231        13     1.223     0.747 -79.47   0
       198    258.6800    737.1765 307.8052048  +6.3723184     662.2559     1023.449     1347.159     77.82351     155.7092      311.915      1.275     4.02     855.3384     54.98556     144.3777         7     1.251     0.370 -63.63   0
       199    153.8685    737.1526 307.8487233  +6.3688005     747.6222     1028.743     968.1329     78.19557     155.9575      311.946      1.454     4.55     854.2138     54.98556     127.9615         8     1.111     0.529 -56.89   0
       200    957.6211    735.1082 307.5150572  +6.3966039      2605.26     3633.563     3662.132     78.07175     155.8334     311.7909      1.475     3.31     849.1611     54.98556     397.8953        21     1.283     0.913 -62.98   0
       201    398.1278    729.2847 307.7475709  +6.3802639     676.8393     805.1671     1029.107     78.31921     156.3293      311.977      1.316     4.35     853.4478     54.98556     104.2094         7     1.077     0.500 -69.43   0
       202    999.3936    728.6276 307.4979287  +6.4006743     1803.177     2348.889     2373.543     77.69909     155.8334     311.7599      1.396     3.53     848.4706     54.98556     258.9855        13     1.035     0.777 -58.31   0
       203    800.8170    727.1471 307.5804355  +6.3946475     1293.368     1958.587      1991.44     77.69909     156.0815     311.6667      1.467     4.59     851.8374     54.98556     201.1344        14     1.434     0.666 -66.59   0
       204    625.8146    728.0131 307.6530732  +6.3884292      684.572     966.6441     1149.772     78.07175     155.7092      311.884      1.952     4.44     852.9292     54.98556     119.4801         7     1.101     0.509 -50.44   0
       205    887.1277    724.1574 307.5446962  +6.3987684     1596.877     2350.779     2340.551     78.07175     156.0195      311.977      1.487     3.56     850.4791     54.98556     215.8118        15     1.168     0.820  88.53   0
       206    861.3809    719.5270 307.5555427  +6.3998190      884.312     1227.637     1347.935     77.82351     155.9575      311.884      1.598     3.45      850.998     54.98556     146.8297        10     1.088     0.632 -49.83   0
       207    647.8237    718.8340 307.6442430  +6.3929559     594.4924     887.3373     1050.617     77.69909     155.8334     311.7288      1.473     4.48     852.6975     54.98556      93.9505         5     0.836     0.684 -50.73   0
       208    843.6360    715.8553 307.5630343  +6.4007412     1593.703     2300.014     1948.109     78.07175     156.0195      311.977      1.518     3.68     851.1265     54.98556     253.0828        13     1.249     0.702 -58.33   0
       209     42.9468    714.4575 307.8955448  +6.3744310     2530.543     3754.755     3670.619      78.3192     156.0195      311.946      1.542     3.75     853.1151     54.98556     389.3173        21     1.421     0.863 -68.92   0
       210    106.8494    711.9402 307.8690976  +6.3776237     849.8112     1782.472      2254.95     78.19557     156.0195      312.008      2.356     5.83     853.3578     54.98556     102.1512        12     1.276     0.750 -82.04   2
       211    455.2784    713.6749 307.7243669  +6.3886267      631.209     969.1975     923.5133     78.44263     156.2674      312.008      1.686     4.08     852.9833     54.98556     103.3806         7     1.017     0.616 -68.41   0
       212    561.1479    709.0748 307.6805619  +6.3940784     577.8519     716.3734      123.814     78.19557     156.0815      311.946      1.475     4.50     852.6277     54.98556     96.12231         6     0.951     0.605 -72.21   0
       213    698.5319    706.5260 307.6236009  +6.3997354     622.5954     740.7667     192.9272     78.31921     156.1435      311.915      1.329     3.70     852.3857     54.98556     86.66425         6     0.988     0.399 -70.61   0
       214    655.6056    702.9944 307.6415442  +6.3997551     6581.503     9851.756     10137.32     77.57447     155.8334     311.7599      1.552     3.52     852.2955     54.98556     985.9969        30     1.397     1.014 -76.50   0
       215    602.4134    702.2347 307.6636572  +6.3982857      1634.74     2370.805     2609.168     77.69909     155.8334     311.8219      1.519     3.70     852.4807     54.98556     237.3346        15     1.207     0.796 -60.56   0
       216    524.1038    703.0528 307.6961464  +6.3953215     692.8383     1017.512     1016.258     78.07175     156.0195      312.194      1.610     3.75     852.5953     54.98556     110.7868         8     0.860     0.641 -42.47   0
       217    513.2602    702.6688 307.7006620  +6.3951161     939.3154     1249.834     825.8057     78.31921     155.9575      311.946      1.447     5.19     852.6275     54.98556     140.6158        11     1.150     0.773 -44.80   0
       218    992.5295    698.4393 307.5017905  +6.4129066     2682.027     4062.145     3805.839     78.07175     156.0195      312.008      1.596     3.88     848.4525     54.98556     365.2177        22     1.392     0.963 -66.36   0
       219    629.5867    698.6401 307.6524947  +6.4006804     2261.395     3477.539     4076.777     77.69909     155.8334     311.6978      1.727     4.18     852.3225     54.98556     313.4533        16     1.298     0.779 -68.56   0
       220    118.6830    698.8175 307.8646279  +6.3834390     3891.455     5880.968     5785.818     77.82351     155.7092      311.884      1.580     3.62     853.0092     54.98556      563.614        22     1.317     0.917 -74.71   0
       221    241.1548    698.3423 307.8137923  +6.3877586     735.5042     1087.869     1142.651     78.19557     156.0195      312.039      1.435     4.63     853.3482     54.98556     108.4109         8     1.069     0.569 -57.01   0
       222    772.4708    695.1677 307.5932798  +6.4068997     21287.02     30701.17     32218.78     78.07175     156.0195      311.915      1.552     3.52     851.5689     54.98556      3093.96        44     1.471     1.035 -65.31   0
       223    902.5355    694.8939 307.5392797  +6.4113633     3916.058     5741.947     6489.337     78.07175     156.0815      311.977      1.602     3.69     849.6061     54.98556     565.2034        27     1.474     0.920 -67.08   0
       224    499.8722    695.6842 307.7064563  +6.3975500     830.4083     1360.095     1406.141      78.3192     156.3293      311.977      1.764     3.10     852.5621     54.98556     159.9899         7     1.005     0.488 -67.76   0
       225    471.7597    695.4589 307.7181371  +6.3966993     1365.564      2006.28     1864.371     78.19557     156.0195      312.008      1.662     3.57     852.6371     54.98556     209.7247        12     1.133     0.718 -67.87   0
       226    316.9942    695.2668 307.7824062  +6.3915790     668.2703     1108.616     1252.668     77.69909     155.7092     311.7599      1.657     4.59     853.6167     54.98556     99.10419         8     1.011     0.591 -63.64   0
       227    273.0363    694.7526 307.8006758  +6.3903129     565.7852     969.6318     528.7933     77.82351     156.0195      311.884      1.912     3.80     853.6727     54.98556     70.85535         5     0.831     0.498 -53.57   0
       228    246.0705    688.7572 307.8120748  +6.3918805     6552.252     9721.525     10341.65     78.07175     156.0195      312.008      1.593     3.56     852.9938     54.98556     916.7195        32     1.417     1.045 -67.33   0
       229     80.9941    690.8404 307.8805462  +6.3854618     460.7225     722.5082     564.5174     77.44965     155.7092     311.6357      1.539     4.42     852.9116     54.98556     75.72681         6     1.057     0.527 -78.96   0
       230    652.9803    687.9513 307.6431402  +6.4058767     7489.566      10984.2     11733.48     77.69909     156.0815     311.7599      1.535     3.59     851.9538     54.98556     1075.894        30     1.382     0.986 -70.97   0
       231    635.6052    689.1601 307.6503144  +6.4047954      1011.28     1379.208     1951.628     77.44965     155.7092     311.6667      1.381     3.42      852.079     54.98556     155.0346        10     1.043     0.643 -46.73   0
       232    348.3504    687.9013 307.7696348  +6.3956734     639.0539     938.2216     557.6785     78.19557     155.9575      312.132      1.531     3.61     853.2206     54.98556     107.2018         7     0.855     0.628 -16.94   0
       233    912.8848    680.5363 307.5354637  +6.4176359     1327.973     1899.732     2107.164      78.3192     156.1435      311.946      1.621     3.72     849.1243     54.98556     211.9279        11     1.054     0.692 -71.54   0
       234    724.7328    676.4509 307.6137318  +6.4130276     3844.086     5777.728     5711.725     78.07175     155.8954      311.884      1.610     3.63     851.3409     54.98556     579.0784        24     1.346     0.958 -75.35   0
       235    680.0339    676.9380 307.6322766  +6.4113293     1080.344     1498.907      1437.07     78.07175     156.0815      311.884      1.483     3.83     851.5219     54.98556     206.7509        12     1.198     0.687 -37.05   0
       236    991.1106    673.0005 307.5032323  +6.4233603     9038.023     13722.14     13951.44     77.44965     155.5226     311.6046      1.583     3.65     848.3712     54.98556     1203.786        36     1.427     1.066 -68.80   0
       237    929.5139    673.4490 307.5287960  +6.4211172     2580.878     3531.636     3865.541     78.19557     155.9575      311.977      1.543     3.62     848.5869     54.98556     333.1432        17     1.258     0.799 -73.76   0
       238     10.4243    672.8131 307.9104571  +6.3905238     1841.145      3246.39     4275.892     77.94772     155.8334      311.884      2.134     3.99     852.5922     54.98556       243.49        16     1.293     0.864 -74.35   0
       239    979.4150    672.9705 307.5080900  +6.4229820     557.6439     814.9547     543.2615     77.82351     155.7713      311.884      1.331     4.88     848.4136     54.98556     114.7484         5     1.080     0.626 -32.86   0
       240    543.8200    671.8987 307.6890083  +6.4088428     614.7383     770.1548     158.8354     78.19557     155.8954     311.7288      1.388     4.49     851.9934     54.98556     89.49292         8     0.886     0.646 -46.58   0
       241    426.9888    670.7838 307.7375588  +6.4053813      580.326     927.8594     1275.081     77.94772     155.7092     311.8529      1.982     2.56     852.3062     54.98556      105.822         5     0.778     0.476  57.95   0
       242     68.4519    667.7115 307.8865360  +6.3945860     26904.68     39708.62     41686.88     78.19557     155.8334      312.039      1.599     3.58     852.5037     54.98556      3440.37        51     1.518     1.094 -65.59   0
       243    529.7531    668.7250 307.6949563  +6.4096810     2071.002     3069.433     3354.125     78.07175     156.0815      311.946      1.562     3.70     851.9459     54.98556     315.1479        18     1.375     0.802 -66.54   0
       244    498.5367    665.9061 307.7080136  +6.4097970      1448.27     2012.242     2096.979     78.19557     156.0815      312.008      1.501     3.65     851.9592     54.98556     233.7731        13     1.152     0.715 -66.24   0
       245    919.3566    665.1949 307.5332907  +6.4241850     1080.277     1500.293     1922.771     77.57447     155.7092     311.6357      1.651     3.69     848.5959     54.98556     166.5778        14     1.250     0.763 -71.85   0
       246    538.6923    662.3787 307.6914580  +6.4126006      1121.82     1767.172     1475.968     78.07175     155.8334     311.7599      1.692     5.60     851.6604     54.98556     148.9088        14     1.224     0.846 -71.64   0
       247    714.4691    660.1351 307.6185420  +6.4194188     3739.792     5115.137     5252.566     78.19557     156.0815      311.977      1.472     3.48     850.9017     54.98556     530.8824        20     1.247     0.873 -58.13   0
       248    736.4166    658.3287 307.6094889  +6.4208995     4373.448     6243.979      6522.25     77.69909     155.9575     311.8529      1.505     3.43     850.8077     54.98556     664.8801        24     1.374     0.880 -67.14   0
       249    567.9309    656.3186 307.6795207  +6.4160829       3376.3     4898.251     5404.984     78.44263     156.2674      311.977      1.526     3.57     851.3878     54.98556     483.4085        19     1.252     0.850 -68.63   0
       250    404.0976    656.6933 307.7475390  +6.4104287     1263.791     1870.421     1688.856     78.19557     156.5766     311.8529      1.554     4.09     851.8065     54.98556      227.593        12     1.364     0.598 -64.88   0
       251    312.0013    655.2943 307.7858280  +6.4079108     1443.057     2361.441     2314.319     77.69909      155.647     311.6046      1.775     4.76     852.0493     54.98556     210.3796        15     1.425     0.796 -58.21   0
       252    228.4085    655.7612 307.8205226  +6.4049060     1834.628     2633.994     3153.639     77.57447     155.7713     311.6667      1.595     3.94      851.517     54.98556     270.7911        13     1.166     0.702 -68.88   0
       253   1009.4087    654.5621 307.4962516  +6.4315826     5283.633      7772.87     7446.452     77.44965     155.7713     311.6978      1.601     3.58     847.1464     54.98556     740.2769        28     1.377     1.004 -72.13   0
       254    974.8154    653.3425 307.5106579  +6.4309307      8358.52     12441.37     12468.95     77.57447     155.9575     311.6667      1.584     3.58     847.4102     54.98556     1110.716        33     1.427     1.024 -70.88   0
       255    528.7802    653.8060 307.6958626  +6.4158067     516.1844      649.068     496.4183     77.82351     155.7092     311.7599      1.272     4.35     851.4077     54.98556     84.83575         5     0.792     0.681 -56.98   0
       256    694.5300    652.0184 307.6270947  +6.4221014     1040.564     1478.221     1543.159     77.82351     155.8954      311.884      1.433     3.81     850.6839     54.98556     201.2372        11     1.245     0.664 -76.32   0
       257     85.8464    650.0385 307.8799112  +6.4024671     898.7915     1411.502     1978.941     78.07175     155.9575     311.7909      1.877     4.11     852.0368     54.98556     163.6841         9     1.089     0.652 -50.67   0
       258    420.1584    647.5866 307.7411769  +6.4147273     2936.897     4462.436     5065.983     77.57447     155.8334     311.6978      1.597     3.64     851.3906     54.98556     449.8727        23     1.323     0.976 -77.89   0
       259    133.2036    646.6257 307.8603628  +6.4054714     25136.34     37298.59     38690.34     77.69909     155.7092     311.7909      1.608     3.56      851.563     54.98556     3546.798        51     1.517     1.105 -64.52   0
       260    801.5772    647.5301 307.5827930  +6.4275381     1252.623     1784.494     1458.375     77.82351     155.8954      311.915      1.534     4.30     850.0187     54.98556       183.21        12     1.227     0.747 -51.92   0
       261    353.0221    641.3818 307.7692639  +6.4150326     808.0347     1168.343     673.5431     77.94772     155.9575      311.884      1.558     2.63     850.9417     54.98556     145.5089         9     0.875     0.660 -69.08   0
       262    969.5921    636.3711 307.5133959  +6.4377619     7113.432     11222.02     12148.35     77.82351     155.8334     311.7599      1.748     3.80     846.6372     54.98556     905.5417        37     1.411     1.264  77.10   0
       263   1023.6382    631.8828 307.4911023  +6.4414196      35364.3     47064.59     49346.33     68.42996     124.4181     235.0399      1.302     3.86     845.3631     54.98556     9022.127        43     1.702     0.655 -89.51  24
       264     14.5129    635.4879 307.9100224  +6.4060683     1184.905     1759.478     1405.249     77.94773     156.3911      312.039      1.610     4.33     852.6408     54.98556     189.6791        16     1.347     0.831 -79.37   0
       265    563.2133    631.5420 307.6823137  +6.4261520     50990.38     73576.29     76564.41     77.57447     155.9575     311.6667      1.562     3.48     850.5401     54.98556     7401.063        67     1.515     1.122 -67.59   0
       266    927.6779    633.1318 307.5309104  +6.4376986     659.1879     975.2101     1084.446     78.31921     156.0815      311.946      1.733     5.77     847.3256     54.98556     99.93982         8     1.218     0.769 -77.43   0
       267    206.2973    632.7647 307.8304805  +6.4136542       740.16     1131.839     954.5677     78.19557     155.8954      312.101      1.812     4.06     851.0205     54.98556     111.2793         7     1.081     0.436 -61.10   0
       268    787.8571    631.2377 307.5890376  +6.4338043     555.5982     922.0864     597.3405     78.19557     156.0815      311.946      1.828     4.01     849.6463     54.98556     110.6801         5     1.202     0.529 -63.66   0
       269    522.4271    631.5587 307.6992498  +6.4247768     805.8752     1056.378     1169.825     77.82351     155.8954     311.7909      1.706     4.71     850.6233     54.98556     136.4113         6     1.091     0.576 -68.91   0
       270    170.5924    628.1135 307.8454635  +6.4143720     2987.279     4640.627     4409.509     77.82351     155.7092     311.7288      1.648     3.59     850.9512     54.98556     415.3962        25     1.365     1.007 -70.38   0
       271    973.9756    628.4509 307.5118411  +6.4411778     671.1373     1172.647     1374.766     77.82351     156.0195     311.8529      1.888     4.51     846.1599     54.98556     95.26154         7     0.972     0.594 -57.07   0
       272    493.5400    628.0433 307.7113637  +6.4252584     552.7639     627.3368     646.2252     78.07175     156.0195       312.07      1.098     3.80     850.5133     54.98556     101.8035         6     0.841     0.492 -83.45   0
       273     63.4145    622.1174 307.8901697  +6.4132360     1313.398     1993.811     1866.534     77.82351     155.7713     311.7599      1.660     4.47     851.7808     54.98556     205.5556        14     1.263     0.767 -69.87   0
       274    460.4609    615.3013 307.7255292  +6.4294076     64682.14     94980.83      99428.7     77.94773     155.9575       312.07      1.571     3.47     850.0328     54.98556      9061.95        71     1.524     1.151 -67.68   0
       275      4.1898    616.7251 307.9149438  +6.4134647     1838.776     2542.629     2592.567     77.82351     154.6493     275.8675      1.503     3.93     852.8845     54.98556      275.964        16     1.165     0.946 -68.09  16
       276    134.7897    610.3672 307.8609297  +6.4204913     1804.982     2481.441     2175.953     77.69909     155.7713     311.7909      1.469     3.99     850.6964     54.98556     240.0788        14     1.176     0.792 -69.82   0
       277    930.0369    608.2068 307.5307667  +6.4480663     773.4094     1149.194     1035.186     77.44965     155.7713     311.7288      1.458     4.86     846.4476     54.98556     120.6389         8     1.136     0.591 -44.77   0
       278    414.2325    608.2892 307.7449622  +6.4307494     879.2697     1169.158     1423.002     78.31921     155.8334      311.946      1.459     3.73     849.7374     54.98556     125.7995        12     1.139     0.698 -44.68   0
       279    606.5805    607.2737 307.6651215  +6.4376240     980.8221     1341.505     1775.207     77.82351     155.9575      311.884      1.507     3.35     849.5287     54.98556     154.0794        10     1.008     0.727 -58.52   0
       280    954.0231    606.3582 307.5208676  +6.4496309     515.8445     629.4193     623.1935     77.82351     155.8954     311.7288      1.407     4.39     845.6859     54.98556     85.60907         6     1.175     0.468 -72.62   0
       281    305.7697    604.5947 307.7901263  +6.4286289     2308.505     3731.416      3811.04     77.69909     155.8334     311.7288      1.761     3.67     849.4191     54.98556     323.9543        25     1.428     1.103 -77.05   0
       282    646.3270    612.4202 307.6484430  +6.4368320     839.3069     1204.378     1136.882     77.82351     155.9575      311.884      1.489     4.49     849.4519     54.98556     132.1436         8     1.141     0.533 -67.55   0
       283    488.3406    605.7374 307.7142741  +6.4342914     527.1818     692.6159     1244.543     78.19557     155.9575      311.977      1.535     4.24     849.7092     54.98556     73.75134         6     1.130     0.455  82.58   0
       284    457.6062    603.3779 307.7271164  +6.4342334      834.998     1532.729      2344.11     77.82351     155.8334     311.7909      2.109     6.10       849.62     54.98556     122.1834        13     1.578     0.663 -43.97   0
       285    732.5373    598.8621 307.6130980  +6.4453167     5657.692     8161.288     8166.625     78.19557     156.0195      311.977      1.523     3.43     849.4012     54.98556     795.5432        27     1.445     0.909 -68.59   0
       286   1003.7084    594.7915 307.5006217  +6.4560652     1110.812     1803.175     1804.557     77.82351     155.7092     311.7288      1.622     5.76     844.0061     54.98556     183.7515        13     1.685     0.805 -57.92   0
       287    786.0791    594.1670 307.5910209  +6.4490472     14826.31     21407.24     22207.52     78.07175     156.0195      311.946      1.512     3.43     848.7781     54.98556     2160.824        37     1.381     1.023 -68.88   0
       288    528.3446    593.6414 307.6980692  +6.4406270     1248.125     1989.711     2159.137     78.07175     156.0195      311.946      1.842     6.21      849.424     54.98556      185.769        16     1.651     0.805 -78.32   0
       289    609.8820    592.2789 307.6642550  +6.4439243     3145.748     4513.788     4767.511     78.31921     156.2674      312.101      1.534     3.44     849.2098     54.98556     451.5562        20     1.274     0.892 -60.99   0
       290    927.2553    588.3888 307.5325865  +6.4561540     1183.124     1994.892      2503.62     77.57447     155.9575     311.6357      1.822     3.60     845.7878     54.98556     176.3665        11     1.124     0.708 -48.70   0
       291    352.7006    585.9361 307.7712675  +6.4379086     490.0497     786.3887     669.4535     78.19557     156.0815      311.977      1.736     6.83     848.2819     54.98556     79.85608         7     1.600     0.817 -39.97   0
       292    222.5546    585.6926 307.8253196  +6.4336315     1259.597      1826.41     1684.706     78.19557     155.9575       312.07      1.531     4.41      849.606     54.98556      187.061        13     1.252     0.803 -55.83   0
       293    186.1517    586.8245 307.8403976  +6.4319388     666.5842     977.7203     1552.981     77.82351     156.0195     311.8529      1.603     4.79      850.041     54.98556     103.5396         7     1.028     0.658 -58.07   0
       294    368.4449    585.8570 307.7647322  +6.4384705     963.7136     1380.165     1129.678     78.19557     156.0195      311.977      1.536     4.62     848.4322     54.98556     134.7031        11     1.026     0.817 -44.02   0
       295    862.0352    577.4496 307.5600387  +6.4584892     2950.253     4260.834     4879.766     78.07175     156.0195     311.8529      1.568     3.68     847.6196     54.98556     431.6907        24     1.385     0.919 -64.98   0
       296    157.2194    576.8240 307.8527497  +6.4350925     747.8478     1044.814     736.7495     77.94772     155.8334      311.884      1.453     5.57      850.191     54.98556     114.2048        10     1.097     0.797 -86.22   0
       297    820.9566    574.9152 307.5771833  +6.4581613      2742.98     4065.643     4644.825     78.19557     155.8954      311.915      1.562     3.53     848.0118     54.98556     419.9354        19     1.253     0.874 -62.79   0
       298    791.7426    570.6600 307.5894585  +6.4589402     2793.712     3855.427     4875.564     78.31921     155.9575      311.977      1.563     3.62     848.2927     54.98556     405.2404        21     1.338     0.860 -58.76   0
       299    248.9319    569.6889 307.8149067  +6.4411251     8037.409     12079.22     12297.86      78.3192     156.2054      311.915      1.602     3.56     848.7111     54.98556     1190.024        33     1.461     1.035 -70.40   0
       300    801.4818    566.0103 307.5855700  +6.4611855     167945.5     241831.2     252921.1     77.82351     155.7092     311.7909      1.539     3.51     848.0728     54.98556     23548.54       123     1.574     1.228 -66.24   0
       301    734.5967    570.9243 307.6131816  +6.4569181     866.9985     1208.822      1540.59     77.69909     155.5226     311.8529      1.626     4.84     849.0392     54.98556     137.4448         9     0.932     0.713 -32.35   0
       302    852.4609    568.1613 307.5643266  +6.4620031     615.4573     856.0335     1207.514     78.19557     156.0815      311.977      1.381     3.42     847.4037     54.98556     118.0939         5     0.845     0.401  66.54   0
       303    183.0744    564.2529 307.8424381  +6.4411522     59053.25     89749.14     95357.72     78.19557     156.0815      311.946      1.630     3.58     849.5629     54.98556     8016.195        83     1.608     1.247 -65.45   0
       304    731.2753    566.4835 307.6147101  +6.4586400     587.6117     818.4017     749.8143     78.31921     156.3293      312.008      1.519     3.21     848.9202     54.98556     122.3471         6     0.890     0.447  89.95   0
       305    107.0760    560.5408 307.8741222  +6.4401244     6652.377     9634.869     10080.14      78.3192     156.0815      311.915      1.558     3.53     850.1041     54.98556     957.3846        31     1.401     1.025 -67.15   0
       306    972.5015    557.7380 307.5148238  +6.4703183     1387.353     2050.732     1806.706     77.94772     156.1435      312.008      1.485     4.53     843.7463     54.98556     214.9445        15     1.276     0.823 -34.31   0
       307    993.0042    556.9363 307.5063358  +6.4713341     805.6102     1390.352     1563.377     77.44965     155.7713     311.7288      1.863     4.27     843.3452     54.98556      127.075        10     0.955     0.839 -38.79   0
       308    221.4035    555.8343 307.8268060  +6.4459175     810.6836     1328.881     1469.543     77.44965     155.8954     311.7288      1.623     5.06     848.4772     54.98556     112.9611         9     1.104     0.656 -49.57   0
       309    838.0262    553.4418 307.5708153  +6.4675963     4733.692     6693.233     6511.479     77.82351     155.9575     311.7909      1.532     3.68     847.1287     54.98556     618.0521        26     1.338     0.962 -63.40   0
       310    356.4079    551.3802 307.7708936  +6.4522971     17772.96      26495.4     28055.75     77.82351     155.7713     311.7599      1.641     3.55     847.4645     54.98556     2334.113        48     1.518     1.134 -72.72   0
       311    446.5511    551.5305 307.7334544  +6.4552638     846.4521     1210.805     992.0732     78.19557     155.9575      311.977      1.611     5.35     847.9832     54.98556     126.6777        10     1.133     0.713 -54.68   0
       312    158.4178    550.4280 307.8531441  +6.4460283     2075.577     3066.706      3760.34     77.82351     155.8334     311.8529      1.592     3.53     849.8409     54.98556     307.9926        20     1.279     0.946 -79.17   0
       313    903.1472    549.1345 307.5439152  +6.4715521     597.9239     897.5163     851.5901     78.19557     155.9575      311.915      1.812     5.20     845.1351     54.98556     81.83588         7     1.245     0.613  84.87   0
       314    233.5218    548.0837 307.8220355  +6.4495246      913.497     1288.547     1469.528      78.3192     156.3293      312.039      1.454     4.44     847.9794     54.98556     134.1787         9     1.106     0.695 -75.02   0
       315    791.9750    546.6179 307.5901694  +6.4688723     6139.226     8720.826         8899     77.94772     155.8954      311.884      1.526     3.57     847.8613     54.98556      942.201        26     1.337     0.914 -68.15   0
       316    522.8065    546.3278 307.7019622  +6.4599714     6791.403     9948.195     10605.09     77.82351     155.5848     311.8529      1.548     3.49     848.2828     54.98556     964.9784        28     1.384     0.960 -67.25   0
       317     95.5507    547.6802 307.8793429  +6.4450445     844.4644     1375.795     1542.262     78.19557     156.0815      311.946      1.665     4.99     849.9617     54.98556      118.236        11     1.226     0.624 -50.80   0
       318    381.3701    542.6553 307.7608217  +6.4567375     1379.393     2159.716     2507.344     77.94772     156.0815      311.915      1.698     4.41     847.2317     54.98556     175.0871        16     1.293     0.931 -62.79   0
       319    808.5005    538.8564 307.5835670  +6.4726292     1500.544     2265.041     2037.891     77.94772     156.0195      312.163      1.562     4.78       847.35     54.98556     200.8658        14     1.298     0.760 -77.59   0
       320    567.4048    539.4510 307.6836727  +6.4643063     2496.824     3966.005     3816.575     77.57447     155.8334     311.5736      1.709     4.20     848.0262     54.98556     364.0692        22     1.505     0.909 -47.92   0
       321    169.8134    539.3994 307.8487847  +6.4509644     7007.772     10329.84     10474.55     77.82351     155.7092     311.7288      1.580     3.55     849.2885     54.98556     979.5089        29     1.381     1.005 -68.78   0
       322    265.0713    535.8735 307.8093463  +6.4556263     88656.95     133893.9       140752     78.44263     156.1435      311.977      1.626     3.55     847.1957     54.98556     12186.47        90     1.614     1.220 -67.63   0
       323     41.4158    538.0587 307.9021481  +6.4471910     5081.769     7754.745     7932.155     77.57447     155.9575     311.6978      1.613     3.66     850.5346     54.98556     655.6142        30     1.458     1.025 -75.60   0
       324    554.9393    533.4052 307.6890531  +6.4663838     847.1384     1272.428     900.8404     77.69909     155.8954     311.7288      1.625     4.80     847.7856     54.98556     127.0884         9     1.301     0.623 -45.52   0
       325    248.8521    531.0041 307.8162461  +6.4570905     1397.641     1990.942     2020.814     77.57447     155.8334     311.5736      1.505     4.04     847.2396     54.98556      233.699        15     1.244     0.928 -42.39   0
       326    788.2134    528.4234 307.5923427  +6.4762569     17215.09     24442.23     24943.23     77.94772     155.8334     311.8529      1.536     3.62     847.4435     54.98556     2444.133        39     1.418     1.006 -69.07   0
       327    491.8513    526.7343 307.7154774  +6.4670203     41163.84     66835.19      71353.4     78.07175     155.9575      311.946      1.762     3.61     847.5231     54.98556     5167.387        77     1.602     1.406 -60.69   0
       328    642.0153    525.3330 307.6531626  +6.4726358     938.3468     1476.936     1617.964     77.69909     155.8954     311.8529      1.668     5.53     847.4963     54.98556      155.513        12     1.274     0.696 -61.44   0
       329    651.7964    521.8588 307.6492174  +6.4743977     2976.639     4669.864     5127.674     77.57447     155.8954     311.6978      1.686     3.63     847.4286     54.98556     442.3551        26     1.456     0.937 -71.58   0
       330    964.7217    529.5532 307.5189997  +6.4816929     1676.382     2133.592     2550.089     78.19557     156.0815      311.915      1.447     4.66     843.2311     54.98556      218.469        13     1.253     0.727 -58.84   0
       331    204.3459    522.9278 307.8350010  +6.4589262     2044.485     3263.247     3823.409     78.07175     155.8954      311.884      1.716     3.96     847.9217     54.98556     232.1383        18     1.230     0.938 -70.12   0
       332     39.9909    523.3452 307.9032377  +6.4532162     1219.085     1803.736     1930.595     77.57447     155.9575     311.6667      1.791     4.22     850.2325     54.98556     164.1008        13     1.167     0.800 -56.03   0
       333    662.1242    521.8849 307.6449274  +6.4747331     1457.125     1996.523     2147.427      78.3192     156.3293      312.008      1.516     4.36     847.4305     54.98556     184.2983        13     1.148     0.766 -61.27   0
       334     90.6078    523.1921 307.8822237  +6.4549858     577.3315     985.6268     1034.616     77.57447     155.8334     311.8219      1.383     3.38     849.3706     54.98556     101.9618         5     0.779     0.426 -68.49   0
       335    713.9802    520.8496 307.6234264  +6.4768978     1275.471     2086.979     1919.608     77.69909     156.0815     311.7909      1.675     4.09     847.6715     54.98556      197.403        14     1.276     0.769 -47.66   0
       336     70.5831    518.7220 307.8906904  +6.4561559     756.2006     1226.741     1469.939     77.82351     155.7713     311.8219      1.830     6.01     849.6071     54.98556     149.6501         9     1.345     0.756  69.75   0
       337    389.6638    517.4000 307.7582291  +6.4674411     1746.178     2440.786     3051.184     77.44965     155.7713     311.6667      1.557     3.76     846.1883     54.98556     254.7104        14     1.212     0.744 -60.67   0
       338    320.9581    515.6682 307.7868199  +6.4658464     4156.626     6286.946     6610.409     78.07175     155.9575      312.039      1.626     3.67     845.7553     54.98556     558.2249        25     1.372     0.992 -73.83   0
       339    136.1864    514.2173 307.8635999  +6.4602262     26247.79     39562.71     41325.97     77.94772     155.7092     311.8529      1.610     3.66     848.7195     54.98556     3544.864        53     1.516     1.124 -65.34   0
       340    501.0103    515.0811 307.7120663  +6.4721379     2183.358     3390.158     3725.654     77.82351     155.7092     311.7909      1.710     3.94     847.0369     54.98556     304.9119        18     1.242     0.856 -72.20   0
       341    864.0974    514.4705 307.5612960  +6.4845553     1606.843     2155.231      2098.11     78.07175     156.2054      311.977      1.461     3.57     844.9571     54.98556     278.0251        11     1.149     0.655 -74.00   0
       342    101.4100    512.3881 307.8781033  +6.4598094     2719.292     4203.963     4509.332     77.94773     155.8334      311.915      1.710     3.85     848.9199     54.98556     364.9514        22     1.363     0.984 -70.15   0
       343    961.7498    508.9355 307.5209253  +6.4901044     5387.983     7912.024     8123.962     78.07175     155.9575      311.977      1.526     3.47     842.9071     54.98556     805.1053        26     1.406     0.914 -62.92   0
       344    338.5404    510.7118 307.7796855  +6.4684834     1115.493     1743.791     1857.765     78.07175     156.0195      312.039      1.652     5.09     845.4756     54.98556     170.8998        13     1.284     0.926  17.80   0
       345    534.9258    501.6837 307.6984326  +6.4788064      1452.96     2116.109     2389.889      78.3192     156.3293      312.008      1.539     5.34     846.5317     54.98556     207.2787        15     1.412     0.790 -60.69   0
       346      1.4979    498.2786 307.9200706  +6.4622645     15152.65     18946.93     19413.44      69.8295     126.6531     237.4969      1.191     3.48     850.4965     54.98556     3231.852        31     1.435     0.733 -89.70  24
       347    433.1832    495.4011 307.7408977  +6.4779839     43337.76     64991.58     67924.65     77.82351     155.5848     311.6357      1.624     3.58     845.9086     54.98556     6083.046        63     1.537     1.157 -69.79   0
       348    641.2137    495.1654 307.6545103  +6.4850617     12424.09      18416.4     18768.68     77.69909     155.7713     311.8219      1.577     3.55       846.79     54.98556     1766.354        41     1.501     1.021 -68.91   0
       349    281.0301    495.3018 307.8040887  +6.4729102     1102.452     1680.884     2081.399     78.19557     155.7713      311.977      1.867     4.89     844.8871     54.98556     154.8267        14     1.344     0.823 -70.37   0
       350    163.9371    494.0333 307.8527581  +6.4694923       1785.2     2631.416     2421.651     78.07175     156.0815      311.915      1.509     3.95     847.6924     54.98556     262.2181        17     1.346     0.807 -82.48   0
       351    974.9902    493.4529 307.5159454  +6.4969379     1247.788     2029.518     2023.084     77.57447     155.8954     311.6667      1.768     4.06     842.4118     54.98556     203.8625        11     1.157     0.632 -73.24   0
       352    903.4008    493.5594 307.5456745  +6.4945014     705.1879     852.5121     866.9845     77.44965     155.7092     311.6667      1.265     4.99     843.5287     54.98556     118.4459         8     1.085     0.649 -42.61   0
       353    815.3379    492.9730 307.5822682  +6.4917982     1030.581     1630.493     1596.303     77.82351     156.0815      311.884      1.543     4.52     845.9256     54.98556     136.0944        10     1.209     0.587 -77.34   0
       354    562.9780    491.9225 307.6871111  +6.4837768     2903.133     4298.118     4527.503     77.82351     155.8334      311.915      1.539     3.69     846.1916     54.98556     397.3717        21     1.283     0.938 -62.82   0
       355    936.8888    489.1526 307.5319140  +6.4974399      4957.87     7089.725     7144.613     78.19557     155.8954      312.101      1.491     3.39     842.9591     54.98556     725.3456        25     1.361     0.938 -68.67   0
       356     97.6978    487.8856 307.8804735  +6.4697982     1266.044     2075.834      2025.42     78.19557      156.453      312.008      1.718     5.15     848.2448     54.98556     196.9313        15     1.459     0.748 -79.30   0
       357    609.9792    487.4649 307.6677413  +6.4871932     6705.608     9742.544     10447.57     77.82351     156.0195     311.8219      1.569     3.62     846.1586     54.98556     939.8282        28     1.401     0.954 -67.49   0
       358    959.5237    481.4274 307.5227723  +6.5013852     3595.207     5155.377      5332.21     78.07175     156.0195      311.915      1.550     3.84     842.4429     54.98556     524.9167        22     1.378     0.866 -73.36   0
       359    522.1679    478.8530 307.7044998  +6.4878024     7547.557      11329.1     11956.89     78.07175     156.0195     311.8529      1.591     3.55     845.5348     54.98556     1047.238        33     1.517     1.016 -70.64   0
       360    198.3151    492.9560 307.8385180  +6.4710947     19093.79     30022.16     31788.87     78.19557     155.9575      311.915      1.703     3.67     847.1635     54.98556     2452.435        54     1.551     1.271 -74.08   0
       361    397.8601    480.0700 307.7560841  +6.4831255     719.4041       937.02       757.42     78.31921     156.0195      311.977      1.519     5.16      844.866     54.98556     98.09485         8     1.073     0.701 -64.47   0
       362    368.1943    478.8254 307.7684462  +6.4826423     2566.639     4043.733     4019.101     77.69909     155.8334     311.7909      1.641     3.65     844.1077     54.98556     358.0093        23     1.347     0.945 -70.91   0
       363    738.0068    478.9621 307.6148558  +6.4949931      563.999     736.5295     302.9614     77.44965     155.7713     311.6978      1.377     3.72     846.1771     54.98556     109.3241         5     0.999     0.399 -46.01   0
       364    878.7321    474.6370 307.5565549  +6.5014877     3416.867     4964.308     6331.522     78.07175     156.0195       312.07      1.659     3.98     843.2355     54.98556     478.0446        23     1.357     0.933 -66.20   0
       365    531.8951    475.4179 307.7005758  +6.4895467      664.203     900.0247     998.5538     78.07175     155.8334     311.7909      1.415     3.82     845.2731     54.98556     109.5267         7     0.874     0.603 -76.63   0
       366    226.6718    474.0034 307.8273822  +6.4798724     576.2602     783.9353     817.9039     77.69909      155.647     311.7909      1.563     4.12     846.1331     54.98556     92.73041         6     1.373     0.352 -76.48   0
       367    886.1636    468.9055 307.5536607  +6.5041021     2221.712     3313.382     3071.392      78.3192     155.8954      312.039      1.555     4.26     843.0565     54.98556     315.0353        18     1.288     0.902 -74.96   0
       368    925.4973    468.6095 307.5373343  +6.5055392     1292.087     1845.294     1510.893     77.94773      155.647     311.7599      1.535     3.67     842.7187     54.98556     174.4443        12     1.058     0.746 -55.75   0
       369    104.8612    468.2573 307.8781625  +6.4781415      786.034     1044.277     515.3992     78.31921     155.9575      311.977      1.432     3.69     847.5578     54.98556      141.207         7     0.934     0.536 -59.56   0
       370    710.1501    465.0081 307.6268942  +6.4998201     2881.947     4307.941      4430.33     77.69909     155.8334     311.6357      1.552     3.75     845.5889     54.98556     385.0468        20     1.272     0.937 -67.20   0
       371     71.8409    464.0293 307.8920182  +6.4787737     1873.201     2921.353     3221.905     77.82351     155.8334     311.7909      1.651     4.45     847.9924     54.98556     235.1188        17     1.345     0.873 -64.64   0
       372    856.3358    464.3895 307.5662006  +6.5049687     473.0541     855.9808     913.9523     77.69909     155.8334     311.8529      2.155     5.55     843.4361     54.98556     71.76288         6     1.099     0.790 -48.75   0
       373    380.9473    463.1426 307.7636788  +6.4895444     3658.399     5376.923     5462.989     78.19557     156.0195      311.946      1.570     3.64     843.5532     54.98556     532.7025        24     1.364     0.919 -67.34   0
       374    421.3255    463.6120 307.7468938  +6.4907075     974.4181     1473.258     1452.054     77.69909     155.7092     311.7288      1.635     4.49     844.1984     54.98556     136.9002        11     1.130     0.833 -34.59   0
       375    608.6391    459.6976 307.6692323  +6.4986101     10394.78     15210.23     15942.39     78.19557     155.8954      312.163      1.589     3.53     844.4407     54.98556     1367.469        35     1.422     1.029 -67.02   0
       376    771.4007    456.2851 307.6017486  +6.5054720     16951.15     24421.56     25267.46     77.44965     155.5226     311.6357      1.548     3.53     844.8107     54.98556     2431.586        40     1.449     0.994 -66.87   2
       377    775.3636    451.5838 307.6002606  +6.5075453     1293.109     1803.485     2244.517     77.82351     155.8334     311.7288      1.424     3.42     844.5788     54.98556     212.6268        10     1.089     0.634 -56.29   3
       378    291.0254    456.5672 307.8012453  +6.4892351     2680.226     3968.632     3803.755     77.69909     155.8334     311.7909      1.549     3.68     843.1343     54.98556     357.2474        23     1.358     0.939 -73.71   0
       379    414.8504    455.5492 307.7498548  +6.4938181     677.9142     980.0847     906.0695     78.19557     155.8954      311.884      1.554     4.79     843.5979     54.98556     102.8151         8     1.266     0.514 -76.79   0
       380    800.4809    453.2096 307.5897741  +6.5077149     1240.182      1935.04     1784.595     77.82351      155.647     311.7909      1.722     3.57     844.6117     54.98556     211.8711        13     1.235     0.745 -68.82   0
       381    374.1396    453.2473 307.7668398  +6.4934002      1534.15     2313.827     2838.437     78.19557     156.0195      312.008      1.722     3.96     842.9415     54.98556     234.5098        13     1.179     0.720 -71.79   0
       382    956.6384    451.1384 307.5249864  +6.5137918     2012.119     3044.552     2778.881     78.19557     156.0815      311.977      1.628     4.37     841.5094     54.98556     271.4043        16     1.369     0.786 -69.32   0
       383    704.9550    450.3490 307.6295447  +6.5056972     638.0644     929.0367      522.543      78.3192     155.9575      311.977      1.471     5.18     844.6787     54.98556     110.9686         7     1.034     0.733 -88.56   0
       384    362.5719    449.2873 307.7717776  +6.4946460     736.9395     964.0285     1051.467     78.31921     155.7713     311.8219      1.527     4.82     842.6414     54.98556     89.02716         8     0.997     0.662  89.46   0
       385    108.7629    448.0511 307.8772255  +6.4866135     4543.348     6650.316     7072.083     77.94772     156.0195      311.884      1.544     3.43     846.9131     54.98556     615.1368        26     1.276     1.012 -60.55   0
       386   1010.6104    445.9688 307.5027431  +6.5177287      4089.56     6898.216     7003.961     77.69909     155.7713     311.7909      1.796     4.10     839.7396     54.98556     413.6152        28     1.313     1.239 -75.91   0
       387    747.0291    447.1368 307.6121782  +6.5084323      2358.07     3284.262     3172.236     77.94772     156.0195      311.884      1.480     3.51     844.3165     54.98556     329.3754        15     1.132     0.849 -83.14   0
       388    266.7380    445.0238 307.8117216  +6.4931828     1487.229     2325.007     2801.542     77.82351     156.0195     311.8529      1.622     3.71     843.5545     54.98556     213.4985        16     1.329     0.762 -62.29   0
       389    344.8584    442.8514 307.7793512  +6.4967070     3186.204     4862.291      5194.96     78.19557     156.0195      311.946      1.651     3.95     842.3629     54.98556     454.0134        23     1.371     0.904 -69.62   0
       390    700.8796    440.7559 307.6315598  +6.5095205     1589.438     2303.763     2039.934     78.19557     156.0195      311.946      1.498     3.81     844.1245     54.98556     238.9329        16     1.238     0.886 -69.33   0
       391    974.5772    439.1591 307.5179374  +6.5193361     733.6332     948.4586      1180.03     77.82351     155.8334     311.7288      1.585     6.63     840.5327     54.98556     112.1257        10     1.482     0.832  81.80   0
       392    232.4465    438.3202 307.8261893  +6.4947958      780.347     1200.291     913.6826     78.19557     156.0195      311.946      1.870     5.37     844.4822     54.98556     122.3086        10     1.308     0.622 -66.84   0
       393    542.2039    433.6625 307.6977005  +6.5071285     1012.888     1566.582     1665.246     77.57447     155.7713     311.6978      1.645     5.31      842.523     54.98556     123.8307        13     1.067     0.982 -78.77   0
       394    443.8537    434.4003 307.7385224  +6.5035222     675.0961     979.0658     965.1825     77.44965      155.647     311.5115      1.593     4.93     842.0974     54.98556     98.22229         9     0.938     0.733  73.28   0
       395    826.7657    430.8242 307.5796090  +6.5178349     1429.508      2272.41     2583.184     77.69909     155.8334     311.7288      1.634     4.86     843.0234     54.98556     205.4038        17     1.618     0.764 -72.84   0
       396    464.4885    431.9776 307.7300340  +6.5052152     1468.004     2242.298     2305.421     78.19557     155.8334     311.8219      1.617     3.55     841.9709     54.98556     203.2285        13     1.144     0.739 -72.41   0
       397    612.0235    430.2918 307.6688162  +6.5108619     880.2186     1272.237      1517.79     78.19557     155.8334     311.7909      1.501     5.53      842.374     54.98556     127.6428        11     1.343     0.642 -78.63   0
       398    812.4710    429.9071 307.5855769  +6.5177351      2092.74     2897.675     2838.262     78.07175     156.0815      311.977      1.481     3.54     843.1755     54.98556     308.6532        18     1.261     0.856 -58.55   0
       399    709.8889    427.9791 307.6282476  +6.5150965     15412.85     22574.81     23378.87     78.07175     155.7713     311.8219      1.541     3.66     843.2744     54.98556     2218.867        43     1.456     1.062 -71.91   0
       400    630.9896    424.0631 307.6611486  +6.5140689     2684.653     4110.707     4915.523     77.69909     155.8334     311.7599      1.575     3.59     842.2985     54.98556     362.2025        22     1.397     0.952 -63.37   0
       401    703.6703    422.8915 307.6310014  +6.5169882      635.567     951.9623     1431.292     78.07175     156.1435      311.946      1.323     3.84     842.9677     54.98556     116.2528         6     1.041     0.405 -75.64   0
       402    606.1069    421.0685 307.6715840  +6.5144707     5535.591     8367.352     9195.188     78.07175     156.1435      311.977      1.606     3.88     841.6825     54.98556      741.959        26     1.484     0.899 -64.35   3
       403    602.3552    418.4822 307.6732292  +6.5154124     15321.15     22562.65      24201.4     78.19557     156.0195      311.915      1.618     3.51     841.4706     54.98556     2090.152        41     1.473     1.042 -66.22   3
       404    935.2205    417.9362 307.5349957  +6.5267816     4047.235     5612.528     5425.403     77.82351     156.0195     311.8219      1.475     3.64     841.3199     54.98556     548.7433        20     1.235     0.907 -63.68   0
       405    374.2701    413.8175 307.7681157  +6.5096802     29238.67     44099.89     46316.61     77.69909     155.8954     311.8529      1.617     3.60     840.9831     54.98556     3822.414        56     1.525     1.155 -69.95   0
       406    411.1731    414.9277 307.7527517  +6.5104622     728.2776      943.295     1409.665     77.82351     155.9575     311.8529      1.372     3.75     840.8042     54.98556     100.3413         8     0.829     0.680  43.39   0
       407    890.8537    413.1516 307.5535838  +6.5272735     1381.706     2312.987     3415.238     78.19557     156.0195      311.977      1.903     5.34     841.7535     54.98556      222.662        14     1.383     0.698 -80.61   0
       408    120.3921    413.2028 307.8735744  +6.5013896     2394.715     3685.592     3575.828     77.57447     155.7092     311.7909      1.603     3.50     845.7833     54.98556     354.0896        20     1.293     0.931 -71.73   0
       409    904.0681    408.2836 307.5482586  +6.5297248     5382.412     7749.667     8127.692     78.44263     156.2674      311.977      1.550     3.80     841.3464     54.98556     721.6411        27     1.328     1.045 -65.19   0
       410    585.7976    409.3446 307.6804136  +6.5186290     626.1472     840.1046     1215.602     77.57447     155.7713     311.6357      1.447     4.40     841.1638     54.98556      120.886         8     0.969     0.891  87.51   0
       411     53.6347    408.7604 307.9014490  +6.5009729     1519.302      2452.58     3154.337     77.94772     155.8954     311.7599      1.783     4.29     846.1638     54.98556      209.155        17     1.372     0.804 -66.89   0
       412    959.9077    406.7203 307.5251181  +6.5322365     669.2626     668.8336     782.3365     77.94772     156.2674      312.008      1.340     4.64     839.8939     54.98556     108.6714         7     1.190     0.539 -74.86   0
       413    231.7960    404.3062 307.8276084  +6.5088139     13932.77     21018.87     22022.77     77.94772     155.7092     311.6667      1.623     3.65     843.1966     54.98556     1816.607        44     1.523     1.107 -70.18   0
       414     67.2128    398.0989 307.8961707  +6.5058315     717.2375     1108.737     1584.987     77.94772     155.7713     311.6978      1.830     5.68      845.803     54.98556     114.7682         8     1.187     0.765 -81.70   0
       415    726.9387    398.1470 307.6221690  +6.5279818     830.1287     1025.458     1021.438     78.19557     155.9575      311.915      1.365     3.70     842.0539     54.98556     117.3582         9     0.817     0.760 -52.12   0
       416    694.8520    397.5084 307.6355175  +6.5271706     775.3115     1148.901     1156.981     78.07175     155.8334      312.163      1.555     4.34     842.0539     54.98556     101.8219         7     0.878     0.609  79.51   0
       417   1004.2380    397.3015 307.5070212  +6.5376053     478.3098     589.6526     1043.295     78.19557     155.8954      312.163      1.288     4.36     838.1686     54.98556     79.95685         5     0.990     0.547 -50.96   0
       418    955.2953    396.6341 307.5273722  +6.5362458     1108.195     1767.305     2090.338     78.31921     155.8954      312.039      1.810     4.63     839.6674     54.98556     160.9081        10     1.120     0.625 -59.21   0
       419    344.6409    394.1731 307.7810840  +6.5167929     1323.608     2013.118     1672.522     77.82351     155.8334     311.7909      1.636     4.43     840.3096     54.98556      165.979        13     1.223     0.727 -60.26   0
       420    177.7670    394.1041 307.8503920  +6.5112059     889.5495     1361.645     1079.524      78.3192     155.8954      312.039      1.629     5.17     844.1956     54.98556     139.8249        10     1.196     0.632 -69.53   0
       421    131.9907    392.8744 307.8694449  +6.5101714     5189.986     7915.456     8470.016     77.82351     155.5848     311.8219      1.604     3.68     845.0193     54.98556     717.9651        27     1.339     1.048 -67.90   0
       422    371.9785    393.1806 307.7697636  +6.5181217     536.3416     623.7058     993.9312     77.94772     155.9575      311.884      1.205     3.87     839.9416     54.98556     119.1135         5     0.864     0.498 -70.04   0
       423    237.0378    391.8573 307.8258519  +6.5141289     1400.772     2044.671      2078.61     78.19557     156.0815      311.946      1.473     3.73     842.6848     54.98556     247.1407        13     1.178     0.704 -59.32   0
       424    818.1328    389.5278 307.5845815  +6.5345927     856.1027     1025.646     906.3748     78.19557     156.1435      311.946      1.430     3.81     841.5303     54.98556     116.8884        11     1.066     0.765 -85.43   0
       425    154.1424    388.6806 307.8603868  +6.5126488     2489.992     3907.971     3998.622     78.19557     156.0195      311.946      1.700     4.17      844.532     54.98556     332.1001        21     1.411     0.886 -69.30   0
       426    549.5842    387.6700 307.6961841  +6.5263610     926.9454     1444.919      1463.18     77.69909     155.9575     311.8529      1.621     5.93     840.2817     54.98556     125.1912        12     1.372     0.723 -67.86   0
       427    377.4937    383.6623 307.7677940  +6.5222360     2013.782     3220.335     3066.256     78.19557     156.0195      312.008      1.708     3.49     839.4539     54.98556     291.6178        21     1.263     1.030 -64.98   0
       428    265.9038    383.7095 307.8141385  +6.5184636     871.4758     1190.403     1043.677     78.19557     156.5148      311.946      1.512     5.00     841.8878     54.98556     125.5896        11     1.236     0.756 -79.51   0
       429    966.1490    382.9166 307.5233241  +6.5422709     1089.094     1778.675     1912.793     78.19557     155.9575      312.039      1.779     3.99      838.843     54.98556     171.5251        11     1.154     0.635 -74.70   0
       430    311.9357    381.3077 307.7951015  +6.5210036     650.4283     1033.405     1172.644     78.19557     156.2054      312.008      1.554     4.34     840.7178     54.98556     111.5588         6     0.947     0.565 -64.86   0
       431     27.7947    377.8532 307.9132264  +6.5128589     3188.705     5094.276     5917.613     77.57447     155.7713     311.6357      1.735     3.77     845.3939     54.98556     425.8513        28     1.565     0.980 -54.87   0
       432    431.4143    377.1785 307.7456178  +6.5267242     7498.501        11472     12058.85     77.94772     155.7713      311.884      1.615     3.61     838.8756     54.98556     987.0866        36     1.460     1.092 -63.77   0
       433    772.0766    374.6399 307.6042111  +6.5391967     13456.93     19376.11     20018.75     78.07175     156.0195      312.008      1.524     3.58     841.3452     54.98556     1964.815        36     1.369     1.037 -68.50   0
       434    763.9005    376.1396 307.6075567  +6.5383039     2085.653     3090.064     3346.677     77.94772     155.9575       312.07      1.519     3.83      841.389     54.98556     298.8049        18     1.245     0.911 -71.83   0
       435    192.0690    376.6489 307.8450420  +6.5188925     562.4453     807.5528     875.9612     78.19557     155.9575      311.946      1.336     4.13      843.185     54.98556     99.45483         5     0.953     0.589 -75.73   0
       436    531.2870    376.3142 307.7041660  +6.5304345     538.8176     746.1973       191.47     77.94772     156.2054      312.008      1.410     4.31     839.6193     54.98556     72.79138         7     1.149     0.460  31.19   0
       437    335.3779    372.5575 307.7856606  +6.5254038     1033.919     1704.388      1740.61     77.82351     155.8954     311.7909      1.840     4.64      839.702     54.98556     141.5374        13     1.348     0.740 -74.27   0
       438   1015.9847    369.7681 307.5030651  +6.5493632      3954.68     5735.142     5552.111     77.82351     155.7713     311.8529      1.554     3.81     837.5559     54.98556     541.6805        24     1.282     0.951 -77.39  16
       439    946.9655    366.2614 307.5318508  +6.5485050     722.4838     964.3911     1222.919     78.07175     156.0815      311.915      1.474     5.23     838.5283     54.98556     101.4342         8     1.053     0.809 -47.44   0
       440    180.6666    365.3930 307.8501581  +6.5231546     768.1454     1056.423     1011.009     77.69909     155.7713     311.7909      1.378     3.30      842.973     54.98556     140.1432         7     0.921     0.524 -58.65   0
       441    897.7659    364.0139 307.5523619  +6.5477881     499.8782     902.6503      956.885     77.82351     155.7713     311.8219      1.940     6.12     839.1412     54.98556     88.10901         7     1.704     0.618 -47.05   0
       442    451.7847    361.4709 307.7376867  +6.5338922     2399.764      3328.99     3207.391     77.69909     155.9575     311.8529      1.574     3.85     838.2291     54.98556     314.9016        20     1.300     0.947 -66.20   0
       443    479.5916    360.7843 307.7261605  +6.5351095     3211.565      4814.17     5058.308     77.82351     155.7713     311.7909      1.602     3.65      838.431     54.98556     452.4656        22     1.350     0.917 -68.21   0
       444    908.2011    360.9794 307.5481293  +6.5493896     872.9025     1308.111     1470.668     77.82351     155.7092     311.6667      1.412     3.91     838.8363     54.98556      153.066         9     1.134     0.607 -48.25   0
       445    837.4108    357.5414 307.5776484  +6.5484413     34538.46     51403.19     54175.54     77.57447     155.8954     311.6667      1.630     3.72     839.9603     54.98556     4500.678        60     1.602     1.089 -71.29   0
       446    329.5663    352.9713 307.7887354  +6.5332931     978.3312     1461.065     1268.565     77.69909     155.7713     311.7288      1.665     5.22     839.1259     54.98556     142.1497        11     1.270     0.701 -77.21   0
       447     55.3148    353.5194 307.9026206  +6.5238311     628.7261     1049.272     837.7448     77.94773     156.3293      312.039      1.362     5.21      844.674     54.98556     133.3447         8     1.251     0.613 -76.25   0
       448    609.2842    349.8654 307.6726607  +6.5439686     2872.352     4266.602      4343.04     78.31921     156.2674      312.008      1.569     3.73     839.7405     54.98556     371.7324        21     1.276     0.954 -73.47   0
       449     17.4214    350.3170 307.9184666  +6.5238749     1167.961     1735.647     1909.655     77.94773     155.7092     311.8219      1.636     3.99     844.6216     54.98556     172.8396        13     1.153     0.786 -59.15   0
       450   1021.3348    349.2437 307.5015308  +6.5580141     405.3672      573.277     566.4711     78.19557     151.6166     269.3731      1.755     4.99     837.1854     54.98556     75.15234         5     1.111     0.633 -25.34  16
       451    693.8709    343.4953 307.6377414  +6.5494334     82748.69     120189.3       126123     78.07175     156.0815      311.915      1.566     3.64     840.2836     54.98556     11484.51        85     1.544     1.183 -69.03   0
       452    852.1019    345.1201 307.5719634  +6.5540601     1307.948     2088.627     2448.652     78.07175     156.3911      311.977      1.842     3.93     839.1523     54.98556      199.105        15     1.358     0.768 -66.26   0
       453     73.1497    342.7808 307.8955768  +6.5288650     1470.786     2162.744     2501.587     77.69909     156.0815     311.7599      1.490     3.73     844.4517     54.98556     218.9857        17     1.329     0.814 -65.55   0
       454    556.3454    340.3149 307.6949705  +6.5461351     2821.708     4375.854     4427.319     78.19557     156.0195      312.101      1.659     3.58     838.4103     54.98556     406.2842        22     1.405     0.911 -58.12   0
       455    935.6092    340.5236 307.5374313  +6.5587497     810.5721     1014.945     769.6981     77.82351     155.5848     311.7599      1.209     3.16     837.6809     54.98556     134.5068         7     0.842     0.637 -63.72   0
       456    384.1586    340.4491 307.7664836  +6.5402973     619.8287     978.0578     1118.593     78.19557     156.0195      311.884      1.771     3.62     837.5801     54.98556     97.16571         5     1.065     0.355  85.01   0
       457     93.5890    338.9283 307.8872183  +6.5311443     6381.099     9724.253     10045.17     77.69909      155.647     311.7909      1.610     3.70     844.3155     54.98556     862.1909        30     1.410     1.029 -72.02   0
       458    539.5832    336.3216 307.7020673  +6.5472210     7383.116     11083.84     11457.76     77.82351     155.7713     311.8219      1.619     3.58     837.9924     54.98556     1013.921        33     1.456     1.013 -67.58   0
       459    268.5378    333.9246 307.8147258  +6.5391020     2687.644      3984.43     4020.538     78.44263     156.0195      311.946      1.615     3.53      840.347     54.98556     326.2863        21     1.274     0.947 -64.16   0
       460    402.5321    331.4833 307.7591546  +6.5446157     27078.49     40048.36     41989.48     78.44264     156.2674      311.977      1.636     3.65     837.2933     54.98556     3423.839        53     1.547     1.122 -68.29   0
       461    581.3782    330.8665 307.6848912  +6.5508750     606.9203     796.5688     781.9049     77.82351     156.0195      311.884      1.332     2.51     838.4067     54.98556     114.9733         5     0.733     0.429 -67.70   0
       462    510.2292    330.0191 307.7144719  +6.5488373     1427.575     2027.086     1466.743     77.82351     155.8334      311.884      1.446     4.27     837.4816     54.98556     191.4685        15     1.296     0.782 -73.05   0
       463    382.6426    329.4105 307.7674856  +6.5448028     1228.516     1837.144      2662.17     77.69909     155.8334     311.6978      1.848     3.52     837.3697     54.98556     173.7592        12     1.031     0.818 -87.44   0
       464    481.8022    326.9743 307.7263818  +6.5491397     1188.942     1704.208     2062.348     77.82351     155.7092     311.7599      1.653     4.09     837.1595     54.98556     178.8456        15     1.193     0.980 -89.20   0
       465    797.2380    323.7535 307.5954698  +6.5610441      874.104      1328.57     1695.483     77.94772     155.9575     311.8219      1.663     5.37     839.7187     54.98556     141.6149        10     1.438     0.565  81.28   0
       466    379.4067    324.2633 307.7690033  +6.5468187     761.9836     1119.527     1464.653     77.57447     155.7092     311.7288      1.691     3.93     837.2911     54.98556     123.4089        10     0.985     0.785 -57.59   0
       467    633.4122    323.1350 307.6635385  +6.5558115     620.4689     960.5759     942.2506     77.69909     155.8334     311.8219      1.510     4.76     838.7053     54.98556     90.93958         8     1.308     0.492  88.87   0
       468    491.6037    321.9609 307.7224796  +6.5515383      8824.79     13182.68     13952.28     77.32463     155.7713     311.7288      1.573     3.60     837.0394     54.98556     1216.816        32     1.430     0.998 -65.98   0
       469    760.6502    320.6917 307.6107702  +6.5610831     3414.033     4941.962     5440.106     78.07175     155.8954      312.132      1.596     3.55     839.6752     54.98556     508.3683        21     1.336     0.850 -68.59   0
       470    916.4138    320.4791 307.5460771  +6.5663823     1071.375     1675.051     1818.962     77.82351     155.7713     311.7288      1.679     4.30      837.345     54.98556     148.8207        12     1.243     0.724 -73.80   0
       471    708.4052    320.4153 307.6324804  +6.5594474     673.2661     954.8122     742.4196     77.82351     155.7092     311.7909      1.342     3.38     839.2951     54.98556      107.459         5     1.038     0.318 -67.75   0
       472    317.9749    318.8442 307.7947017  +6.5469900     1034.779      1342.85     1446.223     77.69909     156.0815     311.8219      1.322     5.17     838.4438     54.98556     143.5344         9     1.155     0.654 -73.87   0
       473    253.6541    312.4664 307.8216323  +6.5474584     639.3575     704.8747     607.0007     78.19557     155.9575      311.915      1.422     4.25     839.6922     54.98556     95.70081         6     0.957     0.662 -66.85   0
       474    153.6422    312.3073 307.8631767  +6.5441564     1035.352     1617.578     1954.782     78.19557     156.0195      312.039      1.747     5.17     842.2321     54.98556     151.1702        15     1.358     0.903 -43.71   0
       475    381.4589    306.1132 307.7687632  +6.5543796     7680.345     11739.47     12538.03     78.19557     156.0195       312.07      1.664     3.54     836.9217     54.98556     1005.233        36     1.470     1.077 -71.85   0
       476    237.4243    306.5726 307.8285724  +6.5493449     2141.654      3300.14     3745.734     77.69909     155.8334     311.7909      1.614     3.67      839.825     54.98556     290.7969        18     1.272     0.905 -68.29   0
       477    735.0621    306.0566 307.6218907  +6.5662674     754.8373     1161.715     1174.656     78.31921     155.9575      311.977      1.348     4.27     839.1633     54.98556     123.5173         8     1.173     0.552 -66.75   0
       478    749.3588    302.0578 307.6160866  +6.5683968     56308.45     81757.55     85536.73     78.19557     156.0195      312.008      1.547     3.50     839.0583     54.98556     7766.524        65     1.489     1.117 -69.86   0
       479    420.9044    301.4934 307.7525351  +6.5576122     2421.247     3631.975     3616.562     78.19557     156.5766      311.884      1.670     3.79     836.7011     54.98556     346.4067        19     1.248     0.937 -64.69   0
       480    984.2231    299.0717 307.5186284  +6.5774851     1656.168     2291.026     2113.187     77.82351     155.8334      311.946      1.460     3.65     835.6179     54.98556     227.2259        15     1.146     0.862 -71.05   0
       481    925.4464    298.3391 307.5430681  +6.5758233     2494.275     3482.408     3475.346     78.07175     155.8954      311.977      1.529     4.47     836.5885     54.98556     348.2147        20     1.313     1.021 -68.39   0
       482    567.0613    299.1564 307.6919056  +6.5634841     1262.352     1954.672      1888.08     78.19557     156.0195       312.07      1.580     3.57     836.6644     54.98556     178.8557        12     1.085     0.704 -74.57   0
       483    457.9140    297.9217 307.7372832  +6.5603298      1134.53     1407.319     1470.759     78.19557     156.3293      312.039      1.501     4.50     836.3143     54.98556     170.6266        10     1.074     0.661 -79.98   0
       484    407.6264    297.1262 307.7581975  +6.5589687     2091.087     3199.351     3360.795     77.82351     155.9575      311.915      1.606     4.08     836.6878     54.98556     265.1078        18     1.298     0.890 -58.09   0
       485    287.6790    296.7627 307.8080305  +6.5550854     677.8821     935.3129     790.2062     78.07175     156.0815      311.946      1.399     4.40     838.3828     54.98556     121.9251         6     0.848     0.762 -83.41   0
       486    828.6819    291.6494 307.5834871  +6.5753485     1132.825     1956.724     1588.228     78.19557     156.0195      311.977      1.762     6.24     838.0704     54.98556     138.9915        14     1.332     0.822 -86.54   0
       487    457.6612    292.6309 307.7375665  +6.5625052     793.5004     1226.823     988.9547     77.94772     156.0815      311.884      1.626     3.60       836.17     54.98556     124.4657         9     0.943     0.803 -46.80   0
       488    438.1248    288.6765 307.7458145  +6.5634812     1154.355     1646.013      1971.12     78.44263     156.2674      312.008      1.833     4.26     836.2924     54.98556     193.2102        17     1.395     0.872 -59.34   0
       489    184.1204    288.4210 307.8513253  +6.5550425     2423.104     3580.459     3827.948     77.82351     155.7092      311.946      1.550     3.27     840.7915     54.98556     357.5944        21     1.282     0.943 -59.35   0
       490    961.1220    288.6762 307.5285730  +6.5810044     470.9608     838.0818        566.1     78.44263     156.2674      312.039      1.932     4.79     835.6746     54.98556     81.06805         6     1.177     0.552  68.05   0
       491    747.8663    286.6869 307.6172233  +6.5746917     6300.238     9116.418     9818.422     78.19557     156.2054      311.977      1.547     3.56     838.5233     54.98556     883.7422        28     1.380     0.985 -68.13   0
       492    339.0150    286.3060 307.7870609  +6.5611285     545.2367      887.806     919.4236     77.94772     155.7713     311.7909      1.829     6.26      836.901     54.98556     72.87842         6     1.390     0.793 -25.93   0
       493    219.8009    286.8942 307.8365571  +6.5568743     764.4874      965.814     1022.233     77.69909     155.5848     311.6357      1.346     3.04     839.6057     54.98556     149.1856         6     0.897     0.639 -49.92   0
       494    764.3090    284.5797 307.6104641  +6.5761122     2796.943     4007.481     4028.048     78.07175     155.8334     311.8219      1.495     3.53     838.4241     54.98556     408.8323        20     1.299     0.806 -75.15   0
       495     80.2867    285.4560 307.8945522  +6.5527673     1168.458     1713.556     1831.877     78.19557     156.0195       312.07      1.563     4.05     843.2892     54.98556     156.3672        14     1.056     1.003  56.23   0
       496     67.5381    279.9052 307.9000351  +6.5546286     1236.786      1892.03     1824.684     77.94772     156.0815      311.977      1.533     5.10     843.4041     54.98556     177.1674        12     1.286     0.723 -61.97   0
       497    353.6304    279.2109 307.7812297  +6.5645486     1830.035     3596.884     3608.708     77.69909     155.7713     311.7909      1.999     5.15     836.5557     54.98556     228.4637        28     1.672     1.104  -8.64   0
       498   1002.4208    275.5230 307.5118589  +6.5878136     6330.713     9000.276     9369.369     77.82351     155.7713      311.915      1.559     3.47     834.4473     54.98556      852.218        27     1.393     0.935 -71.12   0
       499    480.5493    275.2414 307.7286457  +6.5704518     2215.261     3340.482     3049.283     78.19557     156.0195      311.946      1.604     3.60     835.3222     54.98556     308.2016        19     1.252     0.905 -67.22   0
       500    243.0100    270.8642 307.8274587  +6.5642723     5982.865     9491.938     9957.938     77.69909     155.8334     311.7909      1.665     3.61     838.8356     54.98556     816.3445        33     1.464     1.075 -58.04   0
       501    934.1472    265.5394 307.5405544  +6.5896535     503.6368     710.1052     659.8149     78.19557     155.9575      311.946      1.517     3.23     835.3409     54.98556      100.453         5     0.800     0.681 -45.53   0
       502    762.3421    264.2526 307.6119643  +6.5844370     694.4351     750.0343  -0.06225906     78.19557     156.0195      311.946      1.346     4.25     837.3694     54.98556     109.0031         8     1.002     0.620  85.19   0
       503    377.2656    261.6554 307.7720048  +6.5725897      1844.83     2918.623     3254.266     78.31921     155.9575      311.946      1.740     4.39     836.1589     54.98556     220.6006        19     1.476     0.849 -81.52   0
       504    219.7608    263.4751 307.8373651  +6.5665396     782.6959     1148.177     1032.229     78.07175     156.0195      311.977      1.525     5.22     839.1896     54.98556     105.2643        10     1.120     0.688  79.57   0
       505    964.1670    260.3425 307.5282586  +6.5928020     1229.096     1754.848     2069.258     78.07175     156.0815      311.915      1.578     4.07     834.5773     54.98556     179.5211        12     1.027     0.902  72.16   0
       506    183.8248    258.9073 307.8524457  +6.5672149     604.9276     983.6839     1189.352      78.3192     155.7713     311.7909      1.487     3.80     840.1339     54.98556     104.4755         5     0.810     0.512 -42.88   0
       507    146.9001    257.3243 307.8678361  +6.5666243     1934.856      3006.21     3293.126     77.69909     156.1435     311.8529      1.609     4.26      841.226     54.98556     265.4108        19     1.430     0.853 -72.35   0
       508    299.6001    257.6115 307.8044010  +6.5716470     1151.354     1564.598      1174.33     77.82351     155.7092     311.7599      1.493     3.79     837.6819     54.98556     163.2667        12     1.138     0.830 -52.43   0
       509    556.4577    253.2478 307.6978561  +6.5820784     2247.767     3170.294     2779.537     78.19557     156.0195       312.07      1.528     3.38      835.103     54.98556     297.8936        19     1.216     0.920 -64.49   0
       510    900.3644    252.6617 307.5550199  +6.5938398     1649.028     2389.966     2473.199     78.19557     156.0195      311.915      1.559     3.58     835.4916     54.98556     259.5416        14     1.185     0.780 -71.28   0
       511    958.0526    250.7498 307.5311203  +6.5965574     831.3385      1157.24     969.3218     78.31921     155.8954      311.977      1.450     4.97     834.3618     54.98556      118.918        10     1.287     0.543 -63.47   0
       512    720.3214    250.6803 307.6298756  +6.5886321     5359.928     7723.302     7792.272     78.44263     156.2674      312.101      1.557     3.77     836.3745     54.98556     696.6068        24     1.359     0.909 -67.60   0
       513    661.0125    250.7923 307.6545082  +6.5865984     2263.754     3335.606     3836.132     77.82351     155.8334     311.8529      1.554     3.87     835.5156     54.98556     287.4856        17     1.301     0.806 -66.39   0
       514    376.4770    244.7069 307.7729042  +6.5795590     791.9954     1016.355     1184.998     77.94772     156.2674      311.977      1.468     4.85     835.9101     54.98556     126.9653         8     1.028     0.648 -86.14   0
       515    916.3029    242.8196 307.5487294  +6.5984354      1134.82     1641.248      1978.53     78.07175     155.8334     311.6978      1.409     3.65     834.8452     54.98556     177.0003        12     1.146     0.724 -73.66   0
       516    219.7298    235.9462 307.8383082  +6.5779016     2298.105      3465.12     3660.215     78.07175     155.8954      311.884      1.692     3.84     838.7215     54.98556     308.1329        20     1.374     0.880 -71.36   0
       517    862.2802    234.9922 307.5714334  +6.5998599     1772.521     2482.966     2585.789     77.82351     155.5848     311.7909      1.445     4.08     835.6533     54.98556     261.6416        14     1.222     0.763 -69.04   0
       518    752.9383    234.3124 307.6168770  +6.5964809     1670.136     2278.524         2477     78.19557     156.2054      311.977      1.469     3.98     835.8466     54.98556      234.843        14     1.281     0.676 -70.88   0
       519    241.7452    229.5524 307.8293797  +6.5812819     655.1363     1012.201     830.9462     78.19557     156.0195      312.008      1.765     4.54      838.337     54.98556     81.31042         8     1.008     0.580 -71.83   0
       520    453.6501    225.8701 307.7414834  +6.5899277     23312.32     35270.63     36583.95     78.19557     155.9575      311.977      1.620     3.59     834.0173     54.98556     3141.942        47     1.519     1.099 -67.34   0
       521    315.1158    227.1840 307.7989836  +6.5847285      578.498     693.1473     586.4154     77.82351     155.7713     311.8529      1.503     5.00     837.2372     54.98556      98.4881         6     1.193     0.592 -59.65   0
       522    779.6970    225.0625 307.6060723  +6.6011951     13959.64     20536.24     22447.71     77.94772     156.1435      312.008      1.544     3.50     835.4503     54.98556     2083.085        48     1.508     1.185 -45.97   0
       523    718.4871    220.5733 307.6316500  +6.6009982     821.1998     1351.968      1449.87     78.31921     155.8334     311.8219      1.790     3.55     834.9715     54.98556      121.384        10     1.062     0.687 -66.55   0
       524    459.5508    220.1715 307.7392244  +6.5924781     1436.254     2342.068     2592.351     77.82351     156.0815     311.8529      1.636     4.38      833.787     54.98556     211.4497        15     1.306     0.868 -59.25   1
       525    141.8639    218.9805 307.8712247  +6.5822816     2428.021     3693.636      3663.88     77.82351     156.0195     311.7909      1.587     3.97     840.6071     54.98556     333.7492        20     1.341     0.936 -71.70   0
       526    116.8276    218.0434 307.8816556  +6.5818246     1037.807     1587.087     1957.229     77.82351     156.0815     311.8529      1.702     4.88     841.6877     54.98556     150.5649        12     1.376     0.587 -68.27   0
       527    168.6271    217.4372 307.8601603  +6.5838203     711.9806     1063.938     401.6832     77.82351     155.8334     311.7599      1.512     4.28     839.5419     54.98556     100.0867         7     0.854     0.689 -63.29   0
       528    916.2111    215.6922 307.5496779  +6.6096302     1593.821     2422.177     2163.251     77.94772     155.7092     311.7909      1.551     3.43     833.6868     54.98556     223.1517        15     1.149     0.873 -73.86   0
       529    772.6602    216.8628 307.6092710  +6.6043442     699.9592     1298.283     1713.122     78.19557     155.9575      311.977      1.826     6.26     835.0168     54.98556     109.3723         9     1.358     0.811 -14.00   0
       530    577.7378    211.5790 307.6904199  +6.5999923     4801.784     6911.917     7132.355     77.82351     156.0195     311.8219      1.585     3.59     833.9371     54.98556     679.8569        25     1.319     0.957 -72.18   0
       531    540.4014    211.6704 307.7059263  +6.5987018     2139.141     3241.603     3156.409     77.69909     155.5848     311.7909      1.635     3.29     833.6795     54.98556     320.2219        20     1.212     0.984 -52.45   0
       532    298.2491    212.4926 307.8064857  +6.5902253     1026.113     1446.514      884.918     78.07175     155.8954       312.07      1.500     4.81     837.3571     54.98556     142.0754        13     1.115     1.000  67.11   0
       533    382.2476    210.6116 307.7716576  +6.5938266     1473.508     2240.315     2286.849     77.57447     155.8954     311.6357      1.673     4.02     835.2382     54.98556     175.1655        18     1.221     1.010  74.01   0
       534    884.7591    208.2565 307.5629931  +6.6116478     12064.09     17067.13     17369.37     78.07175     156.0195      311.977      1.516     3.43     833.9066     54.98556     1816.006        34     1.385     0.978 -66.16   0
       535    938.6890    208.7757 307.5405724  +6.6132366     2797.822     3957.105     3945.787     78.31921     155.8334     311.8219      1.487     3.58     832.8143     54.98556     392.6796        19     1.272     0.847 -73.17   0
       536    559.7009    208.1979 307.6980263  +6.6007828     981.0559      1306.19     1380.942     77.69909     155.7713     311.6357      1.504     5.90     833.6283     54.98556     133.0369        13     1.303     0.751 -51.10   0
       537    312.7123    208.6402 307.8006080  +6.5923020     969.5827     1415.611     1350.968     78.19557     155.9575      311.977      1.551     4.15     836.9644     54.98556     130.1413        13     1.140     0.814 -34.53   0
       538    971.4572    206.0977 307.5270498  +6.6154371     10422.63     14898.38     15106.34     78.07175     156.0195      312.132      1.510     3.31     832.0881     54.98556     1539.851        35     1.390     1.014 -70.91   0
       539    682.7834    206.0587 307.6469696  +6.6057933      2965.29     3996.605     4662.336     77.69909     155.9575     311.6978      1.455     3.26     834.2758     54.98556     460.4745        20     1.281     0.853 -62.20   0
       540    203.8131    208.0800 307.8458613  +6.5888679      724.876     1111.137     1155.698     77.82351     155.7713     311.7599      1.604     4.53      838.704     54.98556      99.2771         7     0.840     0.698 -36.37   0
       541     10.9095    204.6778 307.9261024  +6.5837693     26310.84     39888.27     42507.79     77.94772     156.2674      311.977      1.607     3.49     843.6804     54.98556     3601.166        52     1.529     1.141 -68.91   0
       542    257.3629    205.7500 307.8236967  +6.5916325     1266.767     1904.304     2148.232     77.94772     155.8954     311.8219      1.658     3.84     837.8546     54.98556     185.8352        12     1.119     0.789 -71.28   0
       543    491.4053    200.9133 307.7266415  +6.6014972     2105.218     3146.174     2634.288     77.69909     155.7092     311.6667      1.584     3.76     832.9728     54.98556     268.5248        17     1.229     0.869 -65.45   0
       544    823.2615    197.4048 307.5889046  +6.6140699     2272.792     3144.615     3298.221     77.69909     155.7713     311.7288      1.500     3.40     833.7518     54.98556     350.4781        18     1.298     0.808 -76.66   0
       545    875.6609    196.7559 307.5671588  +6.6160908     2123.512      3026.67     2875.381     78.07175     156.0195       312.07      1.501     3.89     833.4571     54.98556     308.0329        16     1.263     0.768 -71.24   0
       546    734.9481    194.1914 307.6256991  +6.6124396     42140.49     61169.04     64341.71     77.69909     155.8954     311.6667      1.516     3.38     834.0947     54.98556     6135.009        60     1.483     1.109 -69.25   0
       547    503.3649    196.8551 307.7218103  +6.6035740     2627.029       3893.1     4378.781     78.07175     156.0195      311.977      1.591     3.51     832.8555     54.98556     353.8087        22     1.309     0.975 -63.24   0
       548    338.0330    193.5483 307.7905996  +6.5993832     6120.741     11794.13     12490.24     78.07175     156.0195     311.8529      2.086     5.55     836.2106     54.98556     799.1207        45     2.105     1.061 -73.82   0
       549    968.8009    193.0079 307.5285924  +6.6207517     2902.634     4422.027     4962.805     77.57447     155.7092     311.7599      1.584     3.50     831.3612     54.98556     422.6317        20     1.272     0.904 -59.98   0
       550    902.8919    191.3417 307.5560283  +6.6192364     8110.389     11524.37     12062.91     78.07175     155.9575      312.039      1.516     3.63      832.506     54.98556     1135.333        31     1.386     0.987 -65.89   0
       551   1007.0568    191.3436 307.5127558  +6.6227167     1729.839     2545.296      2505.65      78.3192     156.0195      312.008      1.582     3.42     830.5911     54.98556     276.9641        14     1.159     0.766 -83.52   0
       552    446.4248    190.3402 307.7456827  +6.6043508     5226.677     7742.197     7563.428     77.82351     156.0195     311.8219      1.587     3.46      833.273     54.98556     693.9653        29     1.352     1.112 -79.64   0
       553    220.7518    187.0820 307.8395350  +6.5981055     903.1645     1126.879     1041.717     78.19557     156.0195      311.977      1.333     4.45     838.2415     54.98556     138.1255        10     1.039     0.696 -53.89   0
       554    103.7592    181.5670 307.8883179  +6.5964402     5035.696     7402.264     7532.595     77.94772     155.9575     311.7909      1.590     3.64     840.6658     54.98556     685.1003        24     1.364     0.925 -69.61   0
       555    923.0557    180.9920 307.5479992  +6.6241827     930.0305     1334.005     1729.303     77.57447     155.8334     311.6667      1.373     4.36     831.4773     54.98556     169.9808         8     1.088     0.498 -54.00   0
       556    249.3483    179.3855 307.8279165  +6.6022452     6724.812      10073.3     10122.99     77.57447     156.0195     311.6978      1.597     3.69     837.6126     54.98556     881.7907        32     1.446     1.028 -68.94   0
       557    600.4689    180.0647 307.6820385  +6.6137633     634.6183     962.0662     1182.651     78.19557     156.0815      311.977      1.737     4.67     833.0985     54.98556     84.67505         8     1.311     0.471 -82.28   0
       558    274.0364    178.2654 307.8176992  +6.6035385     34672.19      52534.6      55012.3     78.07175     156.0195      312.008      1.611     3.53     837.0401     54.98556     4500.671        59     1.530     1.169 -68.48   0
       559    703.4005    177.6507 307.6393607  +6.6182104     969.8376     1387.446     1733.679     77.44965     155.5848     311.5115      1.410     3.85     833.6337     54.98556     171.7889        12     1.152     0.755 -68.57   0
       560    398.1053    173.8131 307.7663120  +6.6095491     51113.54     77521.35     81162.29     77.94772     155.7713     311.7909      1.626     3.59     834.2056     54.98556     6952.755        67     1.554     1.178 -68.74   0
       561    154.1228    175.0759 307.8676174  +6.6008169     4115.651     6426.624     6456.214     78.44263     156.2674      312.008      1.644     3.66     838.9373     54.98556     562.7559        27     1.331     1.092 -63.71   0
       562    415.4105    174.3651 307.7591048  +6.6099028     1469.126     2101.682     1805.323     77.69909     155.8334     311.7288      1.595     4.12     833.6348     54.98556     214.8334        16     1.202     0.943 -64.89   0
       563    302.0993    171.5177 307.8062700  +6.6072680     18986.52     28655.08     29984.05     78.19557     156.5148      312.039      1.619     3.58     836.3793     54.98556     2527.862        48     1.533     1.135 -66.32   0
       564    737.4153    170.0672 307.6254853  +6.6224803     34678.95     50646.28     51968.09     77.69909     155.8954     311.8529      1.548     3.48     833.1203     54.98556      4925.99        56     1.477     1.092 -71.98   0
       565    685.2982    171.7454 307.6470793  +6.6200414     899.8303     1423.136     1595.537     78.07175     156.0195      312.163      1.605     4.71     833.6146     54.98556     135.6463        11     1.237     0.786 -83.50   0
       566    309.6586    171.0176 307.8031468  +6.6077288     2128.327      3702.99     4752.407     77.82351     155.8954     311.7288      2.074     5.83     836.2515     54.98556     273.3933        22     1.807     0.823 -69.52   0
       567    785.6600    170.7305 307.6054212  +6.6238220     1349.204     1979.159     2281.052     78.31921     156.0195      311.915      1.641     4.03     832.4131     54.98556      180.339        14     1.182     0.767 -65.05   0
       568     24.7262    170.1714 307.9215319  +6.5984783     628.9532     815.7438     903.3405     78.07175     156.0195      311.915      1.439     5.09     843.6069     54.98556     96.66449         8     1.254     0.585 -76.41   0
       569     54.2680    167.2161 307.9093610  +6.6006948     9235.976     14091.18     14498.15     77.69909     155.9575     311.8529      1.620     3.57     842.2359     54.98556     1251.118        36     1.472     1.039 -73.56   0
       570     88.0444    165.1230 307.8954019  +6.6026978     1606.329     2227.786     2541.831     78.07175     156.0815      311.977      1.550     4.86     840.5269     54.98556     212.0001        15     1.276     0.807 -78.23   0
       571    995.9464    164.3068 307.5182781  +6.6335060     1225.569     1791.064     2411.688     78.07175     155.9575      312.132      1.531     4.59     829.1996     54.98556     167.7831        15     1.195     0.898 -66.08   0
       572    963.2999    163.6178 307.5318636  +6.6326997     656.6296      770.697     920.5988     78.19557     155.8954     311.7288      1.432     4.35     829.7656     54.98556     81.02521         7     1.002     0.537 -60.46   0
       573    722.1017    157.9380 307.6322548  +6.6269740     620.8281     909.7571     671.2974     77.94772     156.1435      312.008      1.534     4.27     832.7687     54.98556     109.9908         6     1.074     0.552 -68.15   0
       574    571.0714    154.9021 307.6950980  +6.6231636     796.0994     1371.026     1558.605     78.07175     156.1435      311.946      1.675     4.75     831.6256     54.98556     125.1257         8     1.228     0.520 -64.92   0
       575    996.8315    150.6409 307.5183687  +6.6391767     2484.125     3634.333     4784.741     77.69909     155.8954     311.8219      1.665     3.66     828.4896     54.98556     369.2415        19     1.259     0.878 -65.81   0
       576    580.0145    148.2475 307.6916070  +6.6262105      1070.98     1702.922     2448.815     77.57447     155.8954     311.6978      1.621     3.86     831.6955     54.98556     152.4771        11     1.174     0.664 -75.35   0
       577    332.1399    146.8257 307.7946249  +6.6184706     1055.214     1855.208     1925.958     77.82351     156.0195     311.8219      1.822     6.19     835.8334     54.98556     157.4279        16     1.522     0.751 -71.33   0
       578    272.9789    144.5806 307.8192763  +6.6174069     31921.02     48114.93     51438.43     77.94772     155.9575     311.8529      1.634     3.47     836.7836     54.98556     4234.949        63     1.552     1.190 -68.14   0
       579    588.2017    146.3755 307.6882689  +6.6272579     1992.212     2778.631     3408.608     77.82351     155.7092     311.7288      1.514     3.77     831.8176     54.98556     290.4395        17     1.215     0.831 -63.82   0
       580     18.1666    143.1371 307.9251721  +6.6094156     4689.967     6884.591     7080.889     78.07175     156.0815      311.915      1.565     3.64     844.1235     54.98556     612.5219        29     1.529     0.911 -67.75   0
       581    704.6289    141.2327 307.6400753  +6.6332842      8394.84     12256.55     12992.55     77.69909     155.7713     311.6978      1.560     3.51     832.0405     54.98556     1180.229        32     1.434     0.969 -70.62   0
       582    182.0051    142.4441 307.8571389  +6.6152255     1076.066     1585.925     1367.537     77.57447     155.7092     311.6046      1.528     4.54     837.9301     54.98556     162.1574        12     1.165     0.740 -43.90   0
       583    258.5594    139.9164 307.8254238  +6.6188468     798.5675     1201.855     1652.754     78.19557     155.9575      311.915      1.633     3.42     837.1489     54.98556     136.6843         9     1.034     0.621 -59.74   0
       584    115.4213    138.2525 307.8849391  +6.6147119     4880.361     7369.063     7393.443     77.69909     156.0195     311.7599      1.612     3.84     838.9211     54.98556     605.3641        26     1.404     0.952 -55.50   0
       585    577.1392    136.4325 307.6931994  +6.6309910      795.928     1005.287     1696.453     77.94772     156.0815      311.884      1.412     4.78     831.3896     54.98556     119.2872         9     0.995     0.651 -74.17   0
       586    642.8817    135.2518 307.6659281  +6.6336834     883.9941      1122.76     853.0304     78.19557     156.0195      311.977      1.483     5.22     832.0389     54.98556      111.342         9     1.163     0.661 -72.09   0
       587    454.4672    135.3595 307.7441958  +6.6273155     1502.897     2163.721      1844.53     78.07175     155.9575      312.008      1.572     3.67     831.8623     54.98556     209.9723        17     1.201     0.863 -73.63   0
       588    386.0363    134.4314 307.7726542  +6.6253990       3984.6     6656.583     6912.065     77.82351     155.7713     311.6978      1.768     3.85     834.0717     54.98556     487.0701        28     1.473     1.079 -88.30   0
       589    562.5179    134.0724 307.6993529  +6.6314746     625.9128     1088.393     1559.327     78.44263     156.3293      311.977      1.925     4.32     831.1315     54.98556     92.45709         6     1.071     0.498  87.20   0
       590    350.4808    133.2017 307.7874659  +6.6247111     3339.497     5200.994     5032.224     77.57447     155.5226     311.6978      1.602     3.74     835.6144     54.98556     476.7823        24     1.385     0.922 -67.90   0
       591    104.7409    132.9233 307.8895559  +6.6165515     1757.326     2744.117     3002.636     78.31921     156.0815      311.915      1.729     3.93     839.0485     54.98556     266.2768        17     1.383     0.787 -77.54   0
       592    741.1538    131.4064 307.6252323  +6.6385639     642.4688     853.0731      909.287     77.69909     155.7713     311.6046      1.598     4.48      830.963     54.98556     87.72382         7     0.891     0.642  81.81   0
       593    666.6185    131.0665 307.6562080  +6.6362067     775.1603      1086.51      1146.17      77.8235     156.0195     311.8529      1.437     4.19     831.9471     54.98556     112.2812         7     0.779     0.644 -72.34   0
       594    997.3732    127.3991 307.5189232  +6.6487886     1585.681     2456.385      2488.28     77.82351     155.7092     311.7599      1.660     4.13     827.2484     54.98556     224.4735        16     1.295     0.819 -77.90   0
       595    202.4186    122.0766 307.8493477  +6.6243201     5688.882      8400.39     8088.562     77.69909     155.7713      311.915      1.571     3.48     837.7328     54.98556      785.927        28     1.394     0.978 -73.01   0
       596    664.1358    120.9594 307.6575795  +6.6402955     6438.162     9425.194     9842.531     78.19557     155.9575      312.039      1.537     3.51     831.4376     54.98556     906.7088        28     1.398     0.929 -70.84   0
       597     85.1949    121.7833 307.8980522  +6.6204906     2197.009     3466.984     3973.304     77.82351     155.7092     311.7909      1.715     4.03     839.7897     54.98556     261.2075        20     1.286     0.995 -88.40   0
       598    840.7746    122.4555 307.5841469  +6.6455937     430.5096     442.8789     779.0306     77.82351     156.0195     311.7599      1.226     4.44     829.7504     54.98556     77.88019         5     1.297     0.432 -31.54   0
       599    812.4359    120.6943 307.5959791  +6.6453723     1394.711     2011.168     2069.157     78.31921     155.8954      312.039      1.672     4.45     829.8771     54.98556     183.0826        13     1.184     0.773 -68.70   0
       600    616.3359    118.2905 307.6775269  +6.6397944     10078.66     15214.19     16499.17     78.19557     156.2054      312.008      1.645     3.42     831.3073     54.98556     1375.119        39     1.495     1.064 -70.01   3
       601    619.8726    109.7725 307.6763444  +6.6434291     55992.86     81926.16     84931.55     77.94772     155.9575      311.884      1.567     3.52     831.0108     54.98556     8072.716        67     1.510     1.153 -67.39   2
       602    554.2720    117.5982 307.7033334  +6.6379980     680.0226     967.8505      1129.17     77.69909     155.5848     311.7909      1.546     5.20     830.8242     54.98556     98.99506         8     1.339     0.571 -77.80   0
       603    251.5202    118.4679 307.8290726  +6.6274630     822.7208     1167.033     972.7944     78.31921     156.2674      311.946      1.508     3.83     837.3493     54.98556     134.7385         7     0.887     0.613  68.67   0
       604     14.9256    117.3003 307.9273933  +6.6199706     1156.943     1718.182     1798.556     77.69909     156.1435     311.8529      1.722     5.42     844.4689     54.98556     141.6628        13     1.227     0.752 -59.49   0
       605    343.5424    113.8557 307.7910013  +6.6324632     3826.102     6010.781     6516.366     78.31921     156.0815      311.977      1.714     4.17     835.7139     54.98556     500.4991        34     1.730     0.984 -60.19   0
       606    525.0897    113.2054 307.7156045  +6.6388318     1707.273     2386.981     2451.349     77.69909     155.7092     311.7288      1.491     4.00     830.7643     54.98556     260.4359        18     1.391     0.837 -65.12   0
       607    989.6952    113.0022 307.5225959  +6.6544749     776.2343     1287.694     1732.276     77.69909     155.7092     311.6046      1.960     5.94     826.7242     54.98556     106.0732        11     1.388     0.714 -67.89   0
       608    795.2350    106.6046 307.6035986  +6.6506126     400.6264     424.9158     177.1289     77.44965     155.8954     311.7288      1.116     3.47     829.3947     54.98556     70.11896         5     0.760     0.458 -16.43   0
       609    299.0118    103.4074 307.8098528  +6.6352778     3772.502     5850.361     6641.927     77.82351     155.8334     311.8529      1.684     3.58     836.4765     54.98556     502.1913        26     1.399     1.017 -71.58   0
       610      2.5811     86.1577 307.9335759  +6.6324083      12439.6     28442.52      41602.3     77.69909     140.6943     253.9547      3.289     7.93     844.1203     54.98556     2491.434       164     4.310     1.854 -88.51  24
       611    699.0826     98.0194 307.6438331  +6.6509359     969.3304     1260.839     977.4993     77.82351     155.7092      311.884      1.332     3.86     829.7636     54.98556     154.7037         9     1.067     0.615 -74.02   0
       612    670.2137     96.9958 307.6558609  +6.6503908     1497.082     2265.207     2574.531     77.82351     155.7092     311.8219      1.699     4.49     830.1997     54.98556     199.4448        16     1.340     0.849 -52.91   0
       613    684.2663     93.8456 307.6501289  +6.6521622     3442.798     5184.732     5181.347     78.19557     155.9575      311.977      1.578     3.70     829.8826     54.98556     499.8479        24     1.368     0.961 -55.61   0
       614    715.3378     91.8837 307.6372864  +6.6540132     5640.257     5778.512     5972.017      78.3192     156.0195      311.946      0.915     3.65     829.2641     54.98556     1365.594         8     0.770     0.499 -89.60   0
       615    426.0295     84.6996 307.7577181  +6.6472710      4320.64     6431.376     6164.871     78.19557     155.7713      312.008      1.573     3.93       831.26     54.98556     537.1951        25     1.386     0.980 -65.19   0
       616    898.6027     80.1662 307.5615426  +6.6649843     4003.119     5903.766     6133.983     77.44965     155.8334     311.6978      1.563     3.78     827.6706     54.98556     555.7518        21     1.307     0.879 -67.91   0
       617    880.5501     81.1215 307.5690106  +6.6639863     2205.586     2989.206     3015.831     78.19557     156.0815      311.946      1.425     3.38     827.7928     54.98556     336.3583        15     1.208     0.753 -67.06   0
       618    578.6844     80.9142 307.6944273  +6.6539594     824.9047     1180.914     914.9968     77.94772     156.2054      312.008      1.469     4.47     829.9871     54.98556     150.0037         9     1.185     0.596 -56.18   0
       619    590.6695     78.8072 307.6895192  +6.6552312     1944.634     2771.713     2663.396     77.69909      155.647     311.8529      1.513     3.41     829.9008     54.98556      288.286        16     1.229     0.810 -60.26   0
       620    236.8234     77.6468 307.8365573  +6.6438177     825.4501     1432.188     1986.664     77.82351     156.0195     311.8219      2.149     5.28      837.368     54.98556     117.7417        13     1.277     0.876 -52.22   0
       621    389.4346     76.6865 307.7731911  +6.6493486     1855.621     2896.951     3131.039     78.19557     155.8954      311.946      1.645     3.82     833.2535     54.98556      251.776        19     1.402     0.852 -68.10   0
       622    137.2120     73.3576 307.8780826  +6.6422324     3228.337     5106.226     4759.857     77.57447     155.8334     311.6667      1.660     3.76     836.7688     54.98556     482.5091        24     1.471     0.918 -71.85   0
       623     19.2261     71.1920 307.9271685  +6.6391472     12776.72     19789.02     22052.74     77.82351     155.8334     311.7909      1.679     3.51      841.405     54.98556      1685.25        45     1.555     1.143 -80.50   0
       624    285.4969     71.7583 307.8165361  +6.6478867     1410.045     2367.365     3089.952     78.19557     155.8954      312.132      1.904     4.06     836.7274     54.98556     254.3695        15     1.405     0.758 -74.88   0
       625    558.7569     71.6592 307.7030178  +6.6571110     605.5995     841.0367     1001.637     78.07175     156.0195      312.039      1.327     4.71     829.6609     54.98556     101.7997         7     1.103     0.571 -51.67   0
       626    753.9986     70.6084 307.6219403  +6.6640903      755.637     1068.942      1947.55     77.57447     155.7092     311.7288      1.484     4.05     828.1667     54.98556        135.2         8     1.136     0.555 -37.27   0
       627    546.1952     70.8239 307.7082646  +6.6570342     775.5377      1002.39     1080.314     77.69909     155.7713     311.7909      1.599     4.57     829.6376     54.98556     127.8115         8     1.042     0.569 -86.42   0
       628    939.4455     69.9491 307.5449170  +6.6705673     594.2045     866.7936      835.197      78.3192     155.8954      312.008      1.496     5.82     826.8592     54.98556     111.5901         9     1.163     0.843 -32.77   0
       629    820.8844     65.9751 307.5943079  +6.6682422     6503.232     9755.961     10761.18     78.07175     155.7713     311.8529      1.570     3.64     827.6493     54.98556      975.113        33     1.484     1.012 -63.98   0
       630    766.0036     66.2537 307.6170992  +6.6662898     3456.689     5063.815     5077.356     77.57447     155.7713     311.5736      1.519     3.48     827.9397     54.98556     487.5587        21     1.305     0.879 -66.17   0
       631    411.0926     66.9534 307.7645220  +6.6540941     1209.546     1678.895      1522.28     78.07175     155.9575       312.07      1.493     3.62     831.4963     54.98556      175.866        13     1.177     0.773 -73.04   0
       632    888.1066     67.0331 307.5663443  +6.6700544     643.2982     733.3415      762.098     78.31921     155.8954      312.008      1.314     4.00      827.375     54.98556     87.61749         6     0.963     0.476 -52.72   0
       633    912.0018     65.3538 307.5564731  +6.6715467     451.2643     685.4943     1022.697     77.57447     155.7092     311.5736      1.747     4.75     827.2352     54.98556     85.32214         7     1.355     0.472 -80.34   0
       634    528.3002     64.2370 307.7159209  +6.6591524     1228.656     1628.786     1946.524     78.19557     155.8954      312.163      1.498     3.97     829.3785     54.98556       165.75        14     1.174     0.826 -65.91   0
       635     59.5880     63.0308 307.9106781  +6.6438776     3342.544     5025.194     5583.307     77.69909     155.7713     311.8529      1.557     3.30     838.6895     54.98556     441.1909        23     1.354     0.918 -61.47   0
       636     44.0843     63.7898 307.9170929  +6.6430413     1063.467     1552.796     1506.778     77.82351     155.7713     311.7909      1.583     5.41     839.4905     54.98556     158.9199        12     1.356     0.667 -75.78   0
       637    648.3647     63.7070 307.6660583  +6.6633992     685.3967     773.7926     764.6493     78.31921     155.8954      312.039      1.361     5.28     829.1634     54.98556     90.79718         7     0.917     0.859 -77.42   0
       638    420.9023     62.7501 307.7605885  +6.6561588     889.3888     1285.198     1632.166     78.07175     155.9575      312.101      1.555     4.44     830.8471     54.98556     129.0398        11     1.151     0.696 -39.96   0
       639    583.1691     59.7839 307.6932759  +6.6628319     1322.427     1972.477     2276.309     77.82351     155.7713      311.884      1.576     3.70     829.1702     54.98556     189.9724        16     1.250     0.843 -46.26   0
       640      2.0436     58.4051 307.9347393  +6.6438452     2647.253     3663.639      4189.09     75.29609     133.7856     245.7061      1.501     4.19     840.6386     54.98556     375.6013        20     1.386     0.870 -85.39  24
       641     74.2915     54.5349 307.9048577  +6.6478802     882.3708     1426.959      1309.57     78.07175     156.2054      311.946      1.604     4.67     837.5759     54.98556      166.705        10     1.449     0.716 -74.64   0
       642    760.6398     53.7690 307.6197474  +6.6712636     2013.555     3011.406     3418.613     77.82351     155.8334     311.7909      1.577     3.89     827.5673     54.98556       292.42        18     1.442     0.773 -62.47   0
       643    401.2367     53.6208 307.7690664  +6.6592661     1092.108     1483.505     1553.827     77.82351     155.7713     311.6978      1.578     4.87     832.0828     54.98556     147.6852        14     1.256     0.855 -80.95   0
       644     98.2807     52.9265 307.8949466  +6.6493531     886.7945     1197.891     899.5233     78.44263     156.2674      312.008      1.449     4.66     836.6298     54.98556     134.4732        10     1.266     0.599 -87.43   0
       645    416.3519     47.2853 307.7630007  +6.6623893     2758.688     4166.641     3820.298     78.19557     155.9575      311.946      1.550     3.61     830.6765     54.98556     392.0798        19     1.323     0.855 -62.32   0
       646     87.2593     47.2826 307.8997162  +6.6513110     9854.979     15048.66     15357.03     78.31921     156.0815      311.977      1.649     3.62     836.6958     54.98556     1328.458        38     1.474     1.100 -74.09   0
       647    237.3734     46.7883 307.8373717  +6.6565735     522.6723     777.5988     1163.645     77.82351     155.8334      311.884      1.451     3.41     836.8952     54.98556     88.13477         5     0.789     0.425 -69.69   0
       648    254.0486     41.3853 307.8306269  +6.6593651     1514.481     2360.679     2972.207     77.57447     155.9575     311.6667      1.761     4.42     836.7638     54.98556     187.4297        17     1.300     0.904 -69.00   0
       649    630.0397     39.4229 307.6744890  +6.6728086      19464.1     28510.67     30529.22     77.82351     155.8334     311.7288      1.568     3.66     828.2789     54.98556     2795.795        45     1.478     1.078 -70.20   0
       650    660.6979     40.3236 307.6617215  +6.6734648      475.311     747.4582     302.4158     77.82351     156.2674      311.977      1.678     5.73     828.2941     54.98556     76.11462         7     1.497     0.617 -55.10   0
       651    529.9144     35.4880 307.7162192  +6.6710734     5531.903     8187.742     8922.824     77.94772     156.2674       312.07      1.573     3.57      828.301     54.98556     807.2097        28     1.402     0.957 -67.22   0
       652    248.0431     35.4947 307.8333209  +6.6615943     2055.753     3067.437     4579.671     78.19557     155.9575       312.07      1.727     4.24     836.7057     54.98556     257.9636        19     1.392     0.864 -81.59   0
       653    616.4555     30.0380 307.6804487  +6.6762269     3205.992     5369.124     6187.083     78.19557     156.0815      311.977      1.984     5.15     827.9352     54.98556      491.381        31     2.009     0.994  82.88   0
       654    435.3611     31.1606 307.7556474  +6.6696838     23493.55      35241.1     36322.05     77.94772     156.0195     311.8219      1.605     3.50     829.6462     54.98556     3085.856        51     1.492     1.120 -69.15   0
       655    255.9776     31.5173 307.8301590  +6.6635031     9671.129     14546.99     15778.31     77.94772     155.7092     311.8529      1.626     3.54     836.6719     54.98556     1266.344        38     1.484     1.101 -73.86   0
       656    316.0190     32.0459 307.8051976  +6.6653056     1002.506     1385.708     1195.953     77.82351     155.8954     311.7288      1.428     4.38     836.5458     54.98556     149.4678        10     1.070     0.653 -81.65   0
       657    913.3487     31.2405 307.5570588  +6.6856731     1919.801     2619.137     2308.501     78.19557     156.0195      311.915      1.458     4.32     826.4025     54.98556     256.6942        16     1.255     0.796 -70.14   0
       658    520.6806     31.1721 307.7202009  +6.6725448     697.3235     1061.073     1299.442     78.07175     155.8334      311.915      1.729     5.26     828.1523     54.98556     96.08557         8     1.212     0.644 -85.58   0
       659     21.3251     30.9717 307.9276588  +6.6558192     2287.674     3335.173     3091.762     78.07175     155.9575      311.915      1.509     3.41     836.9245     54.98556      304.447        19     1.246     0.885 -81.33   0
       660    548.4839     30.4836 307.7086730  +6.6737623     659.1627     910.0675     1078.343     77.94773     156.2674      312.039      1.620     4.30     828.1066     54.98556     114.0918         6     1.133     0.465 -79.79   0
       661    243.8635     28.0838 307.8353077  +6.6645125     3276.312     4917.721     5389.901     78.31921     156.0815      311.915      1.623     3.72     836.6157     54.98556     479.0209        25     1.354     0.965 -73.47   0
       662    296.8292     26.2342 307.8133661  +6.6670588     1110.336     1713.302     1891.268     77.69909     155.7713     311.7288      1.664     4.59     836.6505     54.98556     156.6461        13     1.114     0.889 -76.61   0
       663    595.9025     25.9821 307.6891243  +6.6772116     2211.289     2342.441      2401.66     78.07175     155.8334     311.6978      0.656     1.94     827.8127     54.98556     957.5966         6     0.781     0.284  83.13   0
       664     90.2015     21.0062 307.8993833  +6.6622560     641.7048     1115.758     928.4968     77.57447     155.7092     311.7599      1.785     5.96     835.3905     54.98556     126.7259         9     1.653     0.604 -64.87   0
       665    933.9871     21.4916 307.5488113  +6.6903872     1005.581     1169.599     926.3994     77.94772     155.7713     311.7288      1.501     5.33     825.8709     54.98556     136.2421        11     1.213     0.661 -57.87   0
       666    685.2085     20.9151 307.6521914  +6.6822978     1840.594     2774.994     2681.023     77.82351     155.7092     311.7909      1.474     4.01     827.4864     54.98556     294.3423        18     1.366     0.878 -81.92   0
       667    196.3872     16.5734 307.8554202  +6.6676647     913.4511     1037.907     913.3294     77.82351     155.8334      311.884      1.447     5.45     836.0353     54.98556     114.2844        11     1.130     0.742 -59.32   0
       668    250.9214     15.7166 307.8327935  +6.6698549     926.0182     1512.222     2404.298     78.31921     156.3293       312.07      1.880     3.95     836.4922     54.98556     123.2036        10     0.924     0.778 -84.83   0
       669    703.8724   1019.5052 307.6108677  +6.2707201     1146.788      1818.95     2152.528     78.07175     156.0815     290.9562      1.721     4.72      861.817     54.98556     186.5758        14     1.379     0.805 -52.18  16
       670    567.8718   1019.4141 307.6673290  +6.2662006     4238.934     6684.241     7426.233     77.69909     155.8954     291.7863      1.739     3.69     862.9466     54.98556     523.8619        29     1.427     1.059 -74.09  16
       671    743.8488   1015.5645 307.5944044  +6.2736852     1257.594     1996.202     2116.586     77.94772     156.0195      311.915      1.717     4.80     861.0057     54.98556     167.4996        10     1.112     0.647 -80.86   0
       672    951.2978   1009.8964 307.5084733  +6.2829619     6274.027     10473.87     11352.51     78.19557     156.5766     311.7909      1.795     3.75     855.3817     54.98556     825.8849        37     1.589     1.166 -69.17   0
       673    705.5925   1010.7153 307.6104489  +6.2744061     1004.847     1610.368     2715.264     77.82351     155.7092     311.7909      2.409     4.54     861.4149     54.98556      147.287        15     1.368     0.851 -69.26   3
       674    711.1649   1007.9669 307.6082279  +6.2757272     2660.503     4050.755     4837.543     77.82351     155.7713     311.6978      1.649     3.54     861.2458     54.98556     376.2709        21     1.281     0.979 -75.19   2
       675    235.7351   1009.7460 307.8055315  +6.2590366     1385.903     2096.528     2278.118     78.19557     155.9575      311.915      1.649     4.94      860.426     54.98556     172.3331        17     1.317     1.024 -75.80   0
       676    208.5195   1022.9454 307.8163834  +6.2526727     2071.987     2549.715     2437.065     75.68059     134.3629     246.3353      1.346     3.67     859.9548     54.98556      300.304        13     1.029     0.834 -51.77  24
       677    726.7023   1007.2083 307.6018032  +6.2765605     955.8563     1426.838     968.5306     77.94772      155.647     311.7288      1.426     4.19     861.0735     54.98556     136.7093        10     1.028     0.804  68.23   0
       678    357.7774   1005.3615 307.7550176  +6.2649494     1914.562     2651.601     2780.081     77.82351     155.7713     311.7599      1.503     3.83      861.364     54.98556     265.3688        15     1.238     0.773 -57.86   0
       679    510.0234    996.9588 307.6920992  +6.2735295     1073.048     1593.047     1366.569     77.82351     155.8334     311.7288      1.705     4.08     862.2817     54.98556     151.6347        11     1.110     0.755 -79.49   0
       680    744.4969    995.0291 307.5948248  +6.2821837     8040.721     12339.77     12068.43      78.3192     155.7713      311.946      1.647     3.58     860.2118     54.98556     1030.574        36     1.440     1.128 -73.30   0
