#   1 NUMBER                 Running object number                                     
#   2 X_IMAGE                Object position along x                                    [pixel]
#   3 Y_IMAGE                Object position along y                                    [pixel]
#   4 ALPHA_J2000            Right ascension of barycenter (J2000)                      [deg]
#   5 DELTA_J2000            Declination of barycenter (J2000)                          [deg]
#   6 FLUX_APER              Flux vector within fixed circular aperture(s)              [count]
#   9 FLUXERR_APER           RMS error vector for aperture flux(es)                     [count]
#  12 FLUX_RADIUS            Fraction-of-light radii                                    [pixel]
#  13 FWHM_IMAGE             FWHM assuming a gaussian core                              [pixel]
#  14 BACKGROUND             Background at centroid position                            [count]
#  15 THRESHOLD              Detection threshold above background                       [count]
#  16 FLUX_MAX               Peak flux above background                                 [count]
#  17 ISOAREA_IMAGE          Isophotal area above Analysis threshold                    [pixel**2]
#  18 A_IMAGE                Profile RMS along major axis                               [pixel]
#  19 B_IMAGE                Profile RMS along minor axis                               [pixel]
#  20 THETA_IMAGE            Position angle (CCW/x)                                     [deg]
#  21 FLAGS                  Extraction flags                                          
         1    561.0818     29.7981 307.7221961  +6.6803182     2222.308     4088.484     4173.817     86.20827       172.97     346.3888      1.963     5.08     1044.384     61.10528     256.6736        26     1.524     1.157  52.73   0
         2    746.6491     21.9703 307.6453198  +6.6897589     6183.363     10566.55     11564.87     86.48502     173.4529     346.5612      1.850     4.01     1040.925     61.10528     708.1794        39     1.589     1.213  43.94   0
         3    467.1529     17.6366 307.7616515  +6.6821915     4623.536     9090.015     9624.817     86.62307      173.384     346.5957      2.052     4.51     1048.174     61.10528     464.9171        39     1.588     1.388  77.43   0
         4     68.1436     17.3035 307.9275213  +6.6689245     6736.845      12727.1     13800.06     86.76089     173.3151     346.9058      1.972     4.16     1065.676     61.10528     824.9666        45     1.609     1.408  45.09   0
         5     14.1828     17.7829 307.9499343  +6.6669095     1028.513     2159.973     1882.918     86.62307     173.0391     346.5957      2.049     6.46     1064.711     61.10528     128.8085        14     1.421     1.177  53.18   0
         6    137.4078     13.0381 307.8988751  +6.6730162     1891.405     3654.017     4374.685     86.06956     173.1081     346.3543      2.138     6.02     1065.093     61.10528     212.4476        28     1.634     1.361  57.90   0
         7    363.6763     12.5797 307.8048361  +6.6808082     9758.456     19294.55     20893.51     86.48502     173.1081     346.5957      2.067     4.57     1056.916     61.10528     932.4297        52     1.722     1.447  50.89   0
         8    128.9028     12.0208 307.9024447  +6.6731501      1135.44      2246.37     2537.427     86.76089     173.1772     346.4578      2.166     5.68     1065.319     61.10528     146.5181        14     1.336     1.099 -80.75   0
         9    429.8229     10.4666 307.7774112  +6.6838998     1747.435      3386.97     3141.579     86.48502      173.384     346.5957      2.011     6.60     1051.238     61.10528     175.2944        26     1.669     1.144  69.94  16
        10    831.9106     11.1021 307.6102415  +6.6970947     652.7715     1119.744     993.4401      86.8985     173.8657     346.6646      1.634     4.68     1036.117     61.10528     102.9454         6     1.111     0.559  23.25   0
        11    690.5517      5.9535 307.6691789  +6.6944957     9037.118     16085.41     17380.78      86.8985     173.2461     328.3623      1.909     4.19     1041.952     61.10528      968.874        49     1.700     1.314  53.50  16
        12    855.1797      5.2555 307.6007648  +6.7002856     1563.677     2574.865     3195.201     86.34676      173.384     320.2943      1.845     3.84     1035.928     61.10528     212.7959        15     1.234     0.821  84.12  16
        13    568.5991      6.2491 307.7198650  +6.6902920     997.0578     1820.127     2399.775     86.20827       172.97     331.1162      1.982     6.01     1043.393     61.10528     127.7902        11     1.164     0.874  44.30  16
        14    290.9700      3.1047 307.8353791  +6.6822789     4850.148     9474.277      10120.8     87.03589     162.6457     290.6865      2.095     4.57     1062.855     61.10528     478.3507        41     1.663     1.434 -10.93  24
        15      1.5195      4.8343 307.9556367  +6.6718285     890.9354      1284.59     1501.206     78.06184     140.9189      239.383      1.539     4.03     1062.905     61.10528     173.3848         8     1.096     0.499  88.14  24
        16    925.4959      3.0670 307.5716067  +6.7035361     1387.957     1964.013      2084.75      86.8985     162.4987     290.2751      1.541     4.83     1035.011     61.10528     218.0111        12     1.035     0.906   9.05  16
        17    682.3527      2.0773 307.6727178  +6.6958217     6719.974      9774.08     10080.88     84.24554     149.6368     274.0134      1.570     3.93     1041.977     61.10528     834.5222        27     1.440     0.984   6.73  25
        18    452.1980      2.2926 307.7683860  +6.6880247     5668.733     9031.837     9367.281     85.23256     152.4059     277.3507      1.703     4.73     1049.533     61.10528     631.0995        31     1.492     1.131   4.52  24
        19    712.5015      1.6100 307.6602005  +6.6970230     4729.411     6613.008     7337.297     79.42747      142.185      265.869      1.584     5.76     1041.437     61.10528      776.859        21     1.713     0.781  -2.56  24
        20    768.1110      1.6053 307.6370832  +6.6988840     1029.604      1243.32     797.5032     79.12603      142.185     265.7342      1.234     3.05     1038.327     61.10528     204.7053         9     0.882     0.714  11.31  24
        21    262.3843    988.3112 307.8139755  +6.2745794     1699.808     2703.489     2620.582     86.62307     173.1081     346.4922      1.767     4.72     1089.984     61.10528     218.8922        16     1.434     0.746  57.36   0
        22    401.2644   1022.9088 307.7551241  +6.2649537     1878.061     2475.184     2897.593     84.52872     149.8762     274.2749      1.447     3.44      1090.32     61.10528     290.4897        16     1.168     0.858  24.54  24
        23    660.7725    986.3864 307.6485631  +6.2887192     850.4002     916.5217      753.394     86.48502     173.1772     346.5612      1.451     5.41     1086.304     61.10528     119.3214         9     0.990     0.835 -44.89   0
        24    150.0444    987.1285 307.8606758  +6.2712952     661.7021     951.1725     770.7703     86.76089      173.384     346.6991      1.823     4.83     1090.079     61.10528     131.1681         7     1.186     0.558  27.28   0
        25    801.0455    981.5925 307.5904572  +6.2953849     7256.252     10733.79     11533.18     86.34676     173.1772     346.2853      1.572     3.08      1083.92     61.10528     1155.813        33     1.453     1.111  67.18   0
        26    852.8669    983.7198 307.5688598  +6.2962363     2689.985     3838.187     3812.956     87.03589     173.5906     346.6646      1.531     3.19     1082.432     61.10528     408.3502        17     1.160     0.860  58.47   0
        27    587.7721    981.3009 307.6790569  +6.2883773      992.359     1877.024     1902.722      86.8985     173.1081     346.6302      2.018     5.48     1087.975     61.10528      153.979         9     1.028     0.824  58.34   0
        28    270.4782    980.8158 307.8108666  +6.2779455     1393.791     2207.047      2096.87     86.48502     173.1081     346.4922      1.651     3.58     1089.974     61.10528     193.3564        13     1.042     0.842  57.67   0
        29    234.4648    980.0948 307.8258494  +6.2770343     853.0034     1376.752     1610.463     86.76089     173.5218     346.6991      1.769     3.95     1090.014     61.10528     136.8934         7     0.880     0.618  15.89   0
        30     95.4801    978.8118 307.8836200  +6.2728948     2786.746     4110.033     4703.159     86.48502     173.0391     346.4922      1.577     3.41     1090.283     61.10528     397.2266        18     1.223     0.843  53.22   0
        31    989.1582    976.5345 307.5124864  +6.3037479     7801.165     10804.01     11283.19      86.8985     173.3151      346.768      1.461     3.16      1079.56     61.10528     1223.956        28     1.307     0.937  53.61   0
        32      5.7254    975.3201 307.9210170  +6.2713177     772.4999      1154.82      997.883     87.17307     173.6594     325.9518      1.652     4.44     1090.266     61.10528     132.8729         6     1.276     0.440  86.47  16
        33    671.3104    971.2964 307.6446933  +6.2953016     716.1756      984.762     560.1475      86.8985     173.8657     346.6646      1.636     5.35     1085.931     61.10528     102.4192         8     1.250     0.646  87.22   0
        34    963.0278    968.5480 307.5236086  +6.3061743     2116.669     2829.003     2784.513     86.48502     173.5218     346.5612      1.447     3.78     1079.717     61.10528     336.4033        16     1.331     0.744  48.24   0
        35    296.1030    964.6137 307.8007700  +6.2854945     4364.972     6854.263     7142.013     86.76089     173.1081     346.4233      1.640     3.31     1090.006     61.10528     660.8846        29     1.518     0.991  52.29   0
        36     20.7247    966.5125 307.9150853  +6.2754585     1021.215     1644.599     1779.843      86.8985     173.7282      346.768      1.693     5.10     1090.228     61.10528      146.233        11     1.252     0.646  71.14   0
        37    683.7720    964.3582 307.6397502  +6.2985827     4654.273     6811.378     6785.042     86.48502     173.3151     346.5267      1.568     3.13      1085.67     61.10528     707.3041        26     1.318     0.980  47.76   0
        38    822.4102    964.6478 307.5821515  +6.3030941     1507.869     2101.649     1940.278     86.34676     173.2461     346.3198      1.412     4.06     1082.657     61.10528     207.3466        13     1.165     0.797  25.06   0
        39    505.9678    962.7247 307.7136619  +6.2933087     1085.495     1465.304     1572.479     86.76089     173.4529     346.6302      1.435     2.95     1088.194     61.10528     166.2413         9     0.851     0.710 -74.15   0
        40     64.7264    961.9433 307.8969639  +6.2788249      2175.48     3437.593      3039.72     86.76089     173.3151     346.6302      1.612     3.47     1090.201     61.10528     356.1317        21     1.366     0.938  42.07   0
        41    915.3746    960.9718 307.5436578  +6.3077135     932.4257     1356.714     1222.454     86.34676     173.1772     346.5267      1.457     3.90     1080.073     61.10528     139.9919         7     0.767     0.642  80.84   0
        42    986.8235    957.8481 307.5140826  +6.3113851     831.5173     964.1946     985.5856     86.48502      173.384     346.5612      1.376     3.78     1078.791     61.10528     134.5487         6     0.731     0.601  40.52   0
        43    608.4336    956.9140 307.6712951  +6.2991369     1703.792     2570.137     1918.431      86.8985     173.2461     346.6646      1.564     3.61     1087.167     61.10528      239.767        17     1.263     0.864  46.02   0
        44    331.9429    957.9946 307.7861067  +6.2894295     890.0264      1086.54     1007.234     86.34676     173.2461     346.3543      1.422     3.13     1090.194     61.10528     132.0146         7     0.861     0.533  42.95   0
        45    647.6562    953.2631 307.6551254  +6.3019560     1229.335     1615.549      1219.11     87.03589     173.3151     346.6646      1.380     3.71     1086.311     61.10528     175.7972        13     1.128     0.785  37.39   0
        46     97.6181    954.0492 307.8835693  +6.2831898      661.355      991.253     867.9045     86.34676     173.4529     346.4578      1.547     3.52     1090.157     61.10528     120.6788         7     0.948     0.564  33.50   0
        47    327.7140    950.9386 307.7881013  +6.2922007     1306.227     1783.185      1886.75      86.8985     173.5218     346.6646      1.468     4.52     1090.125     61.10528      176.735        12     1.098     0.808  74.59   0
        48    794.1625    946.6979 307.5944882  +6.3095619     1041.362     1481.489     2133.459      86.8985     173.2461     346.8714      1.700     4.63     1083.172     61.10528     162.9463        11     1.185     0.748 -86.91   0
        49    169.8425    944.5384 307.8538919  +6.2895435      718.774     984.1731     1132.095      86.8985      173.384      346.768      1.432     4.31     1089.972     61.10528     151.2546         7     1.109     0.476  71.70   0
        50    467.6764    940.7275 307.7303084  +6.3011080     2024.009     2928.204     2942.212     87.17307     173.6594     346.6646      1.521     3.07     1088.342     61.10528     295.4448        17     1.120     0.907  78.49   0
        51    369.4592    939.2069 307.7711571  +6.2984442     9277.585      14649.5     15417.94     86.20827     173.2461     346.3543      1.678     3.52     1089.898     61.10528     1205.992        36     1.481     1.115  53.33   0
        52    289.6198    938.0650 307.8043590  +6.2962376     6918.743     11071.48     11844.42     86.48502      173.384     346.4922      1.714     3.46     1089.972     61.10528     933.6324        38     1.530     1.137  59.99   0
        53    617.9810    932.4371 307.6681527  +6.3095618     1195.693     1800.348     2151.238     86.48502     173.1772     346.4233      1.539     3.58     1086.334     61.10528     173.7327        12     1.021     0.793  83.69   0
        54    931.8664    943.5111 307.5373927  +6.3154724     8040.852     11165.96     10992.93      86.8985     173.5906     346.6302      1.470     3.01     1078.886     61.10528     1189.178        26     1.314     0.922  57.50   0
        55    947.7806    928.6740 307.5312794  +6.3221288     1166.936     1543.214     1410.913     86.48502     173.3151     346.5957      1.351     4.30     1077.894     61.10528     181.5007         9     1.240     0.524  66.47   0
        56    903.9987    927.4721 307.5495072  +6.3211650     809.1051     1002.515     1363.582     86.34676      172.901     346.4922      1.312     4.55     1078.274     61.10528     107.2396         8     0.823     0.716  85.33   0
        57   1015.1366    924.8092 307.5034285  +6.3259693     859.8782     1280.582     721.8356     86.34676     173.1772     346.4578      1.529     5.32     1076.943     61.10528     122.8646        10     1.350     0.592  53.06  16
        58    446.7515    926.6201 307.7394757  +6.3062313     655.0547     910.1947     1010.606     86.34676     173.4529     346.4578      1.478     3.48     1088.543     61.10528     92.27136         5     0.764     0.459  15.02   0
        59    784.0006    921.6146 307.5995520  +6.3195786     1918.279     2597.089     2545.981     86.48502     173.0391     346.4233      1.414     3.53     1082.389     61.10528     305.5385        16     1.179     0.867  47.95   0
        60    876.9509    921.9125 307.5609297  +6.3225581     659.0166     864.1346     306.5028      86.8985     173.2461     346.7336      1.462     4.56     1078.469     61.10528     107.9221         6     1.029     0.573  77.63   0
        61    608.4052    921.5734 307.6724960  +6.3137267     649.4453     1072.632     1121.176     86.34676     173.1772     346.4922      1.392     3.42     1086.127     61.10528     126.2814         5     1.041     0.325  68.19   0
        62     34.8378    918.7515 307.9108396  +6.2956510     909.2039     1310.411     1622.372      86.8985      173.384     346.5267      1.708     6.63     1089.713     61.10528     132.3281        13     1.444     0.855  43.74   0
        63   1015.2582    917.2250 307.5036321  +6.3291047     1504.466     2020.813     2536.909     86.48502      173.384     346.4922      1.524     3.26     1076.216     61.10528     258.2561        13     1.080     0.775  72.97   0
        64    648.2797    918.2318 307.6560446  +6.3164400     714.0464     772.1703     435.9915     86.76089      173.384     346.6302      1.240     3.92     1085.474     61.10528     120.0209         6     0.794     0.553  38.19   0
        65    569.2315    917.5242 307.6889049  +6.3140878     1208.886     1896.286     2334.664     86.76089     173.4529     346.6302      1.805     4.45     1086.473     61.10528     156.4315        13     1.153     0.871  23.79   0
        66    702.4904    915.0065 307.6336338  +6.3195838     2555.353     3662.115     3904.141     86.48502     173.0391     346.4233      1.496     3.13     1083.864     61.10528      383.594        20     1.172     0.999  53.54   0
        67     99.1759    911.4312 307.8843635  +6.3008368      2842.75     4476.961     4936.021     86.34676     173.2461     346.4578      1.745     3.74     1089.785     61.10528      362.973        22     1.322     0.975  48.84   0
        68    863.3301    911.5714 307.5669349  +6.3263732     945.8863     1087.272     831.2015     86.62307      173.384     346.5957      1.326     4.46     1078.534     61.10528     130.9351         7     0.882     0.648  72.49   0
        69    242.9008    910.3226 307.8247015  +6.3061230     2057.804     3228.961      3341.66     86.48502     173.5906     346.6991      1.664     4.21     1089.999     61.10528      298.168        20     1.339     1.056  57.41   0
        70    116.8326    910.5772 307.8770583  +6.3017829      1854.37     2833.107     3059.615     86.34676     173.1772     346.4233      1.608     3.63     1089.798     61.10528     259.0798        18     1.155     1.036  54.99   0
        71    980.8394    910.4090 307.5181588  +6.3307718     1006.999     1395.184     1141.984     86.20827     173.1772     346.3888      1.488     5.39     1076.346     61.10528     121.9907        11     1.096     0.747  50.14   0
        72    834.5841    905.2363 307.5790891  +6.3280294     808.5375     1126.995     1428.493     86.48502     173.1772     346.4233      1.466     4.06     1079.641     61.10528     122.3425         7     0.999     0.472  80.62   0
        73    697.1987    904.2121 307.6361949  +6.3238636     7098.823     10632.07     11086.52     86.48502     173.0391     346.4578      1.595     3.30     1083.414     61.10528     968.7952        31     1.323     1.116  55.67   0
        74    276.4438    906.1981 307.8109077  +6.3089517     724.3464     1064.752     1356.447     86.20827      172.901     346.2853      1.518     3.42     1090.057     61.10528      127.511         5     0.831     0.407  66.89   0
        75     57.5872    902.6868 307.9019339  +6.3030484     971.8954     1584.449     1891.622     86.48502     173.1772     346.5612      1.755     4.28     1089.365     61.10528     149.2667         8     0.954     0.622  73.97   0
        76    934.7875    900.2651 307.5376297  +6.3334247     3139.317     4511.643     4195.692     86.34676     173.1772     346.5612      1.495     3.16     1077.055     61.10528     451.9589        18     1.135     0.871  62.68   0
        77    380.1880    897.4405 307.7681092  +6.3160473     15387.62     24347.39     26386.53     86.20827     173.1772     346.3888      1.712     3.46     1089.118     61.10528      1947.31        46     1.561     1.165  55.94   0
        78     70.4470    901.1777 307.8966434  +6.3041039     1062.689     1642.401     2002.512     86.48502      173.384     346.5267      1.607     2.96     1089.414     61.10528     183.0931         8     0.787     0.756  76.41   0
        79    114.8887    898.4902 307.8782745  +6.3067076     1384.874     1715.975     1507.603      86.8985     173.9344      346.768      1.461     3.32     1089.641     61.10528     254.9712        12     1.076     0.740  59.87   0
        80    251.2031    897.0207 307.8217021  +6.3118934     1156.945     1680.723      1645.76     86.48502     173.0391     346.4233      1.577     6.06     1090.033     61.10528     151.9028        11     1.140     0.905  84.31   0
        81    709.8173    888.8051 307.6314709  +6.3306463     601.9164     1045.721     1499.305     86.48502     173.0391     346.4922      1.529     3.93      1082.07     61.10528     77.73901         6     0.778     0.567  40.97   0
        82    457.9654    888.1725 307.7361132  +6.3224804     1074.245     1535.763     1135.751     86.34676     173.1081     346.4233      1.527     4.21     1087.456     61.10528     149.1597        11     1.139     0.677  71.94   0
        83    143.8041    888.2866 307.8666087  +6.3118920     1607.412     2243.058     2587.021     86.34676     173.0391     346.3543      1.596     4.16     1089.621     61.10528     216.6849        15     1.170     0.889  57.08   0
        84    711.3825    884.3995 307.6309688  +6.3325175     894.3882     1318.661     1244.451     86.48502      172.901     346.3198      1.498     4.88     1081.747     61.10528     126.9368         8     0.952     0.708  61.50   0
        85    925.2952    882.0010 307.5421857  +6.3406489      2098.67     2960.418     3217.038     86.34676       172.97     346.2508      1.476     3.62     1076.795     61.10528     282.6155        15     1.159     0.839  76.12   0
        86    896.0772    881.6791 307.5543343  +6.3398073     2304.519     3219.778     3659.208     87.17306     173.6594     346.8025      1.508     3.22     1077.337     61.10528      347.083        19     1.206     0.908  43.96   0
        87    859.4337    881.0833 307.5695769  +6.3388307     3146.153     4653.043     4895.869      86.8985      173.384     346.6302      1.552     3.39     1078.064     61.10528     507.3452        22     1.361     0.900  52.24   0
        88    126.8936    881.5556 307.8738605  +6.3141025     2312.038     3709.996     3793.142     86.76089     173.3151     346.8025      1.727     3.87       1089.5     61.10528     309.6956        21     1.326     0.956  60.03   0
        89    595.2833    872.5949 307.6795951  +6.3335091       321513     503878.8     530845.9     86.34676       172.97     346.3888      1.716     3.37         1085     61.10528     41678.58       169     1.710     1.432  57.24   0
        90    489.8676    879.3731 307.7231575  +6.3271819     615.6299     1074.115     2424.992     86.48502     173.2461     346.5612      1.874     4.15     1086.962     61.10528     98.00952         6     0.749     0.657  47.44   0
        91    439.5187    875.2225 307.7442125  +6.3272088     7348.523     11813.22     12390.47     86.62307     173.0391     346.5957      1.748     3.47     1087.319     61.10528      1000.51        39     1.519     1.201  53.47   0
        92    683.0397    875.5767 307.6430395  +6.3352128     1143.241     1807.215     2285.705     86.48502     173.1081     346.4233      1.652     4.13     1082.286     61.10528     175.5457        13     1.134     0.870 -81.20   0
        93    382.7418    873.6377 307.7678511  +6.3259600     11975.32     19173.46      20080.8      86.8985     173.4529     346.6991      1.738     3.51     1088.627     61.10528     1638.975        42     1.544     1.175  55.35   0
        94    701.0840    869.8817 307.6357351  +6.3381672     3674.536     5416.392     5510.618     86.62307     173.6594     346.7336      1.552     3.35     1081.298     61.10528     457.3136        24     1.278     1.018  48.90   0
        95    933.6028    868.6379 307.5391827  +6.3464431     5672.683     8502.878     8897.424     85.93063     173.1081     346.4233      1.608     3.27     1076.089     61.10528     771.2728        30     1.397     0.984  54.73   0
        96    772.6006    866.8448 307.6061276  +6.3418104      835.816     1215.926     1101.781     86.20827     173.0391     346.2163      1.630     5.82     1079.265     61.10528     93.37866        11     1.178     0.811  69.05   0
        97    675.8726    863.8881 307.6464099  +6.3397990     3467.271     5159.665     5691.161      86.8985     173.6594     346.6991      1.564     3.49     1081.845     61.10528     453.2144        24     1.281     1.055  54.01   0
        98    864.0482    862.8773 307.5682711  +6.3465014     1745.333     2348.561     1815.654     86.76089     173.4529     346.6302      1.487     3.61     1077.549     61.10528     229.8348        15     1.171     0.843  45.56   0
        99    666.2620    862.6702 307.6504433  +6.3399805      969.788      1534.01     1728.844     87.03589      173.384     346.7336      1.683     4.98     1082.164     61.10528     144.5249        12     1.268     0.754  32.80   0
       100    991.5081    861.9920 307.5153498  +6.3511173     1039.167      1306.39     1267.638     86.48502     173.0391     346.4578      1.429     4.29     1072.705     61.10528     147.5753        10     1.045     0.672  26.29   0
       101    668.8223    858.4811 307.6495206  +6.3417956     2204.839     3628.311     3918.217     86.62307     173.0391     346.5957      1.802     3.90     1081.854     61.10528     291.1504        20     1.315     0.949  34.16   1
       102    952.5738    856.4860 307.5317091  +6.3520928      3514.91     4908.236     5250.438     87.03589     173.1081     346.5267      1.544     3.26     1074.534     61.10528     533.3412        23     1.319     0.934  51.64   0
       103    362.6573    857.3153 307.7767448  +6.3320254     942.0192     1672.723     1570.778      86.8985      173.384      346.768      2.080     6.30     1088.941     61.10528     130.0018        12     1.216     0.916  71.87   0
       104    410.6162    852.4291 307.7569871  +6.3356506     2557.082     4140.524     4426.429     86.48502     173.1081     346.5957      1.804     3.63     1087.206     61.10528     321.4181        24     1.374     1.027  35.60   0
       105    546.9284    842.3799 307.7006997  +6.3443654     2845.494     4376.564     4207.308     86.48502     173.2461     346.5957      1.675     4.23     1084.552     61.10528     362.7023        22     1.323     1.038  52.12   0
       106    891.4875    841.0465 307.5576045  +6.3564301     983.0074     1336.076     1377.276      86.8985     173.2461     346.6646      1.376     4.39     1075.868     61.10528     137.8121         8     0.874     0.680  50.48   0
       107    612.2484    840.1237 307.6736403  +6.3474827     767.5988     1135.598     876.6895     86.76089     173.4529     346.6646      1.522     4.66     1082.516     61.10528     130.4061         6     1.094     0.564  65.06   0
       108    593.7819    838.4846 307.6813668  +6.3475416     5737.794     8845.307     9851.188     86.48502     173.1081     346.5957      1.677     3.50     1082.884     61.10528     764.3644        29     1.341     1.121  55.05   0
       109    600.5219    837.9528 307.6785848  +6.3479867     1231.991     1999.016     2129.608      86.8985     173.4529     346.6302      1.761     4.81     1082.681     61.10528      162.651        13     1.266     0.800  59.70   0
       110    511.5878    837.7291 307.7155375  +6.3451023     1324.056     2039.332     1652.553     86.34676     173.1081     346.4578      1.591     5.46     1085.211     61.10528     182.8796        14     1.179     0.888  82.05   0
       111    929.3270    836.5468 307.5420355  +6.3595499     1498.184      2110.01     2383.054     86.76089      173.384     346.6646      1.662     3.80     1074.647     61.10528     249.1825        14     1.199     0.779  62.85   0
       112    153.2285    836.5453 307.8644429  +6.3335699     1264.413     2207.925      2456.82     86.62307     173.4529     346.5957      1.911     4.87     1088.982     61.10528     178.0065        16     1.265     0.939  73.10   0
       113    729.0256    835.5731 307.6252807  +6.3532658     649.5649     981.1581     924.6201     86.34676     173.1772     346.4922      1.554     4.67     1079.459     61.10528     108.5331         5     1.145     0.586 -48.25   0
       114    564.4120    832.3046 307.6937758  +6.3491103     18476.09     29555.12     31635.73     86.62307     173.1081     346.4233      1.768     3.57     1083.316     61.10528     2203.865        52     1.588     1.233  52.87   0
       115    977.9684    830.4524 307.5220322  +6.3636878     4040.871     5595.628     5226.752     86.76089     173.4529     346.5612      1.449     3.07     1072.608     61.10528     607.8337        25     1.348     0.973  69.68   0
       116    357.1644    821.2169 307.7802444  +6.3467445     2862.067     5142.283     5767.259     86.48502     173.1772     346.4233      1.922     4.22     1087.854     61.10528     372.9388        29     1.483     1.180  53.52   0
       117     75.1033    822.5782 307.8973681  +6.3367098     1513.257     2255.175     2066.874     86.76089     173.1772     346.4578      1.541     3.91     1087.948     61.10528     224.3503        12     1.195     0.755  48.20   0
       118     56.9253    819.1639 307.9050347  +6.3375080     1876.876       3250.9     3922.705     86.76089     173.4529     346.6991      1.961     4.97     1087.579     61.10528     228.3014        23     1.571     0.928  52.19   0
       119    822.4820    816.8156 307.5870856  +6.3641314     55754.86     83105.87     86986.58     86.48502     173.0391     346.5267      1.601     3.15     1077.094     61.10528     7033.869        66     1.501     1.208  53.83   0
       120    279.7936    814.6529 307.8126068  +6.3468587     4697.571     8319.562     10326.36     86.34676     173.1772     346.3543      2.125     4.25     1089.432     61.10528     583.8831        36     1.612     1.200  56.91   0
       121    465.7814    815.4838 307.7353160  +6.3527522     843.0984     1079.485     965.6824     86.48502     173.0391     346.6302      1.687     5.41     1085.665     61.10528     103.9224         9     1.264     0.654  53.58   0
       122    947.7844    812.0382 307.5351896  +6.3702842     9008.988     12767.47     13282.28     86.62307     173.1772     346.3888      1.484     3.20     1072.804     61.10528     1247.411        32     1.373     1.001  57.65   0
       123    750.7204    811.3845 307.6170809  +6.3639772     21124.86      33337.3     35274.18     86.48502     173.1081     346.4578      1.701     3.34     1078.603     61.10528     2777.385        46     1.477     1.206  67.94   3
       124    744.4660    807.9168 307.6197957  +6.3651999     86283.08     132415.7     139595.1     87.17306     173.6594     346.7336      1.681     3.34     1078.666     61.10528     10627.21        83     1.598     1.273  55.30   3
       125    389.4093    808.8176 307.7672675  +6.3529449      18437.1     30968.31     33166.49     86.62307     173.1081     346.5267      1.817     3.69     1086.884     61.10528      2189.68        58     1.647     1.333  57.83   0
       126      1.6730    810.5159 307.9282789  +6.3392193     2994.232     3993.204     4195.407     80.17609     143.6065     267.0797      1.394     3.66     1086.566     61.10528     511.0061        15     1.290     0.704  81.38  24
       127    451.2425    806.6382 307.7416540  +6.3559171      20066.2     33715.18     35469.79     86.62307      173.384     346.5267      1.807     3.69     1085.747     61.10528     2353.515        57     1.619     1.321  50.90   0
       128    438.6408    808.9586 307.7468108  +6.3545369     1346.447     2075.774     2169.928     86.62306      173.384     346.5267      1.655     4.24      1086.01     61.10528     169.4404        17     1.304     0.895  45.06   0
       129    677.8118    808.0981 307.6474805  +6.3628974     919.3223     1432.152     1747.059     86.62307     173.1081     346.4233      1.766     3.74     1079.727     61.10528     160.3071         9     0.985     0.836 -47.12   0
       130    279.2989    793.3339 307.8135321  +6.3556437     777307.8      2029346      2269904      86.8985     173.5218     346.6646      2.437     6.11     1088.798     61.10528     63625.48       512     2.392     2.002  61.14   4
       131    917.2974    804.0662 307.5481228  +6.3725590     834.0841     1076.824     963.8221      86.8985     173.4529     346.7336      1.315     4.22     1073.172     61.10528     129.1918         7     0.770     0.661  66.28   0
       132    474.1369    800.5390 307.7323485  +6.3592022     1613.546     2802.536     2896.481      86.8985      173.384     346.6991      1.770     5.19     1085.157     61.10528     194.1874        17     1.354     1.001  73.30   0
       133    638.2522    794.3585 307.6643773  +6.3672473     838.7251     1366.588     1232.754      86.8985     173.4529     346.6646      1.838     5.26     1079.242     61.10528     122.0552        10     1.216     0.643  52.23   0
       134    988.2646    805.6533 307.5185861  +6.3742698     2420.985     3594.026     4015.129      86.8985     173.3151     346.6302      1.596     3.26     1071.788     61.10528     369.4188        16     1.177     0.828  60.07   0
       135    189.9512    793.7637 307.8506341  +6.3524660     784.4852     1451.334     2055.697     86.62307     173.3151     346.5267      2.318     6.94     1088.482     61.10528     121.9418        12     1.377     1.259 -49.92   0
       136    913.1834    794.3297 307.5501587  +6.3764417      667.439     885.7365     1188.494     86.34676     173.3151     346.5612      1.525     3.85     1072.846     61.10528     109.1528         6     1.016     0.418 -13.48   0
       137    720.2928    792.5873 307.6303536  +6.3707212     2284.957     3642.528     3552.893     86.62307     173.1081     346.4578      1.708     3.77     1078.315     61.10528      294.332        21     1.293     0.999  64.53   0
       138    164.9651    793.0425 307.8610380  +6.3519243     1068.556     1706.865      1373.16     86.62307      173.384     346.4578      1.663     4.68     1088.166     61.10528     129.2678        13     1.050     0.941 -50.88   0
       139    454.1806    789.3399 307.7410164  +6.3631573     47150.92     80131.84     85202.59     86.48502     173.2461     346.5267      1.826     3.75     1084.791     61.10528     5587.323        76     1.659     1.385  52.60   0
       140    997.2605    791.0381 307.5153387  +6.3806037     835.5226     1236.728     1268.678      86.8985     173.4529     346.6646      1.483     2.59     1070.816     61.10528      154.343         7     0.741     0.638  69.55   0
       141    571.9304    788.3659 307.6921317  +6.3675025     6536.586     10708.62     11011.21     86.76089      173.384     346.7336      1.757     3.72     1080.079     61.10528     776.4659        36     1.483     1.180  48.45   0
       142    488.7249    786.9402 307.7267465  +6.3653053     3971.874     6811.282     7636.997     87.17306      173.384     346.6302      1.880     4.17     1083.791     61.10528     481.8853        29     1.543     1.114  48.25   1
       143    817.0513    784.8779 307.5904144  +6.3771361     11367.57     17412.34     17544.86      86.8985     173.4529     346.6646      1.611     3.31     1075.747     61.10528     1470.198        38     1.435     1.121  48.99   0
       144    944.7042    803.4844 307.5367562  +6.3737131     7192.558     10499.06     11236.58      86.8985      173.797      346.768      1.571     3.06      1072.45     61.10528     1026.427        33     1.399     1.027  58.66   0
       145    485.4604    780.1802 307.7283304  +6.3679868     2118.232     3648.522     3955.725     86.48502     173.2461     346.5612      1.889     4.48     1083.614     61.10528     223.4774        23     1.380     1.110  35.57   0
       146     46.5568    781.0945 307.9106300  +6.3528759     1022.018     1364.497     1567.445      86.8985     173.3151     346.8025      1.422     3.93     1086.995     61.10528     150.3966         8     0.884     0.675  35.75   0
       147    838.5967    779.1780 307.5816547  +6.3802086     1249.488     1817.335     1286.389     86.48502     173.0391     346.4233      1.573     4.54      1074.44     61.10528     150.6277        14     1.075     0.931  88.58   0
       148    174.9747    777.0637 307.8574200  +6.3588574     9891.529     16996.65     18977.99     86.48502      173.384     346.5957      1.858     3.81      1087.66     61.10528     1226.584        46     1.666     1.233  53.50   1
       149    183.1224    777.3521 307.8540255  +6.3590121     2619.743     4629.703     6105.472     86.76089     173.4529     346.6302      2.043     3.87     1087.723     61.10528     343.4604        25     1.341     1.166  56.43   0
       150    167.2764    774.5875 307.8607017  +6.3596210     2576.177     4728.314     5419.227     86.48502       172.97     346.4578      2.085     4.16     1087.523     61.10528     343.3304        27     1.387     1.224  64.01   3
       151    167.4874    768.1709 307.8608309  +6.3622772     1784.309      3264.51     4267.393     87.03589     173.1081     346.5267      2.052     4.83     1087.265     61.10528     234.1637        24     1.513     1.111  65.82   3
       152    962.6294    773.4730 307.5303156  +6.3867015     6837.494     9577.427     9670.231     86.76089      173.384     346.6302      1.469     3.14     1070.546     61.10528     911.8328        30     1.363     0.993  47.22   0
       153   1011.7766    773.4587 307.5098972  +6.3883455     1662.455     2542.104     3613.019     86.48502      173.384     346.5267      1.702     4.20     1069.039     61.10528     215.1224        13     1.231     0.758  39.23   0
       154    718.2658    771.2640 307.6319126  +6.3794571      1518.93     2469.581      2502.22      86.8985      173.384     346.6646      1.752     5.21     1076.746     61.10528     187.6455        13     1.198     0.891  42.19   0
       155    605.1475    770.7136 307.6789262  +6.3759019     2029.929     3349.879      3026.58      86.8985     173.2461     346.8025      1.750     4.27     1078.235     61.10528     256.1024        20     1.309     1.065  60.86   0
       156    452.8528    770.1325 307.7422155  +6.3710427     1185.483     1944.157     1856.756     86.76089     173.3151     346.5612      1.742     4.33     1083.588     61.10528     151.2603        12     1.125     0.784  85.71   0
       157    685.1985    802.4117 307.6446030  +6.3654921     6174.132     10002.05     10594.58     86.48502     173.0391     346.4578      1.728     3.41     1079.409     61.10528     833.6908        37     1.529     1.186  40.34   0
       158    956.7791    765.3449 307.5330188  +6.3898623         3213     4829.698     4918.704     86.34676      173.384     346.4578      1.576     3.23     1070.319     61.10528     481.8734        24     1.344     0.977  66.21   0
       159   1017.0581    764.5505 307.5080015  +6.3921994     2000.026     2959.554     3802.491      86.8985      173.384     344.7638      1.538     3.09     1068.213     61.10528     357.2264        17     1.190     0.862  55.83  16
       160    986.1933    764.7743 307.5208173  +6.3910785     3264.613     4462.118     5180.813     86.34676     173.2461     346.4578      1.442     3.20     1069.302     61.10528     467.7496        20     1.189     0.902  56.46   0
       161    709.1209    764.6824 307.6359332  +6.3818688     1368.091     2112.846     2279.748     87.03589     173.6594     346.8025      1.854     5.16     1076.421     61.10528     167.1923        14     1.192     0.898  70.52   0
       162    856.1266    762.8499 307.5749200  +6.3875350     1002.826     1649.166     1043.729      86.8985     173.4529     346.6991      1.655     4.72      1072.75     61.10528     168.9565        13     1.323     0.691  53.58   0
       163    931.9342    760.4675 307.5435046  +6.3910477     871.2606     1211.727     956.8738      86.8985      173.384     346.6991      1.593     4.69     1071.008     61.10528     135.9924         7     1.123     0.556  24.32   0
       164    281.9456    759.9715 307.8135591  +6.3695062     1525.876     2733.315     3479.215     86.62307     173.4529     346.5612      1.955     4.88     1087.087     61.10528     196.1459        16     1.295     0.906  37.80   0
       165    974.4543    755.4582 307.5260069  +6.3945335     1086.963     1521.539     1661.419     87.03589      173.384     346.6646      1.533     4.37     1069.117     61.10528     167.7477        10     1.101     0.682  68.23   0
       166    301.4835    755.2545 307.8056017  +6.3721093     658.8586     1042.485     713.6105      86.8985      173.384     346.8369      1.651     5.50     1086.462     61.10528     93.70605         6     1.014     0.842  39.72   0
       167    257.2714    755.8229 307.8239496  +6.3703906      1719.42      2447.51     3506.339     86.48502     173.2461     346.6646      1.025     0.62     1086.949     61.10528     886.3312         7     0.840     0.435 -46.73   0
       168    197.5659    754.7045 307.8487908  +6.3688473     670.4292     781.4175      1133.11     87.03589     173.2461      346.768      1.275     4.12     1086.895     61.10528     102.7454         5     1.009     0.481  82.14   0
       169   1001.0649    752.8378 307.5150388  +6.3965023     2553.164     3795.447     4331.766     86.76089     173.3151      346.768      1.561     3.10     1067.872     61.10528     391.0829        19     1.168     0.943  45.19   0
       170    948.3741    753.6999 307.5369014  +6.3943900     1200.511     1750.061     1805.514      86.8985     173.1081     346.5612      1.597     3.86     1070.124     61.10528     172.3038        11     1.007     0.860  67.24   0
       171    720.7653    751.2836 307.6315459  +6.3877898      787.736      951.556     625.0776      86.8985      173.384     346.6302      1.502     4.92      1075.26     61.10528     121.2814         7     1.028     0.668  63.71   0
       172    442.6728    747.9628 307.7471920  +6.3798545     570.6357     1032.737     1076.091     86.76089      173.384     346.7336      1.748     3.92     1082.228     61.10528     111.3599         4     1.197     0.367 -44.65   2
       173    844.2070    744.6502 307.5804832  +6.3946513     1191.198     1813.133      1685.99     86.34676     173.1081     346.2853      1.584     4.36      1071.99     61.10528     156.7916        15     1.269     0.822  39.83   0
       174    930.6252    741.9088 307.5446711  +6.3986663     1603.558     2298.701      2514.77     87.03589     173.1081     346.4922      1.538     3.58     1070.375     61.10528     214.8989        12     1.062     0.840  75.58   0
       175    904.4583    737.2045 307.5557006  +6.3997358     859.0344     1332.635     1582.939     86.20827     173.2461     346.4233      1.685     4.10       1070.5     61.10528     135.5699         7     1.184     0.406  74.94   0
       176    887.6154    733.4788 307.5628234  +6.4007121     1414.831     1978.643     1860.719     86.48502     173.1081     346.4922      1.650     3.92     1070.494     61.10528     189.8149        13     1.140     0.806  64.86   0
       177    151.3238    733.2124 307.8687275  +6.3761665     592.2574     1063.314     1850.609     86.48502       172.97     346.4578      2.337     6.12     1085.981     61.10528     109.4513         7     1.677     0.628  83.84   2
       178     86.5216    732.3101 307.8956787  +6.3743604     2051.799     3540.634     3449.634     86.62307     173.6594      346.768      1.831     4.46     1086.087     61.10528     261.1204        23     1.348     1.141  62.02   0
       179    699.1088    720.9027 307.6415650  +6.3996092     5660.695      9220.53     10371.19      86.8985     173.9344     346.6646      1.796     3.55     1073.726     61.10528     667.4344        37     1.444     1.275  54.96   0
       180    646.1625    719.8571 307.6635976  +6.3982706     1315.741      2487.81     2371.171      86.8985     173.4529     346.6646      1.908     4.30     1074.683     61.10528     180.5055        16     1.192     0.954  41.10   0
       181    162.4968    716.9013 307.8646374  +6.3832760     3452.917      6018.99     6603.256      86.8985     173.9344     346.4922      1.908     4.22     1085.394     61.10528     403.6873        32     1.533     1.172  46.12   0
       182    672.7986    716.5377 307.6526428  +6.4005318     2026.259      3247.78     3201.693     86.20827     173.1772     346.3543      1.726     4.57     1073.756     61.10528     257.6982        21     1.377     1.053  46.46   0
       183    348.4006    715.9630 307.7874365  +6.3899050     582.5017     1065.618     754.7526     85.93063     173.1772     346.4578      1.671     4.44     1083.236     61.10528     78.52185         5     1.398     0.401  77.86   0
       184    816.0793    712.9036 307.5932357  +6.4068194     18725.42     29344.53     30730.02     86.62307     173.6594      346.768      1.652     3.44     1071.443     61.10528     2341.745        51     1.539     1.196  53.65   0
       185    946.1200    712.6543 307.5392148  +6.4112613     3779.813     5692.127     6118.078      86.8985      173.384     346.6991      1.656     3.31     1068.479     61.10528      541.783        25     1.404     0.953  58.80   0
       186    515.3670    713.1066 307.7181657  +6.3966804     1072.955     1661.537     1395.611     87.03589     173.2461     346.7336      1.758     5.68     1078.281     61.10528      175.306        13     1.255     0.872  55.79   0
       187    543.6282    712.7358 307.7064367  +6.3977797     729.6695     1225.749      1440.87     86.48502      173.384     346.5957      1.724     3.48     1076.845     61.10528     145.5653         7     1.062     0.855 -43.95   0
       188    289.7015    706.7274 307.8121348  +6.3917484     5206.715     8927.816     9450.168     86.62307     173.5218     346.6646      1.834     3.96     1084.481     61.10528     649.1368        36     1.536     1.217  56.87   0
       189    696.5848    705.7454 307.6431234  +6.4057827     6256.662     10463.43     11264.74     86.20827      173.384     346.3543      1.811     3.82     1073.022     61.10528     725.0659        36     1.508     1.202  55.22   0
       190    679.0203    707.1670 307.6503731  +6.4046086     859.9741     1313.923     1316.359     86.34676     173.1772     346.4922      1.646     5.33       1073.2     61.10528     148.8107         9     1.335     0.600 -61.43   0
       191    392.0376    704.8218 307.7696833  +6.3959682     649.2033     1095.751     1097.752     86.48502     173.1081     346.4233      1.866     5.22     1081.195     61.10528     94.72241         7     1.033     0.746  82.10   0
       192    956.6095    698.3883 307.5353351  +6.4175010     1368.883     1758.382     2028.607     86.62307     173.1772     346.6302      1.584     3.59     1067.595     61.10528     174.7072        13     1.106     0.784  49.55   0
       193    768.4614    694.2815 307.6136456  +6.4129176     3502.554     5477.124     5748.883     87.03589      173.384     346.6646      1.719     4.04     1071.677     61.10528     424.6805        24     1.395     1.024  60.31   0
       194    723.8681    694.6099 307.6321622  +6.4112920     1024.712     1497.992     1296.524     86.34676     173.1772     346.4922      1.597     4.21     1072.339     61.10528     132.3314         9     0.952     0.753  24.62   0
       195    973.0594    691.2343 307.5287403  +6.4210031     2466.628     3441.808     3153.752     86.76089      173.384     346.5957      1.462     3.34     1067.014     61.10528     389.4156        16     1.125     0.868  56.62   0
       196     53.6809    690.6514 307.9107314  +6.3904543      1727.17     3316.953     4544.745      86.8985      173.384     346.6646      2.506     5.22     1084.965     61.10528     263.2759        25     1.508     1.231  34.96   0
       197   1022.8100    690.7643 307.5080851  +6.4228552     517.0037     803.4731     913.2698     84.81096      150.909     275.7521      1.465     3.84     1065.922     61.10528     85.77539         5     0.938     0.450  46.11  24
       198    573.4755    686.8195 307.6949089  +6.4094786     1812.945     2940.668     2964.559     86.48502     173.1081     346.5957      1.757     5.65     1075.264     61.10528     192.4907        18     1.342     0.975  65.72   0
       199    112.0882    685.7520 307.8866324  +6.3944414     21856.23     38356.14     41027.91      86.8985     173.2461      346.768      1.899     3.86     1084.558     61.10528     2614.961        59     1.662     1.358  54.59   0
       200    541.6443    683.7108 307.7082386  +6.4096965     1091.942     1703.273     1579.319      86.8985     173.3151     346.6991      1.713     6.53     1075.588     61.10528     125.1619        14     1.149     1.042  76.63   0
       201    963.1035    682.5377 307.5331686  +6.4242617     1179.849     1579.698     1571.185     86.62307     173.4529     346.7336      1.355     3.76     1066.999     61.10528     204.7512        11     1.059     0.795 -82.51   0
       202    582.4491    680.9020 307.6913799  +6.4122221     876.9999     1561.254     2072.636      86.8985     173.3151     346.8369      2.241     5.78     1074.945     61.10528     126.2081        11     1.244     0.926  65.56   0
       203    757.9218    677.8337 307.6185775  +6.4193562     3333.343     5353.587     5751.818     86.76089      173.384     346.6302      1.730     3.61      1071.19     61.10528     407.0082        27     1.378     1.157  66.99   0
       204    780.0756    676.0731 307.6094320  +6.4208232     3831.894     6103.414     6484.108     87.17306     173.6594     346.6991      1.699     3.82     1070.747     61.10528     436.1725        28     1.450     1.089  54.45   0
       205    611.5050    673.9675 307.6795412  +6.4160573     2776.307     4915.069     5269.576     87.03589     173.2461      346.768      1.913     4.22     1074.342     61.10528     341.7686        28     1.455     1.183  61.73   0
       206    447.6445    674.3698 307.7476076  +6.4104044     1106.704     2126.009     2409.212     86.48502      173.384     346.4922      2.006     6.90     1078.394     61.10528     130.8969        17     1.306     1.239 -20.98   0
       207    272.1422    673.6520 307.8205468  +6.4048142     1329.224     2198.081     2188.372      86.8985      173.384     346.6646      1.829     6.22     1083.018     61.10528     149.9524        18     1.314     1.109  80.07   0
       208   1018.2688    671.0776 307.5106319  +6.4308319     8408.795     12145.61     12658.45     87.03589     173.5218     336.0235      1.541     3.26      1065.98     61.10528      1268.11        35     1.430     1.061  59.38  16
       209    355.6502    672.5922 307.7858882  +6.4080540     1252.553     2124.824       2429.8     86.34676     173.1772     346.3198      1.907     4.55     1080.959     61.10528     136.7874        13     1.168     0.851  45.37   0
       210    738.5833    669.7935 307.6268826  +6.4220296     899.4732     1254.169     1043.572     86.48502     173.1081     346.4922      1.643     6.34     1071.178     61.10528     112.7717        12     1.203     0.938  56.09   0
       211    130.3286    668.3163 307.8796443  +6.4022529     628.0021     1051.366      1018.52     87.17307     173.7282     346.6991      1.704     5.37     1083.914     61.10528     113.2604         6     0.978     0.834 -65.16   0
       212    176.7926    664.6444 307.8604648  +6.4053305     19386.22     35209.25     37415.82     86.34676     173.1772     346.3198      1.907     4.08     1083.413     61.10528     2474.747        55     1.678     1.370  52.71   0
       213    463.6741    665.6273 307.7412425  +6.4145509      2284.53     4249.912     4578.956     86.76089     173.3151     346.6302      1.964     4.64     1077.681     61.10528     270.0657        24     1.363     1.205  33.67   0
       214    845.2350    665.0923 307.5827278  +6.4275324     944.5024     1253.463     1208.032     87.03589     173.2461     346.7336      1.380     2.66     1069.143     61.10528     159.3938         6     0.724     0.572  42.44   0
       215   1013.1556    654.0156 307.5133285  +6.4377059     7081.908     11086.76     11759.81     86.34676     173.1772     346.4578      1.633     3.36     1064.894     61.10528     1028.523        34     1.520     1.044  42.56   0
       216     57.9734    653.5426 307.9102040  +6.4059188     909.9409     1505.248     1066.098     86.48502     173.4529     346.4578      1.777     5.16     1084.097     61.10528     144.0295        11     1.153     0.997 -33.65   0
       217    606.7422    649.3834 307.6823476  +6.4260478      40652.6     71235.71     75682.62     86.20827     173.3151     346.3888      1.877     3.99      1073.31     61.10528     4591.218        74     1.679     1.417  51.13   0
       218    971.3931    650.6057 307.5307954  +6.4377219     662.9221     1007.184     1111.082     86.20827     173.1772     346.4922      1.448     3.48     1065.393     61.10528     99.50354         5     1.038     0.338  68.93   0
       219    250.1376    650.0263 307.8304869  +6.4138292     597.6461     953.3136     1172.699     86.48502     173.3151     346.5612      1.815     4.70     1081.801     61.10528     88.15259         5     0.986     0.636 -55.26   0
       220    831.1840    648.5905 307.5891202  +6.4338764     548.9507     770.1998      526.899     86.62307     173.1081     346.5612      1.320     3.46     1068.797     61.10528     73.09277         5     0.778     0.444 -19.27   0
       221    214.5070    645.9777 307.8454269  +6.4143041     2210.729      3810.82     4574.622      86.8985     173.1772     346.4922      1.963     4.00     1082.259     61.10528     286.6608        25     1.413     1.099  21.66   0
       222    106.7420    640.4769 307.8903851  +6.4129532     1111.387     1925.378     1745.416     87.03589      173.384     346.5957      1.810     5.64     1083.349     61.10528     151.3346        14     1.403     1.031  69.45   0
       223    504.0244    633.2275 307.7255697  +6.4292792      50576.2     92682.92     99265.84     86.34676     173.1772     346.4922      1.958     4.13     1075.185     61.10528     5775.925        86     1.733     1.481  54.85   0
       224    690.1796    630.2559 307.6483236  +6.4367354     741.5114     1364.701     796.4423     86.34676      173.384     346.4578      1.851     6.68     1070.181     61.10528     105.5948         9     1.385     0.904 -87.44   0
       225    178.6402    628.1878 307.8609297  +6.4204436     1357.866     2327.859     2834.647     86.20827     173.1772     346.4233      1.798     4.16     1082.517     61.10528      243.705        18     1.321     0.993  44.66   0
       226    457.6205    626.3268 307.7450825  +6.4305735     750.8018     1222.999     1116.575     86.48502     173.3151     346.5957      2.094     5.58     1076.182     61.10528     92.57166         7     1.068     0.821 -71.67   0
       227    973.6339    625.5745 307.5307039  +6.4481312     666.3166     903.8033     893.2673     86.20827     173.1081     346.4233      1.578     4.49     1063.928     61.10528     96.26355         6     1.180     0.486  61.01   0
       228    649.8524    624.6819 307.6652670  +6.4376882     690.5453     1266.266     961.9193      86.8985      173.384     346.6991      1.987     6.38     1070.891     61.10528     98.39331         8     1.267     0.903  59.04   0
       229    349.3814    622.5629 307.7901811  +6.4284984     1795.969     3377.383      4007.25     86.48502     173.1772     346.4233      1.973     4.61     1078.213     61.10528     198.6991        23     1.345     1.162 -66.17   0
       230     47.6311    634.9437 307.9151303  +6.4132493     1494.292     2551.416     2940.782     86.76089      173.384     346.5612      1.833     5.94      1084.05     61.10528     190.0206        17     1.394     0.956 -81.26   0
       231    776.0914    616.5801 307.6130868  +6.4452526     4791.134     7856.346     8109.304     86.76089     173.1081     346.5267      1.743     3.63     1068.705     61.10528     545.0419        32     1.402     1.210  70.31   0
       232    829.6246    611.9047 307.5910003  +6.4489707     12788.75     20446.21     21095.73     87.03589     173.1081     346.5267      1.723     3.51     1067.382     61.10528     1469.566        47     1.519     1.243  50.59   0
       233    571.6725    611.8800 307.6981816  +6.4403578      1145.61      2034.51     2433.143     87.17306     173.6594     346.6991      2.168     6.94     1072.513     61.10528     118.7301        15     1.277     1.056 -76.36   0
       234    653.6913    609.9585 307.6641674  +6.4438953     2309.952     4225.103     4120.595      86.8985      173.384     346.7336      1.893     4.75     1070.272     61.10528     252.3364        28     1.519     1.251  72.81   0
       235    970.7927    606.3375 307.5325297  +6.4559788     1175.464      1779.27     2105.814     86.20827     173.1772     346.4578      1.850     5.54     1062.861     61.10528     144.8096        11     1.180     0.733  41.31   0
       236    266.4316    603.9351 307.8252742  +6.4334051     917.2477     1637.818     1423.662     86.62307      173.384     346.5957      1.965     6.91     1078.768     61.10528     153.7886        14     1.549     1.056 -86.04   0
       237    411.5775    603.1103 307.7649958  +6.4386153     837.6462     1338.213     1343.027      86.8985     173.1772     346.5267      1.750     6.95      1076.15     61.10528      109.911        12     1.365     0.992 -11.03   0
       238    905.6462    595.0989 307.5599765  +6.4584462     2708.311     4117.451     4017.147      86.8985     173.2461     346.9058      1.643     3.57     1064.314     61.10528     372.5848        21     1.302     0.963  57.17   0
       239    864.3025    592.3812 307.5772469  +6.4581888     2257.218     3769.435     4419.767     86.76089     173.2461     346.3888      1.865     5.51     1065.579     61.10528      286.981        24     1.611     1.068  63.87   0
       240    835.1252    588.4670 307.5895020  +6.4588309     2342.428     3916.018     4869.705     87.03589     173.5218     346.6302      2.050     3.89     1066.154     61.10528      279.632        20     1.267     1.036  65.02   0
       241    292.5452    587.6899 307.8149730  +6.4409886     6182.727     11578.75     12504.71     86.76089     173.1772     346.8025      1.999     4.13     1076.972     61.10528     778.9917        46     1.631     1.417  60.92   0
       242    844.9832    583.8057 307.5855625  +6.4610845     142703.4     234028.5     247783.5     86.48502     173.0391     346.4922      1.741     3.55     1065.716     61.10528     16218.73       119     1.672     1.404  55.68   0
       243    777.7840    588.6025 307.6133238  +6.4568601     694.2637     1128.323     1693.959     86.48502       172.97     346.4578      1.807     3.28     1067.357     61.10528      112.274         5     0.742     0.442  20.64   0
       244    226.7297    582.2333 307.8425028  +6.4410314     46257.76     86364.23     93376.91     86.76089      173.384     346.6991      2.007     4.19     1079.428     61.10528     5398.426        85     1.822     1.488  58.75   0
       245      4.8699    580.8773 307.9347265  +6.4341310     3635.642     6543.236     6855.667     87.17306     173.6594      315.786      1.915     4.29     1083.314     61.10528     414.2061        32     1.592     1.175  49.53  16
       246    150.6110    578.5450 307.8742536  +6.4399964     4989.398     9258.567     9396.626     86.20827     173.3151     346.3198      1.975     4.31     1081.257     61.10528     569.2349        41     1.634     1.358  56.17   0
       247   1015.9437    575.3984 307.5148060  +6.4702575     1378.058     1996.825     1901.473     86.20827     173.0391     346.3543      1.582     3.80     1059.131     61.10528     220.2883        12     1.194     0.664  45.65  16
       248    881.5059    571.1333 307.5708119  +6.4675355     4127.045      6730.87     7231.883     86.76089     173.5906     346.6646      1.760     3.63     1064.051     61.10528     502.6135        28     1.481     1.039  46.34   0
       249    400.0466    569.3782 307.7709248  +6.4521552     13083.27     25182.47     26524.22     86.48502      173.384     346.4922      2.010     4.42     1074.203     61.10528     1492.906        54     1.694     1.439  53.18   0
       250    201.9580    568.2495 307.8532678  +6.4459724     1507.434     3018.917       5104.1     87.03589      173.384     346.6302      3.512     6.30     1079.485     61.10528     220.7925        23     1.599     1.110  41.63   0
       251    835.5886    564.4443 307.5901165  +6.4687645     5198.533     8630.331      9046.07     86.34676     173.2461     346.3543      1.805     3.83     1065.022     61.10528     576.9716        35     1.495     1.223  55.16   0
       252    566.3325    564.1297 307.7020086  +6.4598932     5198.044     9282.163     10188.39      86.8985     173.5218     346.6302      1.922     4.12      1070.28     61.10528      573.064        37     1.515     1.339  74.78   0
       253    138.7489    565.9127 307.8796094  +6.4448128     760.3878     1399.245     360.0721      86.8985     173.2461      346.768      1.810     5.99     1080.852     61.10528      101.165         8     1.241     0.814  -2.77   0
       254    424.9273    560.7388 307.7608781  +6.4565561     1049.001     2049.497     2428.059     87.03589      173.384     346.6991      2.099     6.05     1073.495     61.10528     146.6998        16     1.362     1.255 -38.19   0
       255    213.4299    557.3607 307.8488694  +6.4508532     5037.065     9801.003     11008.32     86.34676     173.1081     346.5267      2.073     4.39     1078.638     61.10528     617.7917        42     1.620     1.423  54.13   0
       256    611.3038    557.2620 307.6835535  +6.4642337     1855.644     3965.692     4316.323     86.62307     173.4529     346.7336      2.210     5.49     1068.859     61.10528     189.9611        29     1.496     1.341  84.15   0
       257    308.6630    553.8714 307.8094182  +6.4554915     65633.98     126382.8     136880.6      86.8985      173.384     346.7336      2.051     4.36     1074.901     61.10528     7480.067        96     1.818     1.566  59.26   0
       258     10.5234    558.3956 307.9331390  +6.4436026     1144.209     2140.559     1918.324     86.48502     172.8318     346.4922      1.903     3.92     1081.868     61.10528     181.2635        10     1.163     0.714  57.67   0
       259    851.8647    556.6648 307.5836146  +6.4725197     1250.233     2158.231     2300.415      86.8985      173.384     346.6646      1.761     4.65     1064.344     61.10528     180.7957        12     1.111     0.837  73.74   0
       260     85.0313    556.1480 307.9022585  +6.4470377     3945.026     7327.494     7637.401     86.76089     173.5218     346.5957      1.956     4.30     1081.217     61.10528     491.4678        35     1.560     1.285  61.56   0
       261    597.8126    550.9848 307.6893707  +6.4663738     755.8427     1188.792     1456.676     86.76089     173.0391     346.5957      1.478     4.84     1068.878     61.10528      92.2417         8     0.868     0.764 -75.48   0
       262    292.3762    548.6730 307.8163609  +6.4570910     903.5673     1997.589     2707.958     86.48502     173.1772     346.5957      2.668     6.19     1075.238     61.10528     126.5425        11     1.388     0.776 -50.85   0
       263    831.7437    546.1840 307.5923276  +6.4761752        14432     23671.47     24751.54     86.20827     173.3151     346.3888      1.750     3.63     1064.276     61.10528     1657.521        47     1.551     1.242  53.41   0
       264   1007.9900    547.3960 307.5190500  +6.4815538     1620.247     2394.735     1895.148     86.34676     173.0391     346.5267      1.580     3.52     1057.336     61.10528     243.6316        14     1.107     0.863  29.34   0
       265    535.3997    544.6464 307.7155180  +6.4669014     31676.98     63089.64     69614.25     86.06956     173.0391     346.1818      2.094     4.47     1070.098     61.10528     3403.009        84     1.851     1.599  40.94   0
       266    685.4904    543.2780 307.6531980  +6.4724885      855.084     1368.742     1216.992     86.62307     173.6594     346.7336      1.722     6.56     1066.613     61.10528     94.94336        12     1.319     0.915  25.05   0
       267     83.6055    541.6210 307.9033425  +6.4529871     1102.341     1854.086     2083.223     86.48502     173.1081     346.4578      1.866     6.70     1080.721     61.10528     157.5117        15     1.330     0.946  85.75   0
       268    695.3829    539.7015 307.6492076  +6.4742958     2431.146     4387.868     4297.424      86.8985     173.1772     346.4233      1.902     4.34     1066.267     61.10528     276.1085        27     1.456     1.169  67.53   0
       269    247.9181    541.1163 307.8350886  +6.4587181     1356.015      2444.01     2093.407     86.62307     173.6594     346.7336      1.828     4.41     1076.494     61.10528     204.6135        17     1.190     1.049  64.28   0
       270    757.6044    538.7176 307.6233858  +6.4767816      1180.66     2060.495     2375.107     86.34676       172.97     346.3543      1.952     6.72     1065.049     61.10528     142.0338        14     1.421     0.892  68.47   0
       271    705.2946    539.7664 307.6450869  +6.4746004     1148.527     2198.804     2140.764     87.03589     173.2461      346.768      1.971     5.09     1066.037     61.10528     139.7424        15     1.227     1.020 -22.74   0
       272    433.5035    535.3138 307.7581722  +6.4673404     1238.973     2246.912     2333.782      86.8985      173.797     346.6991      1.929     5.50     1071.735     61.10528     186.6003        13     1.176     0.994  23.23   0
       273    364.6618    533.6412 307.7868333  +6.4657226     2928.643     5753.954       6490.4      86.8985      173.384     346.7336      2.085     4.96      1072.18     61.10528     378.8987        31     1.522     1.301  57.68   0
       274    179.7211    532.2831 307.8637230  +6.4600738     19728.48     37437.15     40012.29     87.03589     173.6594     346.8025      2.020     4.28     1078.227     61.10528     2235.338        63     1.743     1.474  55.18   0
       275    544.6149    532.8557 307.7120861  +6.4720778      1439.98     2877.793     2859.529     86.20827     173.3151     346.3543      2.038     4.86     1069.062     61.10528     173.8984        22     1.288     1.220  82.24   0
       276    907.5006    532.2372 307.5613161  +6.4844617     1535.438     2189.605     2304.972      86.8985     173.2461     346.9058      1.473     3.40      1061.31     61.10528     204.1757        13     0.983     0.898   9.96   0
       277    144.8896    530.6524 307.8782505  +6.4595763     2056.857     3947.844     3508.981      86.8985     173.1772     346.8025      1.944     5.09     1079.104     61.10528     243.1227        27     1.580     1.128  81.63   0
       278     25.1328    530.3977 307.9280172  +6.4556530     1634.342     3203.569     3539.202     86.20827       172.97     346.4578      2.052     4.82      1080.66     61.10528     245.3806        25     1.612     1.077  63.90   0
       279    381.6602    528.6790 307.7799377  +6.4683414     702.3174     1370.751     1314.485     87.03589      173.384     346.6302      2.015     6.69     1071.793     61.10528     90.34546         9     1.346     0.932  49.83   0
       280   1005.1400    526.5883 307.5209321  +6.4900496     4993.075     7200.637     7292.051     86.20827     173.2461     346.3543      1.530     3.33      1057.17     61.10528     678.2407        25     1.317     0.968  60.11   0
       281     44.0679    516.7396 307.9206123  +6.4619289     19726.95     36983.02     40167.48     87.03589     173.3151     346.6646      2.005     4.31     1080.027     61.10528     2433.748        63     1.754     1.436  57.08   0
       282    578.7419    519.2446 307.6983639  +6.4788398     1002.426     1857.832     1887.711     86.76089      173.384     346.7336      1.927     6.20      1067.48     61.10528     127.4834        14     1.165     1.001  44.32   0
       283    684.7606    513.0099 307.6545196  +6.4849607     9604.808     17762.88     18845.21     86.20827     173.1772     346.3888      1.951     4.11     1065.446     61.10528     1007.255        49     1.664     1.391  56.71   0
       284    476.7173    513.3215 307.7409575  +6.4778684     32190.31     61509.71      65742.9     87.03589     173.6594     346.8025      2.021     4.38     1069.435     61.10528     3330.177        71     1.772     1.491  58.09   0
       285    241.9919    511.0356 307.8385674  +6.4709379     13993.79     28559.99     31753.65     86.34676     173.1772     346.3888      2.148     4.69      1074.51     61.10528     1540.325        68     1.903     1.501  54.21   0
       286     26.6296    510.8884 307.9280559  +6.4637576     155864.4       285306     307359.2     87.03589     173.1081     346.5267      1.979     4.14     1080.116     61.10528     19648.59       120     1.821     1.519  56.93   0
       287    325.6439    513.8824 307.8037127  +6.4725709     795.8397     1369.772     1346.307      86.8985      173.384     346.6302      1.909     5.46     1071.883     61.10528     95.26526         8     1.037     0.811  76.55   0
       288    207.5139    512.1532 307.8528555  +6.4693183     1212.398      2240.51     1888.575      86.8985     173.3151     346.6646      1.961     5.85     1075.927     61.10528     153.7048        17     1.429     1.124  85.94   0
       289   1018.5369    511.0971 307.5158846  +6.4968919     939.4341     1363.058     1849.984     86.76089     173.5218     333.6326      1.849     4.85     1056.582     61.10528     121.8192         9     1.032     0.740  75.45  16
       290    858.5707    510.5634 307.5823764  +6.4917773      800.187     1323.877     1030.832     86.48502     173.1081     346.4922      1.718     4.54     1062.278     61.10528     130.6902         7     0.950     0.790 -39.21   0
       291    606.3446    509.5790 307.6872196  +6.4837541     2038.515     3972.478     3801.967     86.34676      173.384     346.4578      2.043     5.63     1066.363     61.10528     231.0101        29     1.564     1.394  37.54   0
       292    980.3879    506.9359 307.5318770  +6.4973384     4586.845      7060.43     6725.709     86.34676     173.1772     346.4578      1.635     3.43     1057.725     61.10528     612.0486        28     1.343     1.078  55.15   0
       293    653.5532    505.3423 307.6677454  +6.4870827     5117.956     9078.144     9902.109      86.8985      173.384     346.8025      1.917     4.32      1065.52     61.10528     533.7101        39     1.551     1.357  46.59   0
       294    141.8257    505.8192 307.8803636  +6.4697255     679.1945     1468.942     1021.651     86.34676     173.1081     346.5612      2.234     6.24     1077.733     61.10528     98.24719         8     1.353     0.808  59.50   0
       295   1002.8860    499.1748 307.5227882  +6.5012927     3313.043     4934.624     5358.151     87.03589     173.1772     346.4922      1.633     3.28     1056.965     61.10528     422.2609        24     1.277     1.023  51.46   0
       296    565.7320    496.6646 307.7045306  +6.4877266      5619.41      10618.4     11407.46      86.8985      173.384     346.6991      2.004     4.44     1066.455     61.10528      589.538        42     1.614     1.374  41.99   0
       297    411.6281    496.5507 307.7685694  +6.4826106     1788.794     3776.081     4328.462     86.48502     173.4529     346.5612      2.195     5.81     1069.395     61.10528     203.6843        27     1.529     1.287  37.93   0
       298    922.1903    492.2609 307.5565537  +6.5014566     2989.966     4687.295     5352.984     86.20827     173.2461     346.3888      1.730     3.48     1058.802     61.10528      378.762        22     1.266     1.000  53.35   0
       299    929.6666    486.6832 307.5536341  +6.5040088     1947.086     2993.337      3149.58     87.17307     173.6594     346.7336      1.674     3.78     1058.213     61.10528     238.3141        20     1.285     0.984  63.49   0
       300    968.8262    485.6743 307.5373949  +6.5057312     1124.646     1655.454     1988.982     86.48502     173.3151     346.6302      1.622     5.37     1057.453     61.10528     148.3013        12     1.098     0.903 -83.25   0
       301    753.4667    482.8301 307.6269842  +6.4997173     2304.338     4363.505      4921.58     86.62307      173.384     346.6302      2.068     4.39     1063.292     61.10528     249.8131        28     1.439     1.212  44.23   0
       302    115.6265    482.1317 307.8920509  +6.4786238     1380.516     2691.081     2474.593     86.48502     173.2461     346.5612      1.959     5.69     1076.863     61.10528     166.1534        21     1.461     1.100  49.06   0
       303    424.5475    481.2289 307.7637179  +6.4893694     2665.373     5216.684       5081.4     86.62307     173.5218     346.5612      2.027     4.95     1068.034     61.10528     273.7402        31     1.450     1.380 -77.19   0
       304    465.6818    480.7046 307.7466429  +6.4909646     639.5933     1126.727     1308.656     86.62307     173.7282      346.768      2.078     4.30     1067.224     61.10528     101.8087         7     1.101     0.479  61.23   0
       305    652.1930    477.5716 307.6692453  +6.4985026     7684.105     14240.36      15385.8     86.34676     173.1772     346.4578      1.965     4.28      1064.25     61.10528     807.2678        41     1.588     1.342  51.80   0
       306    814.8384    474.1340 307.6017732  +6.5053576     13978.26     23971.79      25520.7     86.76089     173.3151      346.768      1.827     3.83     1061.253     61.10528     1490.339        54     1.595     1.356  52.48   2
       307    818.6887    469.1493 307.6003407  +6.5075442     1211.264     2316.764     1945.989      86.8985     173.1772     346.8025      1.990     6.72     1060.951     61.10528     149.6042        17     1.451     1.084  33.85   3
       308    334.6477    474.3729 307.8013054  +6.4891846     1916.747     4063.514     3828.433     86.48502     173.4529     346.5957      2.130     5.56      1069.26     61.10528     214.8118        28     1.458     1.371  48.51   0
       309    843.7217    471.3894 307.5898628  +6.5074552     1071.787      1655.23     1863.124     86.48502       172.97     346.5267      1.632     5.44      1060.75     61.10528     142.5881        11     1.166     0.835  88.74   0
       310    417.7609    471.0123 307.7668826  +6.4933598     1200.334     2507.961     2861.882     86.34676     173.1772     346.4233      2.107     6.83     1067.365     61.10528     142.0111        17     1.171     1.118 -77.45   0
       311   1000.1572    469.0292 307.5249333  +6.5136479     1814.807     2601.088     2978.604     86.48502      173.384     346.5267      1.454     3.52     1055.953     61.10528     230.2689        14     1.115     0.818 -89.29   0
       312    364.2878    467.9905 307.7892045  +6.4928140     2803.413     3512.058     3857.842     86.48502     173.0391     346.4233      1.384     4.44     1068.338     61.10528     794.3328        11     1.299     0.432 -38.01   0
       313    152.5016    466.1011 307.8772711  +6.4864818     3174.177     6217.987     7274.137      86.8985      173.797     346.4922      2.134     4.57      1075.24     61.10528     352.9857        34     1.552     1.332  55.46   0
       314    790.2808    464.8748 307.6122895  +6.5083602      1946.23     3149.252     3098.388     87.17306     173.6594     346.7336      1.733     4.57     1061.238     61.10528     230.0314        20     1.343     1.010  56.12   0
       315    310.2946    462.7835 307.8118162  +6.4931519     1047.962      2072.85     2447.421     86.62307     173.1772     346.4922      2.362     6.71     1068.932     61.10528     116.3396        15     1.319     0.959  42.36   0
       316    388.3115    460.8389 307.7794632  +6.4965724     2257.603     4444.082     4533.305      86.8985     173.3151     346.6991      2.030     4.75     1067.262     61.10528     228.4142        31     1.546     1.266  31.02   0
       317    744.1553    458.6064 307.6316681  +6.5094072     1296.732     2312.861     2164.149     86.34676     173.1772     346.2853      1.873     4.83     1061.984     61.10528     161.5498        18     1.188     1.108  82.67   0
       318    275.9146    457.3444 307.8262859  +6.4942433     780.9438     1477.961     1702.403      86.8985      173.384     346.8025      1.924     6.99     1069.518     61.10528     109.5807        12     1.442     0.951  11.09   0
       319    585.4567    450.5596 307.6978871  +6.5074217     738.7036     1490.634     1500.428      86.8985     173.4529     346.6991      2.107     5.70     1063.271     61.10528     106.5619         8     1.292     0.708  55.33   0
       320    508.0920    449.5255 307.7300708  +6.5052580     1028.311     2034.258     1933.615      86.8985     173.5218     346.6646      2.112     6.73     1064.169     61.10528     110.1697        15     1.370     0.927  38.47   0
       321    870.1794    448.6151 307.5796329  +6.5177410     1266.795      1943.54     1606.599     86.62307     173.1081     346.5612      1.601     3.63     1059.232     61.10528     159.9412        13     1.022     0.866  81.80   0
       322    753.3354    445.7875 307.6282843  +6.5150064     12302.96     21490.38     22900.16     86.34676     173.1772     346.5267      1.864     3.91     1060.915     61.10528     1308.787        46     1.602     1.304  57.97   0
       323    855.8633    447.5665 307.5856175  +6.5176961     1961.326     3060.536     2952.502     86.76089     173.4529     346.6302      1.634     3.77     1059.491     61.10528     247.5176        15     1.114     0.893  48.09   0
       324    674.5011    441.8860 307.6611761  +6.5139818     2091.924     3811.447      4127.24      86.8985     173.8657     346.7336      1.943     4.95     1062.213     61.10528     219.1265        24     1.503     1.063  51.63   0
       325    646.8233    436.9998 307.6728423  +6.5150734     10591.22     24761.33     30419.18     86.48502     173.0391     346.4578      2.508     6.58     1062.078     61.10528     1223.443        75     2.542     1.415  39.07   0
       326    978.7455    435.6530 307.5349510  +6.5267140       3745.9     5802.998     5815.954     87.17307     173.3151     346.6302      1.670     3.57     1054.352     61.10528     492.9861        28     1.428     1.068  60.50   0
       327    417.8489    431.7790 307.7681697  +6.5095604     20691.43     42016.97     45385.28     86.34676     173.4529     346.5267      2.100     4.68     1064.216     61.10528     2236.335        67     1.808     1.510  52.97   0
       328    934.2698    431.5459 307.5535719  +6.5269267     1461.815     2402.343     2921.233     86.76089     173.3151     346.5957      2.074     5.57     1055.922     61.10528     199.4449        17     1.419     1.037  53.97   0
       329    947.3682    426.0629 307.5483125  +6.5296272     4670.337     6989.179      7055.93     86.62306     173.4529     346.6302      1.583     3.43      1055.12     61.10528     616.0309        29     1.382     1.065  44.67   0
       330     97.4279    426.3442 307.9015006  +6.5010431     1097.235     2141.694     1677.629     86.48502     173.4529     346.4578      2.032     7.42     1075.812     61.10528     143.8702        17     1.518     1.124  63.75   0
       331    164.0386    431.2976 307.8736543  +6.5012380     1675.274     3298.365     3646.917      86.8985     173.2461     346.9058      2.082     5.32     1072.754     61.10528     185.1003        23     1.399     1.180  64.46   0
       332   1003.0886    424.1100 307.5252218  +6.5322913     773.8642     1209.487     1238.805     86.76089     173.9344      346.768      1.611     6.05     1052.536     61.10528     140.2426        10     1.126     0.914  22.81   0
       333    275.4384    422.3392 307.8276664  +6.5086792     10071.19     19722.34     21082.62      86.8985     173.4529     346.6646      2.068     4.55     1067.635     61.10528     1138.408        55     1.770     1.452  50.76   0
       334    111.2553    416.8261 307.8960770  +6.5054377     591.0592     1197.494     1068.901     86.48502     173.4529     346.4922      1.983     4.84     1074.805     61.10528     122.6865         6     1.420     0.467 -69.06   0
       335    998.7022    414.1748 307.5273780  +6.5362470     954.3821     1366.677     1007.618     87.03589     173.1081     346.5612      1.425     4.75     1052.035     61.10528     135.8182         8     0.992     0.701 -57.65   0
       336    175.6813    411.0337 307.8695017  +6.5099953     3635.916     7546.373     8018.998     86.76089     173.3151     346.6991      2.154     4.93     1071.258     61.10528     419.4895        37     1.651     1.363  58.51   0
       337    388.8110    412.2623 307.7808950  +6.5166441     903.4512      1581.53     1961.554     86.34676     173.1772     346.4233      2.221     5.76      1063.49     61.10528     119.3259        10     1.217     0.767 -56.07   0
       338    280.9064    410.3314 307.8257999  +6.5138202     1024.957     1926.131     1864.043     86.76089     173.5218     346.6991      1.976     6.51     1066.704     61.10528     117.3687        11     1.371     0.868   0.54   0
       339    197.8003    406.9008 307.8604501  +6.5124449     1712.839     3968.087     4462.476     86.34676       172.97     346.2163      2.382     6.52     1070.297     61.10528     200.2274        33     1.792     1.415  89.55   0
       340    861.1326    407.7902 307.5847638  +6.5342942     691.6226     1405.411     901.1078     86.34676     173.1772     346.5612      1.683     4.62     1057.591     61.10528     113.3359         6     1.255     0.483  54.23   0
       341    593.4806    405.4874 307.6960707  +6.5262987      781.253     1109.586     448.0671     86.62307     173.6594     346.8025      1.418     3.62     1060.368     61.10528     103.8838         6     0.910     0.420 -70.45   0
       342     13.9680    402.8398 307.9369764  +6.5079380     1719.756     3475.563     4227.104     86.48502     173.1772     346.5267      2.212     5.65     1077.069     61.10528     234.0173        26     1.586     1.203  38.74   0
       343    421.0820    401.3850 307.7678516  +6.5222170     1471.819     3000.833     2815.089     86.48502     173.1081     346.4922      2.005     6.16     1061.824     61.10528      168.172        22     1.433     1.173 -70.01   0
       344   1009.3772    400.2240 307.5234096  +6.5423626     864.4396     1325.261     1497.885     86.34676     173.2461     346.6302      1.713     4.61     1050.756     61.10528     115.0269         8     0.955     0.633  75.52   0
       345    309.9615    401.4055 307.8140276  +6.5184806     644.6852     1138.421     885.2015     85.93063     173.1081     346.3888      1.773     4.47     1065.111     61.10528     103.4316         6     0.847     0.671  28.05   0
       346     22.4106    399.1285 307.9335939  +6.5097544     746.1683     1419.369       1751.7     86.34676       172.97     346.4922      2.115     5.74     1076.802     61.10528     91.59204         7     1.132     0.819  70.01   0
       347    474.9509    395.1528 307.7456760  +6.5265957     5259.941     10431.32     11690.05      86.8985     173.2461     346.6991      2.085     4.89     1060.546     61.10528     544.4891        41     1.590     1.432  49.76   0
       348     71.4278    396.1930 307.9133251  +6.5126161     2370.865     4630.517     5471.886     86.34676     173.1772     346.4578      2.103     5.09     1075.315     61.10528      297.057        32     1.574     1.334 -65.43   0
       349    815.5547    392.4129 307.6042219  +6.5391212     10945.76     18581.09     19974.96     86.20827     173.1772     346.3888      1.843     3.85     1057.494     61.10528     1167.464        42     1.516     1.285  54.24   0
       350    807.2991    393.9201 307.6076021  +6.5382232     1644.862     2876.342     3448.563     86.76089      173.797     346.6991      2.025     5.57     1057.667     61.10528     181.4855        20     1.376     1.241 -41.81   0
       351    379.1196    390.9655 307.7856411  +6.5251114     855.5468     1539.423     1321.597     86.76089     173.4529     346.6991      1.904     5.79     1062.125     61.10528     119.0144         9     1.180     0.799 -19.44   0
       352    224.1732    383.1986 307.8502923  +6.5231164     637.4073     1082.685     651.3297     86.48502     173.0391     346.4233      1.754     4.48     1068.179     61.10528     83.41199         5     0.791     0.723 -47.85   0
       353     28.5686    381.9759 307.9316161  +6.5170430     858.0176     2238.774     4115.805     86.34676     173.2461     346.4578      3.296     5.61     1076.303     61.10528     125.1256        10     1.367     0.649 -88.22   0
       354    495.3276    379.4421 307.7377378  +6.5337647     1716.047     3211.995     2828.547     86.76089      173.384     346.6991      1.893     5.45     1059.263     61.10528     207.7217        23     1.356     1.250 -50.96   0
       355    522.9525    378.6317 307.7262850  +6.5350247     2223.061     4341.303     4927.856     86.62306      173.384     346.5612      2.114     4.81     1059.055     61.10528      234.344        27     1.376     1.277  59.27   0
       356    951.6494    378.7340 307.5481218  +6.5493105     642.8726     1069.732     1056.707     86.76089     173.2461     346.6302      1.892     3.87     1052.284     61.10528     113.7266         5     0.899     0.478  43.39   0
       357    880.8762    375.3256 307.5776491  +6.5483566      28928.2     49423.87     52448.41     87.17306     173.6594     346.7336      1.851     3.77     1055.467     61.10528     3247.109        61     1.646     1.337  67.43   0
       358    652.7548    367.7960 307.6727069  +6.5438432     2227.718     4342.669     4373.545     86.20827     173.0391     346.3198      2.024     4.79     1057.775     61.10528     256.2399        29     1.474     1.303  62.34   0
       359     60.9065    367.9287 307.9186540  +6.5239306      862.364     1769.264     1468.502     86.76089     173.4529     346.6991      1.903     7.21     1074.693     61.10528     110.4231        12     1.614     0.902  44.80   0
       360    737.3271    361.3119 307.6377779  +6.5493481     64256.94     114210.3     122385.3      86.8985     173.6594     346.6991      1.913     4.03     1057.088     61.10528     6659.172        92     1.720     1.492  52.78   0
       361    895.4257    362.9396 307.5720184  +6.5539559     1059.703      1708.15      1663.83     86.48502      173.384     346.5612      1.731     6.01     1054.216     61.10528     119.5693        13     1.264     0.805 -78.14   0
       362    116.6434    360.9131 307.8957302  +6.5287021     945.3647      1951.15     2927.252      86.8985     173.2461     346.6646      2.616     6.47     1071.956     61.10528     110.2869        12     1.236     0.951 -33.02   0
       363    599.8634    358.0531 307.6950158  +6.5460959     2123.013     3821.862      4083.28      86.8985     173.3151     346.6302      1.857     4.60     1057.189     61.10528     249.4467        25     1.366     1.215  34.03   0
       364    978.5635    358.2935 307.5376223  +6.5586471     866.6064     1243.903     1187.745     87.03589     173.2461      346.768      1.693     4.68      1049.79     61.10528     124.5593        10     1.056     0.831  60.01   0
       365    137.1624    356.9648 307.8873371  +6.5310222     4503.653      9104.79     9244.907     86.62307     173.2461     346.4233      2.087     4.69     1070.936     61.10528     514.2032        40     1.650     1.405  63.88   0
       366    583.0594    354.2847 307.7021262  +6.5470892      5182.66     10048.05     10282.42      86.8985     173.4529      346.768      2.036     4.61     1057.038     61.10528     521.0282        40     1.593     1.384  63.05   0
       367    446.0112    349.5042 307.7592420  +6.5444719     18504.39     37460.27     40552.38     86.62307     173.0391     346.4233      2.121     4.65     1057.933     61.10528     2014.371        67     1.790     1.564  53.00   0
       368    312.0434    351.9558 307.8148327  +6.5389657     1745.817      3627.44     3666.055      86.8985      173.384     346.5267      2.079     7.13     1061.936     61.10528     188.3915        24     1.487     1.186  49.33   0
       369    553.5713    347.7581 307.7146009  +6.5487965     941.5771     1983.645     2155.027     86.48502     173.2461     346.5267      2.065     6.34     1056.808     61.10528     106.4438        10     1.173     0.963 -55.64   0
       370    425.9602    348.0000 307.7676255  +6.5444206     784.8535     1746.641     2411.421     85.79147       172.97     346.2853      2.591     6.36     1058.127     61.10528     114.4996         9     1.298     0.876  -0.01   2
       371    425.9250    345.3051 307.7677311  +6.5455321     456.1432     859.2514     2184.833     86.62307     173.5906     346.6646      3.623     4.90     1057.986     61.10528     102.4352         5     1.329     0.512  32.98   3
       372    525.0381    344.7592 307.7265599  +6.5490790     907.2241     1527.267     1477.139     86.62307     173.4529     346.5267      1.771     6.73     1056.802     61.10528     102.9525        11     1.346     0.943 -36.83   0
       373    535.1473    339.9898 307.7225194  +6.5513866      6085.79     12269.99     13362.45     86.20827     173.3151     346.3888      2.075     4.61     1056.374     61.10528     640.9399        47     1.702     1.450  56.71   0
       374    804.1749    338.7208 307.6107559  +6.5609086     2563.048     4186.136      4283.36     86.62307     173.2461     346.6646      1.757     4.63     1055.451     61.10528     284.2167        27     1.565     1.087  57.64   0
       375    959.5089    338.0208 307.5462218  +6.5663816     790.1037     1338.556     2213.557     86.76089     173.1772     346.4922      2.133     5.52     1049.499     61.10528     108.4841         9     1.148     0.747  70.01   0
       376    362.0093    336.9590 307.7945746  +6.5468340     768.1077      1616.38     1226.797     86.20827     173.1772     346.3543      1.950     6.39     1059.077     61.10528     109.9788         9     1.319     1.014 -28.62   0
       377    297.3999    330.1795 307.8216537  +6.5474644     558.9451     1175.797     993.3572     86.34676     173.0391     346.3198      1.963     4.10     1061.769     61.10528     94.08752         5     1.140     0.421 -76.28   0
       378    197.4234    330.5023 307.8631901  +6.5439729     710.7422     1527.239     627.6505     87.03589     173.1081     346.4922      2.140     5.61     1066.984     61.10528     99.11365         8     1.129     0.786 -60.70   0
       379    425.0313    324.0206 307.7688206  +6.5542894     5226.072     10989.88     11723.52     86.34676     173.1772     346.5267      2.177     4.76     1057.015     61.10528     550.3761        49     1.707     1.532  58.41   0
       380    280.8678    324.9533 307.8287006  +6.5490670     1415.748     2830.166     3656.972      86.8985     173.3151     346.6646      2.277     6.61     1062.298     61.10528     155.5264        22     1.441     1.268  66.34   0
       381    792.8290    319.8535 307.6161055  +6.5683191     44498.59     77813.67     82412.97     86.62307     173.4529     346.5957      1.875     3.95      1054.31     61.10528     4712.964        77     1.689     1.410  50.96   0
       382    778.0630    323.8819 307.6221069  +6.5661627      761.926     1133.215     687.9503     87.03589      173.384     346.6646      1.671     5.12     1054.619     61.10528     112.8516         8     1.069     0.692 -75.05   0
       383    464.6226    319.3325 307.7525252  +6.5575522      1673.58     3176.146     3230.147     86.48502     173.3151     346.6302      2.046     5.21     1055.922     61.10528     194.6058        26     1.364     1.337 -58.12   0
       384    968.5255    315.9506 307.5432151  +6.5757943     2222.052      3551.84     3939.731      86.8985     173.4529     346.6991      1.758     3.90     1047.634     61.10528     300.2107        21     1.341     0.985  47.02   0
       385    610.6752    316.4938 307.6919222  +6.5636157     800.8597     1734.232     2400.021     86.76089     173.5906     346.6646      2.336     5.31     1054.037     61.10528     97.64844         9     1.114     0.713 -41.37   0
       386    451.0090    315.3632 307.7583167  +6.5587346     1364.778     2879.445     2644.678     86.34676     173.1081     346.3888      2.030     6.41     1056.011     61.10528     161.6873        22     1.327     1.288 -89.27   0
       387    501.3715    314.8544 307.7374037  +6.5606324     769.5875     1670.479     1870.215     86.62307     173.4529     346.5612      2.398     6.67     1055.068     61.10528     97.51221         9     1.550     0.806 -64.70   0
       388    872.1255    309.5410 307.5834957  +6.5752246     1075.406     1650.592     1092.597     87.03589      173.384     346.6302      1.601     4.40     1052.204     61.10528     146.4058        13     1.071     0.877  41.48   0
       389    481.3537    306.7718 307.7459955  +6.5632986     880.3665     1762.153     1746.205     86.34676     173.4529     346.5612      1.804     6.20     1054.863     61.10528     109.8096        10     1.434     0.753  66.96   0
       390    227.7374    306.5972 307.8514007  +6.5548606     1664.802     3219.093     3532.329     86.20827     173.1772     346.3888      1.995     5.46     1064.116     61.10528     189.6384        24     1.514     1.193  66.54   0
       391    791.3004    304.4435 307.6172590  +6.5746303     5243.223     8963.182      10222.5      86.8985     173.2461     346.9058      1.863     3.99     1053.277     61.10528     592.4749        35     1.511     1.229  61.53   0
       392    807.7972    302.5214 307.6104673  +6.5759749     2081.473     3727.461     3914.123     86.20827     172.8318     346.4233      1.917     4.92     1053.073     61.10528     251.0924        25     1.548     1.122  64.36   0
       393    123.9449    303.5811 307.8946362  +6.5526167     828.2798     1671.031     1381.766     86.34676      173.384     346.4578      2.070     6.47     1070.248     61.10528     119.1572        11     1.193     0.985  60.96   0
       394    264.7628    299.9068 307.8362399  +6.5588664     2309.178     2682.969     3522.309     87.03589     173.2461     346.7336      0.993     3.14     1061.832     61.10528     729.1067         6     1.072     0.268   6.18   0
       395    111.2514    297.9263 307.9001026  +6.5545242     928.4025     1910.486     2194.315      86.8985     173.4529     346.6991      1.997     4.20     1071.052     61.10528     144.0345        11     1.177     0.679 -75.47   0
       396    397.5209    297.1057 307.7811619  +6.5644787      1331.31     2982.338       3551.4     86.62307     173.5906     346.7336      2.483     7.95     1056.748     61.10528     141.2388        22     1.580     1.172   2.03   0
       397    523.9966    293.1870 307.7287312  +6.5703359     1551.165     2996.805      3169.84     86.48502     173.0391     346.5267      2.051     5.45     1053.247     61.10528       189.25        21     1.403     1.155  85.08   0
       398    286.5558    289.0205 307.8275509  +6.5640927     3975.397     8437.123      9024.21     86.34676     173.2461     346.4922      2.163     5.10     1060.123     61.10528     459.5303        42     1.658     1.512  89.70   0
       399    977.9593    284.1473 307.5403616  +6.5892393     721.4588     1088.681     1080.962     86.76089     173.4529     346.6991      1.537     4.50     1045.157     61.10528     105.0287         6     1.055     0.547 -80.26   0
       400     16.9699    281.7305 307.9398317  +6.5580375      50084.3     97602.03     105517.1     86.76089      173.384     346.5957      2.059     4.49      1076.01     61.10528     5685.495        85     1.842     1.503  58.23   0
       401    805.5377    281.3326 307.6121187  +6.5846474     630.8527     1218.289     1702.485      86.8985     173.3151     346.6646      2.047     3.45     1051.799     61.10528     113.9093         5     0.758     0.454 -70.24   0
       402    420.6823    279.6174 307.7721264  +6.5724754     1177.084     2804.007     3313.727     86.48502     173.0391     346.5957      2.343     7.96     1055.204     61.10528     145.0741        22     1.412     1.256 -48.93   0
       403   1007.3091    278.6501 307.5283474  +6.5924873      1075.94     1689.839     2064.753      86.8985     173.1772     346.8714      1.706     5.67     1043.222     61.10528     145.2197        11     1.424     0.635  46.57   0
       404    190.2376    275.2832 307.8680438  +6.5665281     1250.834     2577.293     2708.428      86.8985     173.3151     346.5957      2.178     7.79     1065.309     61.10528     145.5312        19     1.628     1.068  54.93   0
       405    343.3796    275.8304 307.8043810  +6.5714457     816.4705     1595.771     1461.561     86.34676     173.1772     346.5612      2.107     6.13     1058.231     61.10528     101.5487        10     1.238     0.854 -26.27   0
       406    600.0559    271.0240 307.6978673  +6.5820328     1536.823     2939.227      2792.67     86.48502      173.384     346.4578      2.028     6.09     1051.346     61.10528     171.0898        21     1.439     1.107  48.18   0
       407    943.7747    270.2427 307.5550364  +6.5938400     1602.975     2738.749     3508.068     86.48502     173.3151     346.4578      2.003     3.90     1046.603     61.10528     226.5244        15     1.246     0.820  73.68   0
       408    763.6320    268.6359 307.6299625  +6.5884894     4194.506     7314.677      7889.71     86.48502     173.1081     346.3888      1.838     3.92     1051.448     61.10528      439.573        31     1.425     1.234  56.39   0
       409    704.5985    268.4323 307.6545049  +6.5866001     1753.828     3108.478     3059.478     86.20827     173.1772     346.3888      1.873     4.43     1051.431     61.10528     202.7509        22     1.277     1.183  51.23   0
       410   1001.9057    268.2547 307.5309420  +6.5965991     814.8519     1097.356     1214.957     86.76089      173.384     346.9058      1.538     4.95     1043.322     61.10528     115.0381         8     1.021     0.761  55.92   0
       411    959.4882    260.6411 307.5488277  +6.5983282     1094.851     1650.563     1661.846      86.8985     173.3151     346.6991      1.712     5.10     1045.372     61.10528     149.8883        10     0.969     0.758  34.73   0
       412    263.4770    254.2416 307.8383176  +6.5776759     1715.769      3488.18     3265.826     86.76089      173.384     346.7336      2.124     5.18     1061.254     61.10528     179.9985        27     1.437     1.299 -73.82   0
       413    796.2899    252.2780 307.6169391  +6.5963340     1388.628     2434.417     2654.705     86.62307     173.6594      346.768      1.868     5.96     1050.475     61.10528     154.7007        17     1.209     1.089 -72.57   0
       414    906.0209    252.6591 307.5713185  +6.5998401     1362.439     2056.619     2599.367     86.48502     173.2461     346.4922      1.681     3.93     1047.271     61.10528      179.837        17     1.177     0.958  20.82   0
       415    497.1790    243.8596 307.7415399  +6.5898023     16319.05     33257.81     36225.23     86.48502     173.3151     346.5267      2.114     4.71     1050.433     61.10528     1549.756        65     1.804     1.531  53.25   2
       416    502.6995    238.2814 307.7394336  +6.5922902     909.9459     1990.124      1972.63      86.8985     173.9344      346.768      2.154     7.01     1050.003     61.10528     110.9194        11     1.239     1.111  61.78   3
       417    358.3394    245.6085 307.7991843  +6.5844247     606.1989     1128.135     1425.644     86.20827     173.1772     346.3888      2.013     5.30     1056.376     61.10528     108.0519         6     1.304     0.609  38.87   0
       418    185.2829    237.4236 307.8713835  +6.5819916     1674.852     3648.517     4483.951     86.76089     173.1081     346.5957      2.374     7.91     1065.432     61.10528     197.0543        26     1.558     1.432  25.06   0
       419    160.0787    235.8844 307.8819103  +6.5817797     843.0989     1683.972     1942.265      86.8985     173.7282     346.8025      2.328     5.45         1067     61.10528     114.4459         7     1.001     0.838 -83.31   0
       420    959.3022    233.0022 307.5498328  +6.6097331     1348.787     2238.732     2428.993     86.34676     173.1081     346.3198      1.808     4.06     1044.153     61.10528     216.1367        13     1.283     0.691  68.13   0
       421     23.4577    230.6541 307.9388659  +6.5793420     3916.173     7396.911     7954.844     87.03589      173.384     346.6646      1.976     4.30     1075.077     61.10528     478.5746        36     1.566     1.330  55.59   0
       422    621.2729    229.6099 307.6904440  +6.5998409     3501.161     6585.559     7131.396     86.34676       172.97     346.5267      1.953     4.53     1049.737     61.10528     353.4752        34     1.535     1.320  56.70   0
       423    823.1665    242.8978 307.6060836  +6.6011044     11307.15     19673.71     21875.45      86.8985     173.2461     346.8025      1.895     3.96      1049.36     61.10528     1225.721        51     1.630     1.363  30.90   0
       424    583.8788    229.4761 307.7059905  +6.5986444     1402.574     2866.293     2164.827     87.17306     173.6594      346.768      2.058     7.19     1049.515     61.10528     160.5844        21     1.440     1.141  57.51   0
       425    425.6076    228.6567 307.7717991  +6.5936797     972.3891      1959.57     2034.328     86.20827     173.2461     346.4233      1.963     8.07     1053.274     61.10528      106.983        16     1.594     1.141  54.02   0
       426    981.9767    226.3702 307.5406308  +6.6132273     2700.217     4027.996     3834.126     86.34676     173.2461     346.4922      1.580     3.76     1043.148     61.10528     339.0243        23     1.360     0.958  61.00   0
       427    928.2056    226.0119 307.5629926  +6.6115819     10303.54     16273.95     17256.72     86.48502     173.1081     346.5612      1.672     3.40     1044.798     61.10528     1346.883        40     1.480     1.180  58.09   0
       428   1014.7998    223.8805 307.5270715  +6.6153493     9134.235     14009.71      14437.7     86.06956     172.6935     346.3543      1.597     3.34     1042.091     61.10528     1248.793        34     1.458     1.041  53.62  16
       429    726.1647    224.0379 307.6470352  +6.6056497     2134.287      4000.74     4693.733     86.62307     173.2461     346.4233      2.024     5.61     1049.891     61.10528     252.6525        27     1.557     1.231  68.15   0
       430    603.0951    225.7120 307.6981305  +6.6008418     680.0281      1137.89     760.4221      86.8985      173.797     346.7336      1.685     5.27     1049.466     61.10528     122.2227         7     1.150     0.683  46.73   0
       431     54.5434    222.9343 307.9262085  +6.5835756     19311.61     37748.94     41138.54     87.03589     173.3151     346.6646      2.068     4.37     1073.284     61.10528     2254.073        63     1.786     1.495  57.55   0
       432    301.0399    223.8052 307.8237349  +6.5915028     915.8846     1413.543     919.0057     86.06956     173.0391     346.3543      1.638     6.00     1059.216     61.10528     135.1852        11     1.204     1.024  66.73   0
       433    534.8885    218.9042 307.7267085  +6.6013685     1396.805     2766.066     2396.891      86.8985      173.797     346.6991      1.983     7.59     1048.988     61.10528     166.9678        20     1.331     1.213 -82.69   0
       434    866.6593    215.4543 307.5889286  +6.6138868     1893.294     3098.494     3281.173     87.03589     173.3151     346.6646      1.800     4.41     1046.581     61.10528     230.4415        18     1.322     0.932  40.04   0
       435    546.8358    214.8279 307.7218803  +6.6034516     1941.296     3918.914     3894.295     86.48502     173.1081     346.4578      2.091     4.93     1048.881     61.10528     199.4335        27     1.533     1.170 -89.40   0
       436    918.8516    214.1171 307.5672800  +6.6161807     1908.433     3164.618     3304.058      86.8985      173.384      346.768      1.814     4.89     1044.688     61.10528     240.3384        19     1.428     1.015  35.44   0
       437    778.4022    212.0333 307.6257271  +6.6123517     33160.41     58572.91     62263.34     86.06956     173.1772     346.4233      1.875     3.98       1048.8     61.10528     3550.086        65     1.658     1.387  52.12   0
       438    381.5950    211.4749 307.7906714  +6.5992969     4510.858     11015.55     12905.25     86.48502     172.8318     346.5957      2.485     5.90     1054.399     61.10528     465.9222        53     2.110     1.501 -85.91   0
       439   1012.2860    210.7085 307.5285583  +6.6207038     2712.672     4257.797     4532.975     86.62307     173.8657      346.768      1.710     3.96     1041.652     61.10528     362.3578        21     1.337     0.977  85.00   0
       440    946.2911    209.1117 307.5560428  +6.6191626     7001.049     11029.08     11797.41      86.8985     173.8657     346.8025      1.663     3.55     1043.631     61.10528     907.5679        32     1.414     1.106  51.10   0
       441    489.8057    208.3449 307.7458022  +6.6042175     3571.145     7195.521     7859.274     86.34676     173.1772     346.3198      2.049     4.77     1048.781     61.10528     345.9131        32     1.513     1.333  38.29   0
       442    147.3737    199.8198 307.8884109  +6.5962413     3493.788     7033.337      7296.45     86.34676     173.1081     346.5267      2.070     4.83     1067.471     61.10528     404.3861        35     1.614     1.303  59.94   0
       443    317.5578    196.3591 307.8177971  +6.6033883     24076.67     50140.34     54545.38     86.62307      173.384     346.5267      2.156     4.85     1058.492     61.10528     2383.389        70     1.817     1.578  53.45   0
       444    292.8150    197.5791 307.8280395  +6.6020539     4467.769       9430.4     10220.77     86.62307     173.1081     346.5612      2.183     5.12     1060.544     61.10528     494.2418        40     1.684     1.424  53.16   0
       445    966.4628    198.5021 307.5480146  +6.6242157     850.8854     1402.615     1470.287     86.62307     173.5218     346.7336      1.926     3.68     1042.639     61.10528     119.6259         7     1.127     0.690   9.11   0
       446    746.5925    196.0907 307.6394849  +6.6178707     804.9604     1504.494     1504.808     86.48502     173.0391     346.4578      1.926     6.49      1048.66     61.10528     107.1385        10     1.416     0.834  81.54   0
       447    441.6058    191.8138 307.7663931  +6.6094267     35411.02     73475.14      79274.5     86.48502     173.1772     346.5267      2.133     4.76     1050.561     61.10528     3375.091        84     1.833     1.605  59.34   0
       448    197.6160    193.1063 307.8677568  +6.6007021     2880.281     5723.321     5805.596     86.62307     173.1772     346.4578      2.008     4.69      1064.59     61.10528     353.8073        36     1.598     1.384  63.05   0
       449    459.5320    192.3675 307.7589237  +6.6097991     1154.344     1752.979     1458.671     86.76089      173.384     346.6646      1.631     4.39     1049.596     61.10528     176.9006        13     1.180     0.815 -66.39   0
       450    345.6140    189.5471 307.8063664  +6.6071424     12899.63     27141.21     30231.71     86.20827     173.3151     346.3888      2.166     4.86     1056.138     61.10528     1298.867        62     1.801     1.553  53.85   2
       451    352.9300    189.4635 307.8033285  +6.6074224     1679.285      3606.49     4652.406      86.8985      173.384     346.6991      2.486     8.70     1055.522     61.10528     183.3799        30     1.858     1.410 -50.78   3
       452    780.8113    187.9365 307.6255362  +6.6223808     27365.86     48443.05     51469.79     86.34676     173.1772     346.4922      1.874     3.96     1047.667     61.10528      3006.82        64     1.663     1.362  54.96   0
       453    728.9744    189.5927 307.6470264  +6.6199646     824.2066      1259.26     627.3771     86.34676     173.2461     346.4922      1.742     6.43     1048.664     61.10528     113.4706        11     1.376     0.844  33.68   0
       454    829.0345    188.5795 307.6054705  +6.6237261     947.6563     1639.771     1540.155     86.34676     173.1772     346.4578      1.504     5.84     1046.615     61.10528     129.9291        12     1.356     0.708  37.23   0
       455     97.7343    185.4699 307.9095271  +6.6004957     6908.604     13915.22     14587.53      86.8985     173.4529     346.6646      2.112     4.92     1069.445     61.10528     811.9777        50     1.712     1.501  67.68   0
       456    131.6097    183.1901 307.8955253  +6.6025765     1179.905     2368.095     2753.245     86.48502     173.1772     346.5957      2.207     7.12     1067.887     61.10528       127.83        21     1.597     1.189  82.32   0
       457     30.8312    171.0719 307.9378201  +6.6041878     731.5264     1383.021     1895.669     86.76089      173.384     346.6646      2.201     5.74     1074.648     61.10528     96.32495         7     1.270     0.731  36.98   0
       458    623.4024    166.4257 307.6916871  +6.6259979     808.8053     1588.019     1842.654     86.48502     173.0391     346.4578      1.845     6.64     1047.728     61.10528     112.5562        12     1.498     0.984  65.35   0
       459    631.3943    164.4107 307.6884332  +6.6270973     1583.689     2994.938     3924.819     86.48502     173.1772     346.5612      2.212     5.63     1047.757     61.10528     193.7345        23     1.495     1.187  46.07   0
       460    316.4792    162.6238 307.8193851  +6.6172795     21600.77     44814.49     48909.53     86.48502     173.1081     346.6302      2.141     4.77     1059.238     61.10528     2217.148        69     1.824     1.560  58.26   0
       461    376.2339    164.9039 307.7944721  +6.6183437     773.8259      1231.33     1215.209     87.03589     173.2461     346.8025      1.790     4.53     1053.635     61.10528     97.36389         6     0.947     0.616  68.73   0
       462     61.6812    161.1952 307.9253331  +6.6093038     3447.411     7066.505     7734.563     86.48502      172.901     346.3888      2.127     4.96     1071.781     61.10528     377.2781        38     1.601     1.450  66.70   0
       463    748.0412    159.0871 307.6401276  +6.6331963     6745.352     11623.59     12901.15      86.8985      173.384     346.6991      1.854     3.99     1047.159     61.10528     715.0382        39     1.562     1.250  52.63   0
       464    158.9199    156.4857 307.8850785  +6.6145196     3567.953     7092.756     7620.491     86.62307     173.7282      346.768      2.039     4.66     1066.382     61.10528     374.7681        37     1.573     1.383  66.75   0
       465    498.1457    153.6512 307.7441804  +6.6270772     893.6578     1745.709     1112.768     87.03589      173.384     346.6991      1.989     7.28     1047.644     61.10528     102.6381        14     1.576     0.942  54.64   0
       466    620.4053    153.9771 307.6933522  +6.6310371     641.8985     1148.545     1665.198     86.48502     173.1081     346.4578      1.957     4.90     1047.313     61.10528     84.29504         5     1.217     0.558 -38.66   0
       467    429.5232    152.3696 307.7727462  +6.6253059     2774.431     5634.325     6716.655     86.76089     173.4529     346.6646      2.212     4.85     1049.641     61.10528     285.6512        32     1.493     1.376  44.97   0
       468    148.6162    151.3171 307.8895358  +6.6163069     1419.331     2684.266     2520.238     86.48502     173.0391     346.5612      1.854     5.98     1066.544     61.10528     162.0065        24     1.528     1.291 -66.31   0
       469    394.1512    151.3461 307.7874828  +6.6245421     2210.448     4439.122     4568.821      86.8985      173.384     346.7336      2.069     5.23     1052.182     61.10528     224.5227        30     1.480     1.345  73.35   0
       470    245.9147    140.1429 307.8494738  +6.6241906     3881.576      8035.48     9075.761      86.8985      173.384     346.8369      2.172     4.86     1062.979     61.10528     436.4613        42     1.700     1.454  56.47   0
       471    707.5262    138.9899 307.6576444  +6.6401391     5018.844     9057.733     9565.574     86.34676       172.97     346.5267      1.929     4.17      1046.73     61.10528     544.8225        35     1.550     1.237  61.60   0
       472    128.4637    139.8250 307.8983007  +6.6203734     1540.904     3435.681     4001.142     86.48502      173.384     346.5957      2.287     6.43     1066.875     61.10528     185.8795        29     1.777     1.226  72.08   0
       473    855.5557    138.5437 307.5961284  +6.6452694     915.6854     1305.548     1513.995      86.8985      173.384     346.6646      1.606     4.70     1042.901     61.10528     118.1641        10     1.054     0.786  50.29   0
       474    659.7447    136.1660 307.6776004  +6.6397068     7430.648     14032.67     15463.77     86.76089      173.384     346.6646      2.030     4.33     1046.947     61.10528     757.7332        50     1.767     1.378  62.47   3
       475    663.3225    127.7053 307.6763981  +6.6433195     42345.01     78407.24        84558     86.62307     173.5906     346.7336      1.964     4.19      1046.62     61.10528     4381.103        78     1.740     1.487  55.13   2
       476     58.5657    135.1016 307.9275118  +6.6199713     896.0309     1775.395     1615.851      86.8985     173.2461     346.8025      2.123     6.27     1071.053     61.10528     103.1073        11     1.348     0.819  84.58   0
       477    386.9824    132.1026 307.7911121  +6.6322462     2678.016     5689.109     6430.451     86.76089     173.1772     346.4233      2.270     5.15     1053.145     61.10528     312.2646        40     1.697     1.516 -75.48   0
       478    570.0000    130.9954 307.7150778  +6.6388377     1095.008     2230.091      2864.06     86.06956     172.8318     346.3543      2.178     5.16     1046.895     61.10528     142.1353        10     1.155     0.651 -71.23   2
       479    342.6192    121.4649 307.8099108  +6.6351492     2746.185     5501.536     5786.618     86.48502      173.384     346.4922      2.053     4.95     1057.849     61.10528     281.1658        32     1.565     1.319  68.64   0
       480     39.9490    104.7463 307.9362778  +6.6318762     758182.6      1962449      2183299     87.03589     173.3151     346.6991      2.408     5.81     1071.432     61.10528     61663.76       410     2.215     1.935  64.58   4
       481    713.1967    115.2850 307.6560851  +6.6501153     994.1274     1622.362      1968.23     86.20827       172.97     346.3543      1.816     6.67     1045.469     61.10528     122.1115        14     1.319     0.947 -87.34   0
       482    727.7849    111.7357 307.6501407  +6.6520684     2517.821     4539.108      4660.07     86.34676     173.2461     346.5267      1.899     4.80      1045.09     61.10528     269.7894        24     1.489     1.092  36.00   0
       483      4.8050    105.4851 307.9508595  +6.6303877     1185.219     2353.076     2824.227     86.34676     173.0391     314.8387      2.116     5.23     1074.268     61.10528     172.5403        16     1.307     1.128  -3.96  16
       484    469.3891    102.6825 307.7578524  +6.6471557     3164.124      6349.89     6716.653     86.48502     173.0391     346.4922      2.066     5.18     1047.706     61.10528     335.0486        33     1.612     1.322  52.79   0
       485    941.9272     98.0354 307.5615864  +6.6648760     3719.451     5542.399     4881.446     86.76089      173.384     346.6302      1.550     3.40     1037.713     61.10528     470.7422        24     1.295     1.009  59.16   0
       486    924.0555     98.8067 307.5689896  +6.6639613     1839.411     2930.964     2544.267     86.34676     173.1772     346.3543      1.650     3.99     1038.272     61.10528     285.0272        19     1.240     1.047 -89.56   0
       487    634.0868     96.7508 307.6895930  +6.6551209     1500.315     2675.927     2435.421      86.8985     173.3151     346.7336      1.838     4.79     1045.418     61.10528     166.8716        19     1.221     1.113  69.03   0
       488    432.7968     94.5941 307.7733354  +6.6492681     1476.503      2809.49     2836.711     86.20827     173.0391     346.4922      2.028     5.72     1049.402     61.10528     172.8795        20     1.366     1.147  23.50   0
       489    180.8997     91.6335 307.8781373  +6.6420320     2444.564     4846.862     4593.129      86.8985     173.2461     346.8369      2.061     4.65     1064.106     61.10528     287.9482        33     1.554     1.324  57.69   0
       490     62.7408     89.4421 307.9273232  +6.6389615     9530.625     18539.42     20629.51      86.8985      173.384     346.7336      2.084     4.56     1068.896     61.10528     1004.392        52     1.777     1.412  61.42   0
       491    329.2426     90.2029 307.8165269  +6.6476064     949.3954     2030.419     2340.652     86.20827      172.901     346.3543      2.381     6.93     1059.749     61.10528     136.9844        13     1.253     1.075 -13.23   0
       492    588.5765     89.4358 307.7087568  +6.6566175     528.2394     927.4783     554.4886     86.48502     173.1081     346.4233      1.741     3.92     1045.653     61.10528     79.96716         5     1.036     0.425 -74.48   0
       493    797.4402     88.2188 307.6219776  +6.6641054     768.4122      1380.58     2193.387     86.48502     173.1772     346.3543      2.198     5.47     1041.573     61.10528     94.04407         8     1.129     0.747  41.22   0
       494    809.2179     84.1924 307.6172172  +6.6661612     2802.954     4885.046     5331.671     86.48502     173.1081     346.4922      1.869     4.01     1040.785     61.10528     320.1068        25     1.377     1.082  62.32   0
       495    454.4650     84.1946 307.7646797  +6.6542880     843.4528     1620.497     2282.102     86.34676     173.1081     346.4233      2.193     6.76       1048.5     61.10528     85.70728        13     1.326     0.966 -72.90   0
       496    864.4417     83.8121 307.5942741  +6.6681623     5445.549      8959.12     9898.862     86.20827     173.1772     346.3543      1.766     3.68     1038.319     61.10528     711.1665        36     1.472     1.222  48.88   0
       497     87.5852     82.5015 307.9172320  +6.6426631     850.7062     1696.594     1388.244      86.8985     173.1081     346.4233      1.950     7.00     1067.069     61.10528     121.3699        12     1.421     0.977 -58.48   0
       498    571.9344     82.5982 307.7159049  +6.6588832     899.7866     1625.046      2200.57     86.20827       172.97     346.4233      1.902     5.49     1045.813     61.10528      119.653         9     1.031     0.823   6.61   0
       499    103.1084     80.9956 307.9108309  +6.6438072     2453.042     4763.053     5342.691     86.48502     173.0391     346.4233      2.092     4.65     1066.307     61.10528     290.0526        32     1.534     1.324  70.10   0
       500    463.9635     80.5456 307.7608546  +6.6561130     793.7797     1676.853     2231.443     86.76089      173.384     346.6991      2.584     6.56     1047.992     61.10528     101.4722        10     1.249     0.969  18.09   0
       501    626.9789     77.3491 307.6932011  +6.6628930      896.455     1659.601     1455.511     86.34676     173.4529     346.5267      1.874     7.19      1044.74     61.10528     124.1219        13     1.359     1.066  82.03   0
       502     45.7512     76.7358 307.9348152  +6.6436351     2098.445     3922.326      4559.01     86.76089     173.2461     346.7336      1.948     4.98      1069.27     61.10528     216.7665        25     1.375     1.233  27.56   0
       503    803.9216     71.4940 307.6198458  +6.6712268     1863.431     3216.096     4189.522     86.62307     173.5906     346.6991      2.029     4.45     1040.132     61.10528     233.7399        22     1.345     1.122  51.87   0
       504    445.1270     71.5828 307.7689868  +6.6591816      758.478      1458.52     1233.792     86.34676     173.3151     346.5612      1.979     5.36     1049.143     61.10528     86.81226         8     1.182     0.686 -49.15   0
       505    130.8407     65.6137 307.8998249  +6.6510904     7051.161     13842.43      14979.1     86.34676     173.1772     346.3888      2.024     4.67     1065.362     61.10528     744.0642        43     1.691     1.365  57.14   0
       506    459.8892     65.2962 307.7630627  +6.6622720     1910.721      3806.53     3754.334      86.8985      173.797     346.6991      1.997     5.17     1048.339     61.10528     207.8356        29     1.495     1.322  65.69   0
       507    673.4579     57.4221 307.6745517  +6.6726751     15056.23     26871.67     28938.28     86.48502      173.384     346.4578      1.915     4.12     1043.936     61.10528     1604.111        55     1.671     1.385  50.64   0
       508    298.0112     59.9488 307.8305309  +6.6590479     1110.907     2243.372      3266.22     86.20827     173.2461     346.3888      2.115     6.44       1062.2     61.10528     138.3672        13     1.389     0.838 -14.38   0
       509    573.3412     53.5849 307.7162981  +6.6709084     4065.185      7742.48     7901.349     86.20827      173.384     346.3888      2.001     4.35     1044.844     61.10528      432.137        38     1.547     1.380  38.92   0
       510    299.4247     49.5414 307.8302951  +6.6633920     6976.756     13980.09     15918.14     86.48502      173.384     346.4922      2.139     4.55     1062.138     61.10528     734.8395        50     1.777     1.450  48.60   0
       511     41.0867     52.5004 307.9375751  +6.6534832     843.6452     1680.698     1538.006      86.8985     173.9344     346.7336      1.616     5.32     1067.782     61.10528     109.9237         9     1.460     0.546 -27.61   0
       512    659.8583     48.0137 307.6805218  +6.6761044     2552.985      5442.64     6386.224     86.20827     173.3151     346.3543      2.287     6.58     1043.661     61.10528     326.6497        32     1.908     1.148  74.25   0
       513    478.8376     49.1575 307.7557309  +6.6695700     16835.16     33156.21     35798.32     86.62307      173.384     346.5267      2.073     4.49     1047.208     61.10528     1631.036        65     1.766     1.488  49.70   0
       514    358.6744     48.9389 307.8056872  +6.6656298     639.7454     1506.623     1795.431     87.17306      173.384     346.6646      2.584     5.17     1057.275     61.10528     105.6342         5     1.846     0.410  87.48   2
       515     64.8839     49.2969 307.9277923  +6.6556069     1795.695     3301.706     3505.296      86.8985      173.797     346.7336      1.914     4.19     1067.012     61.10528     226.8486        21     1.258     1.142  68.54   0
       516    956.5302     48.8864 307.5571665  +6.6856546     2056.739     3242.276     3845.393     87.03589     173.6594     346.6991      1.699     3.84     1034.616     61.10528     270.9138        20     1.350     0.943  58.18   0
       517    291.6255     53.7678 307.8333941  +6.6613852     1558.962     3479.161     5364.946     86.34676     173.1772     346.4922      2.968     5.77     1062.681     61.10528     202.0762        23     1.441     1.261 -87.74   1
       518    287.3423     46.0254 307.8354362  +6.6644377      2224.35     4513.043      5752.52     86.48502      173.384     346.5267      2.299     5.46     1062.971     61.10528     235.1274        29     1.543     1.273  61.18   0
       519    340.2990     44.8769 307.8134625  +6.6666900     789.7096     1593.374     1824.339     86.48502     173.5906     346.6646      2.142     6.37     1058.914     61.10528     135.5187        11     1.370     0.833  29.50   0
       520    976.9388     39.1050 307.5490109  +6.6903735     987.4322     1419.817     1842.938     86.76089     173.4529     346.7336      1.633     4.12     1032.621     61.10528     146.3932        10     1.043     0.684  78.50   0
       521    728.5823     38.7358 307.6522660  +6.6822333     1594.547     2592.664     2865.113     86.48502     173.3151     346.4922      1.740     4.23     1042.381     61.10528     208.7538        20     1.344     1.006  51.75   0
       522    216.9909     31.6551 307.8651649  +6.6680066     7829.554     15771.66     16649.11     86.20827     173.3151     346.3543      2.067     4.51     1064.421     61.10528     847.2883        49     1.718     1.449  53.45   0
       523    962.4401     29.2135 307.5553703  +6.6939738     3900.245     6256.326      6974.37     86.34676     173.1772     346.3888      1.739     3.74     1033.165     61.10528     529.1217        28     1.467     1.045  56.29   0
       524   1011.6656   1020.1718 307.5016747  +6.2864813     642.8556     779.6834     841.5981     86.62307     173.3151     315.2938      1.453     4.26     1080.635     61.10528     83.19885         6     0.759     0.681  20.99  16
       525    499.3288     28.1859 307.7479205  +6.6789148     1339.785     2947.086     3227.475     86.34676     173.2461     346.5612      2.179     7.60     1046.424     61.10528     139.0978        19     1.420     1.139  89.24   0
       526    763.2692     27.9415 307.6382099  +6.6878492     1751.444     2862.493     2757.831     87.03589     173.3151     346.6302      1.733     4.16     1040.003     61.10528     230.6046        20     1.315     0.998  45.01   0
       527    583.8066   1013.2993 307.6796273  +6.2750338     4301.085     6629.754     7206.932     86.62307       172.97     346.3888      1.643     3.26     1088.894     61.10528     654.1677        27     1.432     0.973  59.72   2
       528    666.9108     21.2975 307.6784898  +6.6873701     3016.938     5620.346      5687.27      86.8985     173.8657     346.6646      1.952     4.50     1042.756     61.10528     338.2277        27     1.411     1.209  60.27   0
       529    580.8246   1005.5053 307.6811282  +6.2781519     8742.545     12563.54     13278.41     87.03589     173.1081     346.5267      1.572     3.07     1088.708     61.10528     1238.471        33     1.421     1.011  58.36   2
       530    333.9683   1012.0999 307.7834401  +6.2671599     15129.97     23199.36     25575.84      86.8985     173.2461     346.8369      1.654     3.24     1090.635     61.10528     2204.947        55     1.540     1.429 -60.87   0
       531    788.1389   1012.6788 307.5947745  +6.2821195     8557.005     12196.81     12562.25     87.03589     173.4529     346.6646      1.506     3.16     1085.091     61.10528     1213.094        27     1.354     0.932  51.58   0
       532     30.4880     31.8197 307.9426812  +6.6616639     910.7136     1337.038     1359.269     86.62307     173.1081     346.5612      1.618     5.73     1066.227     61.10528     114.8854         9     1.082     0.854  55.54   0
       533    553.9474   1014.2568 307.6919975  +6.2736393     1113.847     1317.944     1011.361      86.8985      173.384     346.6646      1.224     2.98      1089.01     61.10528     174.4236         8     0.822     0.649  40.75   0
       534    458.6100   1012.3846 307.7316600  +6.2712202     868.7891     1130.501     1351.327     86.62307     173.1081     346.5267      1.427     4.72       1089.6     61.10528     126.1652         9     1.082     0.656  48.19   0
       535     30.2105   1013.0225 307.9095717  +6.2565764      807.765     1221.737      817.192     86.48502     173.1081     346.5267      1.631     4.02     1090.448     61.10528     116.3633         6     1.009     0.767  24.08   0
       536    849.2910   1012.0443 307.5693945  +6.2844228     1215.587     1711.147     2095.297      86.8985     173.3151     346.8025      1.569     3.67     1083.999     61.10528     193.0853         9     0.991     0.620  37.32   0
       537    305.2650   1009.5327 307.7954486  +6.2672570     975.1571      1460.59      1663.69      86.8985      173.384     346.6991      1.589     5.67     1090.181     61.10528     132.5516        10     1.023     0.886 -59.16   0
       538    949.4650   1006.1407 307.5279821  +6.2902013     10190.28     13961.01     13995.11     87.03589     173.3151     346.6991      1.454     3.06     1081.924     61.10528     1555.421        32     1.315     0.985  54.62   0
       539    922.9675   1002.2839 307.5391181  +6.2909103     13860.45     19964.41      20852.1      86.8985     173.1772     346.5957      1.510     3.01     1082.349     61.10528     2197.958        43     1.399     1.100  45.22   0
       540    635.7772   1002.7574 307.6583950  +6.2811245     1365.723     2002.691     1793.857     86.48502     173.2461     346.4922      1.500     4.40     1087.434     61.10528     182.2118        12     1.188     0.745  61.66   0
       541    567.3548   1001.4233 307.6868605  +6.2793864     4262.549     6446.805      6302.48     86.34676      173.384     346.5267      1.622     3.41      1088.62     61.10528     635.8402        27     1.494     1.019  39.81   0
       542    676.8423   1000.7635 307.6414047  +6.2833207     1518.108     1981.366     1766.077     86.62307      173.384     346.5267      1.424     3.92     1085.956     61.10528     229.5585        13     1.156     0.729  65.45   0
       543    102.0367    999.7632 307.8801883  +6.2644656     812.5606     1077.956     1151.536     86.62307     173.2461     346.4578      1.455     3.24      1090.36     61.10528     143.5458         6     0.821     0.651 -24.70   0
       544    520.5359    997.9478 307.7064245  +6.2792543     2042.221     3154.053     3305.594      86.8985     173.3151     346.6302      1.622     3.76     1088.819     61.10528     282.8146        18     1.187     0.965  67.04   0
       545    954.8525    989.8726 307.5262897  +6.2970976     49267.39     69403.45     71991.38     86.76089      173.384     346.6991      1.475     3.04     1080.938     61.10528     7602.001        58     1.444     1.076  54.09   0
       546     27.8615    989.8279 307.9113321  +6.2660731     3280.626     4862.815     5828.305     86.48502      173.384     346.6302      1.600     3.31     1090.337     61.10528     454.0809        23     1.280     1.024  58.84   0
