#   1 NUMBER                 Running object number                                     
#   2 X_IMAGE                Object position along x                                    [pixel]
#   3 Y_IMAGE                Object position along y                                    [pixel]
#   4 ALPHA_J2000            Right ascension of barycenter (J2000)                      [deg]
#   5 DELTA_J2000            Declination of barycenter (J2000)                          [deg]
#   6 FLUX_APER              Flux vector within fixed circular aperture(s)              [count]
#   9 FLUXERR_APER           RMS error vector for aperture flux(es)                     [count]
#  12 FLUX_RADIUS            Fraction-of-light radii                                    [pixel]
#  13 FWHM_IMAGE             FWHM assuming a gaussian core                              [pixel]
#  14 BACKGROUND             Background at centroid position                            [count]
#  15 THRESHOLD              Detection threshold above background                       [count]
#  16 FLUX_MAX               Peak flux above background                                 [count]
#  17 ISOAREA_IMAGE          Isophotal area above Analysis threshold                    [pixel**2]
#  18 A_IMAGE                Profile RMS along major axis                               [pixel]
#  19 B_IMAGE                Profile RMS along minor axis                               [pixel]
#  20 THETA_IMAGE            Position angle (CCW/x)                                     [deg]
#  21 FLAGS                  Extraction flags                                          
         1    721.5254     14.9463 307.6452988  +6.6898281     8655.081     11268.67     11434.88     78.15002     156.1759     312.2277      1.357     2.45     825.4911     55.04068     1409.711        27     1.104     1.000  75.92   0
         2    641.7640     14.2171 307.6784641  +6.6874611     4445.147     6016.682     5735.265     77.77699     155.9896     312.0414      1.397     2.53     826.1183     55.04068     674.6927        22     1.051     0.990 -70.89   0
         3    343.5677     13.9296 307.8023708  +6.6775854     968.6339      1142.88     1219.159     78.15002     156.1759     312.2898      1.349     3.56     834.8718     55.04068      133.165        10     0.990     0.730  67.55   0
         4    397.2733     12.5062 307.7801051  +6.6799753     808.5216     744.7404     1111.749     78.15002        156.3     312.2588      1.140     3.77     831.4677     55.04068     133.0618         6     0.918     0.445 -89.00   0
         5    441.8823     10.4075 307.7616414  +6.6823379     7355.504     9798.294     10290.73     77.90154     155.8031     312.1346      1.398     2.61     829.7557     55.04068     1126.601        25     1.101     1.015 -68.50   0
         6     42.8462      9.9848 307.9274443  +6.6691036     9598.964     13155.24     13371.64     77.77699     155.9896     312.0103      1.421     2.57     832.4851     55.04068     1582.057        35     1.196     1.139 -46.12   0
         7    689.2098      9.5090 307.6589084  +6.6909920     1111.353     1525.734     1445.114     78.02588     155.8653     312.0103      1.501     5.17     825.5099     55.04068     162.1165        11     1.135     0.788 -57.41   0
         8    517.3270      7.7147 307.7303855  +6.6859785     921.5579     1391.959     1455.147     78.39773      156.486     309.3894      1.610     4.05     827.8675     55.04068     136.6394         9     1.003     0.830 -76.41   0
         9    338.4790      5.3805 307.8047730  +6.6809437     15062.16     20149.04      21390.4     77.77699     155.8653     289.9469      1.423     2.58     834.8718     55.04068     2159.853        38     1.276     1.107 -57.13  16
        10    112.0598      5.5853 307.8988373  +6.6732495     2839.276     3948.424     4065.281     77.77699     156.1139     291.9129      1.414     2.82     832.6312     55.04068     434.3193        16     1.006     0.935  69.64  16
        11    433.3489      6.0203 307.7653345  +6.6838628     791.8861     1401.512     1789.362     77.77699      156.238     296.3623      1.794     3.68     829.7864     55.04068     141.3112         6     0.901     0.619 -18.97  16
        12    103.5269      4.4752 307.9024199  +6.6734206     1648.311     2265.853     2085.579     78.52129      156.424     279.8406      1.497     2.69     832.5455     55.04068     236.7837        12     0.869     0.855 -52.99  16
        13    806.9789      4.1075 307.6101559  +6.6971585     850.9723     1024.617     1334.162     78.15002     154.4909     275.0537      1.156     2.20     824.9474     55.04068     183.9152         8     0.765     0.661  45.02  16
        14    404.6521      3.2194 307.7773519  +6.6840565     2847.254     3957.782     4051.697     77.77699      148.083     263.4604      1.445     2.68     830.8035     55.04068     475.9172        20     1.101     0.971  63.82  24
        15    665.1895      1.0639 307.6691724  +6.6936748     1019.908     1319.905     1675.587     64.11236     119.7815      230.278      1.009     2.95     825.3137     55.04068     338.2469         6     1.073     0.244  -0.63  24
        16    433.0789   1005.7386 307.7318343  +6.2711498     1198.375      1670.21     1711.478     78.39773      156.238     312.2588      1.556     3.54     859.7417     55.04068     179.6163        13     0.998     0.919 -40.29   0
        17    969.8915   1020.7551 307.5084640  +6.2828901     5877.384     10275.38     10505.52     78.27397     155.4293     277.1603      1.824     3.76     854.6688     55.04068     739.6066        39     1.468     1.310  59.25  24
        18      5.2282   1006.1758 307.9094382  +6.2566037     785.3011      1018.57     852.7548     77.77699     156.0517     288.3039      1.313     3.57     854.5328     55.04068     129.6186         7     0.879     0.569 -35.51  16
        19    279.9242   1002.6724 307.7955198  +6.2672801     1062.476     1579.295     1430.947     78.52129      156.424     312.2588      1.734     5.02     859.9803     55.04068     137.9507        12     1.129     0.933  83.80   0
        20    924.4216    999.3306 307.5280583  +6.2902191     8433.807     13690.54     14374.97     77.90154     156.1139     312.2277      1.763     3.43     855.7679     55.04068     1015.971        39     1.400     1.289  40.48   0
        21    555.7456    998.7235 307.6811434  +6.2781535     8941.878     13022.59     14439.39     78.39773     156.1759     312.2588      1.580     2.86     859.6332     55.04068     1262.556        37     1.299     1.195  84.78   0
        22    610.8555    996.1588 307.6583496  +6.2810562     1330.521     1928.385     2069.306     78.15002     156.1759     312.2898      1.506     6.33      859.524     55.04068     232.5384        14     1.547     0.780 -79.20   0
        23    897.9885    995.5636 307.5391588  +6.2908926     11658.42     19374.02     20888.11     77.77699     155.9896     311.9482      1.794     3.41     855.7188     55.04068     1549.915        54     1.541     1.409  12.49   0
        24   1019.8548    994.9436 307.4885825  +6.2952110     4304.701     7366.014      7778.75     78.39773      156.238     287.4283      1.823     3.72     852.1497     55.04068     526.5302        35     1.428     1.290  58.65  16
        25    546.7390    996.0098 307.6849737  +6.2789724     591.0895     758.8027       1620.7     77.65224     156.0517     312.0103      1.495     3.47     859.5486     55.04068     92.53534         5     0.999     0.348 -44.38   2
        26    542.1227    994.6019 307.6869375  +6.2793991     4426.572     6534.697      6857.12     77.65224     155.6786     312.0724      1.575     3.09      859.519     55.04068     556.1063        29     1.278     1.130   4.07   2
        27    651.8095    993.8752 307.6414233  +6.2833685     1696.751      2417.05     2552.249     77.90153     155.8031     312.0724      1.561     3.30      858.975     55.04068     249.7733        17     1.094     0.986 -81.23   0
        28     76.9422    992.9398 307.8801138  +6.2644797     926.6845     1512.299      1442.83     78.39773     156.1139     312.2898      1.900     3.52      855.533     55.04068      141.174         8     0.849     0.653 -51.97   0
        29    806.0742    992.0300 307.5774381  +6.2892843     573.8248     800.0852     897.5576     78.15002     156.1759     312.2588      1.700     5.30     856.4431     55.04068     87.41809         7     1.073     0.740  85.92   0
        30    495.2693    990.9260 307.7065128  +6.2793480     2465.176     3501.768     3327.617     78.39773        156.3     312.2588      1.491     3.39      859.385     55.04068     334.5645        19     1.150     0.951 -37.45   0
        31    929.7615    983.0817 307.5263845  +6.2971053     42301.68     68588.94      72449.4     78.27397      156.238     312.1967      1.743     3.36     855.1288     55.04068     5352.767        73     1.513     1.429  63.37   0
        32      2.7600    982.9668 307.9112458  +6.2661015     3448.464     5124.909     5239.957     78.02588     142.8855     256.8649      1.575     3.27     853.8373     55.04068     436.6874        26     1.227     1.162 -52.89  24
        33    334.7113    984.1395 307.7733982  +6.2767688     643.7729     902.9761     862.0093     78.15002        156.3     312.2898      1.486     3.37     859.6502     55.04068     95.64801         5     0.941     0.349  46.49   0
        34    236.9516    981.4716 307.8140733  +6.2745898     1982.034     2903.178     2928.766     78.27397      156.238     312.2898      1.573     2.96     857.2706     55.04068     289.7748        16     1.056     0.894  -5.99   0
        35    125.0262    980.4416 307.8605735  +6.2712555      728.259     1039.753     1044.508     77.90154     156.1139     312.1035      1.582     3.48     856.0322     55.04068     135.7877         7     1.064     0.530 -62.34   0
        36    775.8382    974.7943 307.5905686  +6.2953902     6852.502     10510.18     11819.89     77.40216     155.9275     312.0103      1.654     3.19     856.6559     55.04068     941.2289        40     1.438     1.285 -69.81   0
        37    636.0417    979.4973 307.6484517  +6.2887769     784.9853     1147.561     915.1734     78.27397     156.0517      312.476      1.371     3.74     858.8031     55.04068     141.8442         6     0.836     0.481 -11.51   0
        38    827.6198    976.8100 307.5690021  +6.2962868     2324.341     3661.673     3621.862     77.90154     155.8653     312.1346      1.637     3.50     855.9443     55.04068      336.582        20     1.133     1.082  44.89   0
        39    245.2589    973.8366 307.8108815  +6.2780205     1598.653     2336.473     2613.338     78.27397     156.1759     312.2588      1.578     3.56     857.3765     55.04068     236.3391        18     1.213     0.967  16.70   0
        40    562.8524    974.0053 307.6790223  +6.2885957     882.9427     1243.955     980.4934     77.65224     155.9275     311.9171      1.400     3.83     858.9288     55.04068     139.5307         8     0.839     0.650 -37.44   0
        41    209.6615    973.2488 307.8256796  +6.2770680     898.6635     1270.626     1400.348     78.27397     156.1139     312.3209      1.624     4.29     856.5112     55.04068     141.3624         9     0.922     0.774  64.37   0
        42     70.1504    971.9095 307.8836424  +6.2729329     2906.713     4427.609     4730.005     78.27397     155.9896     312.4139      1.582     3.03      854.912     55.04068     401.1292        27     1.367     1.078  14.50   0
        43    964.1517    969.8919 307.5125468  +6.3036970     6280.965        10485     10893.98     78.27397     156.0517     312.3829      1.762     3.49     853.6367     55.04068     817.3442        40     1.426     1.319  67.82   0
        44    220.4965    965.8213 307.8214315  +6.2804980     578.4057     868.2438     1024.648     78.15002     155.9896     312.0724      1.700     4.73     856.3599     55.04068     78.84778         6     0.944     0.672  10.74   0
        45    646.0464    964.2032 307.6448108  +6.2954253     685.8759     919.9545     1080.088     77.65224     155.9275     311.9171      1.438     4.15     858.3615     55.04068     118.0286         7     1.176     0.418 -56.99   0
        46    937.9800    961.7996 307.5236837  +6.3061653     2049.267     3169.002     3168.405     77.90154     155.8031     311.9482      1.625     3.80     854.1344     55.04068     254.2957        21     1.250     1.041  40.61   0
        47    270.7578    957.6553 307.8008400  +6.2855563       4719.6     6735.577     6888.835     78.15002     156.1139     312.2898      1.533     2.86     857.7657     55.04068     681.5668        27     1.246     1.065  66.03   0
        48    797.5425    958.1340 307.5821150  +6.3029928     1421.344     2072.266     1943.332     78.39773     156.1139     312.2898      1.491     3.46     856.1302     55.04068     204.7733        13     1.064     0.844 -55.85   0
        49    658.6000    957.4549 307.6398249  +6.2986309     5053.908       7360.2     7789.944     77.52731     155.8031     311.9171      1.558     2.89     858.1143     55.04068     703.5233        28     1.229     1.101 -50.67   0
        50   1008.2081    957.0427 307.4946841  +6.3104699     676.6663     1014.661     835.7418     77.77699     155.9896     312.0103      1.540     5.39     852.1846     55.04068     88.38428         8     0.969     0.844  18.18   0
        51     39.4314    955.1087 307.8969618  +6.2788353     2517.841     3679.867     4194.022     78.39773     155.9896     312.2588      1.646     2.91     853.8311     55.04068     343.5858        19     1.134     0.978 -86.72   0
        52    480.9257    955.6177 307.7136534  +6.2934438     1305.687     1910.568     2050.334     77.77699     155.9275     312.1656      1.593     2.95     858.4089     55.04068     230.2714        13     1.015     0.829  74.67   0
        53    890.0979    953.8137 307.5438312  +6.3078653     878.6937     1536.015     1291.654     78.15002     155.9275     312.0103      1.831     6.04     854.6307     55.04068     121.9695        12     1.499     0.685  27.28   0
        54    961.6470    951.3417 307.5142068  +6.3112717     745.1869     1096.402     881.3266     78.27397     156.1759     312.3829      1.631     5.48     853.1946     55.04068     94.12921         9     0.997     0.851  45.66   0
        55    307.0831    951.2903 307.7859732  +6.2894028     966.7667     1367.731     1860.914     78.02588      156.424     312.3519      1.563     4.88     858.2466     55.04068     144.9655        11     0.963     0.907 -30.43   0
        56    583.2676    950.0141 307.6713513  +6.2991831      1801.83     2701.288      2444.45     77.77699     156.0517     312.1656      1.530     3.62     858.2525     55.04068     303.2516        19     1.207     1.084  -3.70   0
        57   1014.7617    948.4843 307.4922490  +6.3142215     660.4176     1300.125      1081.36     78.27397     156.1139     312.1967      1.908     4.82     851.9279     55.04068      86.3241         8     1.559     0.423  88.04  16
        58    622.6442    946.3824 307.6551245  +6.3019996     1295.035     1727.447     1820.208     77.90154     156.0518     312.0103      1.440     3.11     858.0681     55.04068     183.5654        11     0.927     0.768 -86.04   0
        59     71.5899    946.8992 307.8838881  +6.2833058     799.3175     1152.222     1319.405     78.02587     155.8031     312.0724      1.677     3.92     854.3771     55.04068     111.0198         9     1.075     0.573  27.82   0
        60    302.4069    943.9377 307.7881619  +6.2922812     1673.655     2221.296     2942.345     77.65224     155.9896     312.0414      1.400     2.87      857.906     55.04068     276.5337        13     0.934     0.880 -65.12   0
        61    569.9166    942.0234 307.6771625  +6.3020351     626.7884     1009.964     933.2957     78.15002     155.9275     312.1967      1.693     4.43     858.0271     55.04068      96.2984         7     1.296     0.431  25.53   0
        62    769.2193    940.3035 307.5944716  +6.3094080     976.0288     1125.694     1307.915     78.15002     155.9896     312.0414      1.273     3.21     856.2769     55.04068     164.4141         8     0.846     0.682  19.90   0
        63    906.7580    936.7114 307.5374859  +6.3154814     7267.525      11058.6     11388.91     78.27397     156.1139     312.2898      1.647     3.25     853.8607     55.04068     880.0456        36     1.310     1.257 -47.92   0
        64    115.4411    936.1092 307.8660468  +6.2892343     590.9943     797.5183     1073.362     78.27397     156.1759     312.3209      1.602     4.52     854.8881     55.04068     99.08679         5     0.875     0.663 -48.60   0
        65    442.7890    933.8872 307.7302168  +6.3011371     2166.605     3217.335      3889.58     77.90154     155.9275     312.1035      1.646     3.18     857.9883     55.04068     294.6785        19     1.128     0.997 -74.00   0
        66    611.7624    933.9266 307.6600602  +6.3067778     680.7254     901.6749     284.0495     78.15002      156.238     312.3209      1.398     4.02     857.7915     55.04068     92.38629         7     0.727     0.696 -81.38   0
        67    344.3530    932.3168 307.7711380  +6.2984857     10601.89      14653.2      16011.2     78.27397     156.1759     312.2588      1.486     2.73     857.9751     55.04068     1445.259        34     1.207     1.139 -19.37   0
        68    264.4251    931.2357 307.8043582  +6.2962503     7914.514     10887.44      11153.9     77.90154     155.9896     312.0103      1.460     2.79     856.5056     55.04068     1094.343        31     1.196     1.109 -57.05   0
        69    776.4938    924.8702 307.5919680  +6.3160224     763.2786     1035.073      387.601     78.27397      156.238     312.2588      1.650     5.75     855.9755     55.04068     96.88403         9     1.169     0.797  62.26   0
        70    592.8351    925.6041 307.6681979  +6.3095803     1209.815     1789.792     1483.805     77.40216     156.0517     312.0414      1.493     3.30     857.6254     55.04068     174.3136        11     1.017     0.733 -29.12   0
        71    922.8826    922.1980 307.5312761  +6.3220108     1051.531     1555.053     1943.077     77.65224     155.8031     312.0103      1.563     3.91     853.1558     55.04068       146.98        12     1.087     0.859  73.04   0
        72    879.2352    921.4515 307.5494238  +6.3208632     706.1409     1313.656     1043.127     78.15002     156.1759     312.1656      1.812     4.94     854.0436     55.04068      99.7442         7     1.278     0.541 -65.93   0
        73    226.4570    921.3056 307.8204557  +6.2990750     652.2943      1018.19     743.2265     78.15002     156.1759      312.445      1.583     3.89      855.422     55.04068     109.9722         7     0.890     0.625 -20.83   0
        74    155.0270    921.6293 307.8501003  +6.2965422     558.5722     691.7263     933.9006     77.77699     155.9896     312.0724      1.312     3.43     855.0074     55.04068     106.4932         5     0.804     0.424 -19.82   0
        75    421.8456    919.9653 307.7393799  +6.3061826     730.5751     920.8824       1324.3     77.90154     156.1139     312.1346      1.504     3.31     857.6907     55.04068     122.6365         7     0.882     0.715  -8.30   0
        76    852.3098    915.3665 307.5608070  +6.3224768     708.8868     896.3322     896.7576     78.39773     156.0518     312.2588      1.355     3.19     854.4595     55.04068     116.0565         7     0.830     0.656 -67.25   0
        77    582.4628    915.5360 307.6728421  +6.3133897     824.3726     984.6796     847.4736     78.27397     156.1759     312.2898      1.321     4.52      857.507     55.04068     126.3212         8     0.938     0.694  39.22   0
        78     50.0804    915.6235 307.8938725  +6.2954934      537.434     519.6068     232.9199     77.90153     155.8653     312.2277      1.390     4.88     853.2542     55.04068     88.04572         7     1.467     0.460 -50.73   0
        79    758.9746    914.9462 307.5995744  +6.3195342     1765.438      2450.33     2434.093     77.90154      156.238     312.1035      1.394     2.98     856.0482     55.04068     266.8905        12     0.934     0.843  23.93   0
        80    990.4077    910.4713 307.5036310  +6.3291031     1247.434      1846.94     2528.312     77.77699     155.7408     312.1656      1.661     4.25     851.4679     55.04068     161.9401        18     1.321     0.935  41.43   0
        81    622.9238    911.3300 307.6561840  +6.3164796      874.168     1365.083      1527.91     78.52129        156.3     312.2588      1.738     3.98     857.3639     55.04068     141.8689         8     0.924     0.730  78.17   0
        82      9.1362    911.7196 307.9110026  +6.2957275     984.2255     1252.061     1653.044     78.52129      156.238     312.2277      1.310     3.89     852.4705     55.04068     158.8195        10     0.945     0.829  39.86   0
        83    634.7052    910.9949 307.6513036  +6.3170120     624.1501     809.7041     900.9851     78.02588     155.8653     312.0103      1.156     3.81     857.2908     55.04068      104.897         7     0.872     0.581 -63.81   0
        84    543.9268    910.6624 307.6890056  +6.3141120     1290.489     1541.013     2183.286     78.39773     156.1759     312.3209      1.322     3.35      857.446     55.04068     204.4057        11     0.970     0.776  58.00   0
        85    677.4662    908.2373 307.6336416  +6.3195802     2788.864     3812.502     3977.165     78.15002     156.1139     312.3209      1.453     2.68     856.9428     55.04068     415.7273        19     1.122     0.895 -88.34   0
        86    968.1102    906.1055 307.5130351  +6.3301623     640.2398     940.6514     1522.641     78.27397     156.6717     312.3209      1.573     5.38     851.8456     55.04068     100.9342         5     1.153     0.708  71.67   0
        87     74.0085    904.3060 307.8843202  +6.3009701     3106.541     4631.618     5397.345     77.90153     155.8031     312.0414      1.636     3.41      853.448     55.04068     428.8604        22     1.179     1.088  86.17   0
        88    838.1558    904.2631 307.5670555  +6.3265883     817.4451      1164.62     1087.452     78.27397     156.1139     312.2898      1.599     5.73     854.5101     55.04068     107.9892         9     1.075     0.860  32.17   0
        89    217.5748    903.3209 307.8247489  +6.3062011     2598.198     3521.371      3664.64     78.02588     156.0518     312.2588      1.480     3.00     855.3406     55.04068     352.6952        20     1.115     1.036 -69.87   0
        90     91.6188    903.7029 307.8770293  +6.3018112     2077.597     2813.704     3220.926     78.15002     156.0518     312.0103      1.437     3.27      853.714     55.04068      253.046        21     1.150     1.070   9.36   0
        91    955.5940    903.5618 307.5183170  +6.3307952      874.089     1323.405     1313.414     77.40216     155.9275     312.0103      1.813     4.14     852.0811     55.04068      135.025         9     0.991     0.785  46.68   0
        92    251.7057    899.8337 307.8106959  +6.3087866     1030.531     1408.443     1061.778     78.39773     156.0517     312.3519      1.365     4.10     855.8714     55.04068     154.4953        12     1.222     0.671  59.66   0
        93    356.4839    899.4233 307.7672076  +6.3124716     1034.098     1305.023     1498.956     78.15002     155.9275     312.1967      1.306     3.04     856.9934     55.04068     163.9225         9     0.974     0.679 -69.83   0
        94    672.1031    897.2803 307.6362357  +6.3239242     7594.622     10760.72     11428.73     78.02588      156.486     312.3209      1.494     2.75     856.7336     55.04068     1159.823        31     1.221     1.123 -75.82   0
        95    810.1154    898.4459 307.5788928  +6.3280539     668.9923     778.9376     569.5687     78.27397     156.1139     312.2588      1.430     4.07     854.9557     55.04068     162.0857         6     1.172     0.494   2.94   0
        96    909.8868    893.7258 307.5376242  +6.3333318     2870.627     4395.414     4021.946     78.39773      156.486     312.3209      1.630     3.24     852.9294     55.04068      399.673        24     1.263     1.063  83.53   0
        97     31.8772    895.5291 307.9021076  +6.3031763     1209.089     1950.715     1971.235     78.52129      156.424     312.2588      1.698     3.69     852.7747     55.04068      185.746        13     1.025     0.896 -40.77   0
        98    784.7238    894.6038 307.5895644  +6.3287922     667.5129     1135.444     1098.059     77.77699     155.6786     312.1346      1.676     4.44     855.3404     55.04068     108.4058         7     0.998     0.567 -24.76   0
        99    461.9196    894.8110 307.7235867  +6.3179097     686.7678     978.3956     793.7467     77.90153     155.9275     312.1035      1.448     3.24     857.1372     55.04068     109.0579         6     0.793     0.653   2.36   0
       100    355.0791    890.5167 307.7680904  +6.3161013     18511.06     25396.85     26297.13     78.39773      156.424     312.3829      1.456     2.62     856.7233     55.04068     2730.172        48     1.266     1.221 -51.75   0
       101     45.1136    893.8277 307.8966697  +6.3043239     1303.216     1865.573     1500.108     78.39773     155.8653     312.1346      1.422     3.44     852.9044     55.04068     190.9643        13     1.029     0.865   8.53   0
       102     89.7379    891.4993 307.8782216  +6.3067858     1448.811     1914.187     2003.713     78.02588     156.1759     312.3519      1.450     2.86     853.3131     55.04068     203.7238        11     0.886     0.804 -83.77   0
       103    405.6697    889.5422 307.7471183  +6.3181998     945.9393     1099.674     1457.571     78.39773     156.1759     312.2277      1.437     5.43     856.6896     55.04068     110.6234        13     1.073     0.922 -14.21   0
       104    226.0270    889.9320 307.8216905  +6.3120121     1343.741     1824.076     2046.102     77.90154     156.0517     312.1656      1.365     2.54     855.4057     55.04068      224.549        10     0.836     0.740 -82.79   0
       105    684.4793    882.3221 307.6315984  +6.3305132     709.9167     1270.068     1640.744     78.52129      156.424     312.4139      2.260     5.42      856.298     55.04068     91.64502         6     1.100     0.754 -42.98   0
       106    432.7965    881.3281 307.7361315  +6.3225000     1367.105     2053.652     1784.062     77.77699     155.8031     312.1035      1.479     3.52     856.5613     55.04068     188.7291        12     0.941     0.907  80.36   0
       107    118.3572    881.2527 307.8666851  +6.3119778     1978.337     2778.737     2657.609     78.27397     156.1759     312.2898      1.582     3.87     853.6083     55.04068     241.0668        18     1.197     0.971  74.17   0
       108    513.5648    878.3207 307.7026975  +6.3264470     721.9065     913.7413       1017.9     78.15002      156.238     312.2588      1.363     4.50     857.0521     55.04068     109.2709         8     0.916     0.728  36.36   0
       109    686.6951    877.3477 307.6308451  +6.3326409     940.0953     1443.404     2053.195     78.15002     156.1139      312.507      1.765     3.18     856.1732     55.04068     165.6125         8     0.837     0.753 -69.49   0
       110     95.9479    878.3745 307.8760859  +6.3124126     435.9957     398.0628     322.0496     77.90153     156.1759     312.1656      0.980     3.84     852.9714     55.04068      75.2121         5     0.875     0.484   0.51   0
       111    900.3041    875.3323 307.5422183  +6.3406056     1930.119       2783.9     2743.884     78.15002        156.3     312.2588      1.539     3.09      852.761     55.04068     299.8682        18     1.100     0.982  56.32   0
       112    870.9691    874.7305 307.5544190  +6.3398754     2385.615     3496.402     3915.376     78.15002     156.1759     312.2588      1.572     3.15      853.246     55.04068     337.0745        20     1.129     1.010  35.02   0
       113    834.1938    874.2781 307.5697040  +6.3388349     3192.231      4578.89     5068.632     77.90154     155.6786     312.0414      1.527     2.94     853.9794     55.04068     465.8398        22     1.189     1.006  61.78   0
       114    101.8808    874.7319 307.8737455  +6.3141158     2827.544     3914.406     4172.281     78.39773      156.424     312.2588      1.475     2.98     853.0213     55.04068     402.2237        20     1.121     0.996 -14.55   0
       115    570.1637    865.7018 307.6796208  +6.3335511     377706.3       515882     541204.9     78.27397     156.0517      312.445      1.451     2.62     856.9131     55.04068     57392.72       183     1.485     1.412  79.71   4
       116    464.9182    872.4308 307.7230935  +6.3272492      741.665     865.1304     890.1019     78.15002     155.9896     312.2588      1.300     3.02     856.7558     55.04068      125.364         7     0.859     0.723  83.39   0
       117    349.7400    872.4823 307.7709136  +6.3233673     858.5394     1046.818     1716.002     78.39773      156.238     312.2898      1.365     3.84     856.0773     55.04068     137.5031         8     0.920     0.790 -10.68   0
       118    414.3919    868.2831 307.7442114  +6.3272684      8740.67     11916.43     12645.16     77.90154     155.8653     312.1035      1.446     2.66     855.9469     55.04068     1266.967        30     1.135     1.102 -10.42   0
       119    657.8126    868.6374 307.6431295  +6.3352711     1409.164     1946.726     2127.659     77.77699     155.9896     311.9792      1.519     3.44     856.2668     55.04068     235.2043        13     1.080     0.797  60.15   0
       120    357.6010    866.6741 307.7678450  +6.3260287     14076.22     19260.75     20013.59     77.52731     155.6163     312.1346      1.453     2.60     855.9131     55.04068     2090.293        37     1.200     1.142  11.13   0
       121    908.4351    861.9184 307.5392908  +6.3464146     5590.333     8103.882     9045.573     78.27397     156.1759     312.2277      1.603     3.09     852.3974     55.04068     692.5135        29     1.270     1.139   9.31   0
       122    676.0521    862.9440 307.6357470  +6.3382314     3853.248     5397.467     5641.674     78.27397     156.1759     312.2277      1.455     2.71       855.92     55.04068     615.2347        24     1.136     1.045  22.26   0
       123    747.7746    860.0069 307.6060649  +6.3418408      768.303     1144.656     1264.686     77.77699     156.0517     312.0724      1.538     4.82     855.4167     55.04068     109.9632         8     1.033     0.638 -80.86   0
       124    650.8982    857.0163 307.6463901  +6.3398375      3793.99      5241.74     5658.669     78.27397     155.9275     312.0724      1.444     2.98     856.1241     55.04068     578.5192        22     1.172     0.995  28.61   0
       125    839.4398    856.2109 307.5681305  +6.3464688     1746.155     2503.317     2563.533     77.65224     155.9896     312.0103      1.521     3.23     853.5781     55.04068     257.1163        15     0.995     0.976  -8.28   0
       126    641.1971    856.0624 307.6504502  +6.3399069     1075.243     1280.917     1257.221     77.65224     155.9896     311.9792      1.381     3.62     856.2311     55.04068     148.9523        10     0.931     0.733 -77.88   3
       127    643.7247    851.6283 307.6495493  +6.3418219     2476.675     3507.585     3832.951     78.15002     156.1759     312.2277      1.518     2.95     856.1053     55.04068     349.3179        19     1.145     0.978 -78.37   2
       128    966.5182    854.9861 307.5154047  +6.3512132     754.9034     1418.802     1310.236     77.90154     155.9275     312.0724      2.019     5.35     850.5191     55.04068     87.87695         9     1.293     0.625   9.87   0
       129    337.4462    850.4203 307.7767599  +6.3320626     1131.461     1503.525     1960.728     77.90154     156.1759     312.1035      1.622     3.98     855.4588     55.04068      192.392        12     1.189     0.829  74.63   0
       130    187.9948    852.0457 307.8387569  +6.3263749     542.3381     574.7437     715.7017     77.65224     155.9275     311.9482      1.341     2.61      854.459     55.04068     92.28925         5     0.628     0.579  89.77   0
       131    927.4310    849.8028 307.5318083  +6.3520499     3314.261     4800.095     5417.399     77.77699     155.9896     312.0414      1.573     3.10     851.8008     55.04068     439.4512        24     1.185     1.104  30.79   0
       132    385.4970    845.6298 307.7569701  +6.3356516     3123.975     4165.074     4719.037     78.39773     155.9275     312.2898      1.468     2.70     855.2951     55.04068      410.164        21     1.061     1.026 -76.34   0
       133    521.7709    835.3199 307.7007340  +6.3444736     3370.541     4523.841     4404.732     78.15002     156.1759     312.2277      1.407     2.71     855.7737     55.04068     509.2257        20     1.042     1.023  -8.21   0
       134    866.2447    834.4748 307.5577276  +6.3563368     1202.298     1656.616      1988.19     78.15002      156.238     312.2898      1.643     3.88      852.988     55.04068     169.4926        11     1.055     0.701  42.41   0
       135    568.5312    831.5628 307.6814443  +6.3475900     6889.512     9203.354      10412.1     78.15002     156.1759     312.3519      1.434     2.60     855.8373     55.04068     983.2668        29     1.147     1.087 -56.58   0
       136    586.6396    833.1172 307.6738732  +6.3475542     801.4198     960.1182     443.9029     78.27397      156.238     312.1967      1.311     3.41     855.9051     55.04068     140.8566         8     0.890     0.643 -30.20   0
       137    280.4317    831.5334 307.8010680  +6.3379465      831.946     1117.698     1150.656     78.15002     156.1759     312.1967      1.507     3.27     855.0975     55.04068     129.0129         7     0.826     0.667 -66.18   0
       138    575.4236    830.9593 307.6786027  +6.3480698     1378.391     1877.814     1848.631     77.90153     155.9896     312.0414      1.414     2.72     855.8176     55.04068     241.1703        12     0.950     0.764  13.30   0
       139    486.4349    830.3983 307.7155714  +6.3453220     1842.002     2299.976     2121.555     77.40216     155.9896     312.0724      1.270     2.57     855.3756     55.04068      277.939        13     0.937     0.801  30.40   0
       140    128.0467    829.7756 307.8643972  +6.3335539     1250.493     1934.552     2017.005     77.90154     156.1759     312.1346      1.587     2.65      852.103     55.04068     241.1487        11     0.911     0.788 -77.03   0
       141    904.4244    829.6194 307.5420364  +6.3596150     1395.969     1974.072     1246.373     78.02588     155.9896     312.1967      1.534     3.61     851.9547     55.04068     172.7466        14     0.987     0.931 -21.67   0
       142    704.3287    828.7374 307.6251525  +6.3532981      900.107     1102.103     1051.546     78.27397     156.1759     312.3209      1.322     3.30     855.1082     55.04068     136.7983         9     0.978     0.674 -39.37   0
       143    539.2178    825.3820 307.6938233  +6.3491604      22173.5     29936.59     30820.37     78.02588     155.8653     312.1967      1.418     2.56     855.5132     55.04068     3308.286        46     1.219     1.180  29.36   0
       144    380.9108    826.7559 307.7595089  +6.3432894     800.7946     1305.853     1002.352     78.27397     156.1139     312.2898      1.635     3.64     854.7498     55.04068     126.3354         5     0.793     0.497 -48.11   0
       145    952.8060    823.6061 307.5221476  +6.3637109     3873.609     6094.768     6028.068     77.65224     155.9896     312.0724      1.669     3.18      850.423     55.04068      517.159        27     1.299     1.133  68.55   0
       146    185.7362    824.6258 307.8406183  +6.3376184     546.5579      513.926     233.0936     77.90154     156.1759     312.1967      0.955     4.04     853.4756     55.04068     98.67303         7     0.990     0.472  -7.02   0
       147    425.1609    820.9080 307.7413322  +6.3471869     772.0376     1133.377     1257.383     78.39773     156.1139     312.3209      1.634     3.85     854.5756     55.04068     106.6763         8     0.839     0.659  53.49   0
       148     73.1467    821.3766 307.8874745  +6.3351754     601.1408     723.6489     856.9627     77.77699     156.1759     312.0724      1.210     4.17     851.0175     55.04068     111.6701         6     0.733     0.677 -67.99   0
       149     49.6287    816.0000 307.8974203  +6.3366039     1707.865     2514.175     2526.761     77.52731     155.9275     312.0414      1.566     3.83     851.1523     55.04068      229.397        18     1.249     0.923 -65.61   0
       150    331.8256    814.1748 307.7803128  +6.3468369      3749.43     5263.122      4989.41     77.77699     155.9896     312.1346      1.437     2.72     854.5636     55.04068     634.7589        23     1.083     1.055  28.39   0
       151    797.4717    809.9435 307.5871059  +6.3641685      61346.7     84821.17     89467.64     78.39773     156.1139     312.2277      1.482     2.67     853.2131     55.04068     8753.261        81     1.377     1.304  78.89   0
       152    594.7635    815.1863 307.6711015  +6.3552285     583.1308     951.6619     1368.497     77.77699     155.9896     312.0103      1.748     3.41     855.3669     55.04068     92.10602         5     0.968     0.348  43.12   0
       153     31.8130    812.1846 307.9049460  +6.3375795     2382.945     3271.926     3182.677     78.15002     155.8653     312.1967      1.447     2.92     851.3001     55.04068     340.1098        19     1.049     1.023  73.12   0
       154    254.5616    807.8103 307.8126079  +6.3468715     5861.805     8760.536     10892.97     77.65224     155.9896     311.9792      1.707     2.81     854.2341     55.04068     836.7274        34     1.334     1.142 -49.44   0
       155    440.8057    808.6459 307.7352483  +6.3527733     912.7874     1292.945     1219.564     77.65224     155.9275     311.9171      1.542     3.61      854.257     55.04068      133.522         9     0.909     0.684 -75.73   0
       156    922.7236    805.2293 307.5352535  +6.3702944     9249.435     13517.18     14048.37     78.15002      156.238     312.2898      1.563     2.95     850.9003     55.04068     1351.277        35     1.278     1.192  47.52   0
       157    725.7014    804.5726 307.6170876  +6.3639883     24175.55     33734.95     36034.32     78.39773     155.9275     312.2277      1.521     2.58     854.2839     55.04068     3545.669        54     1.340     1.253  88.46   3
       158    719.3896    801.0403 307.6198269  +6.3652357     98594.84     135287.4     142040.2     77.65224     155.9896     312.0103      1.442     2.59     854.2892     55.04068     14759.01        85     1.343     1.279 -78.81   3
       159    364.2615    801.8957 307.7672579  +6.3529940     23194.36     31859.49     33236.41     78.02588      156.238     312.3209      1.450     2.62     854.0657     55.04068     3555.568        53     1.267     1.242  81.19   0
       160    413.6077    801.9570 307.7467663  +6.3546231     1651.423     2193.851     1472.701     77.77699     155.9896     311.9792      1.309     2.96     853.9575     55.04068      254.418        12     0.926     0.849  83.32   0
       161    223.7603    803.3036 307.8255486  +6.3476977      488.373     664.7351      1069.59     78.27397     156.0517     312.4139      1.429     4.44     853.6304     55.04068     97.27588         5     0.786     0.714 -29.68   0
       162    426.0926    799.7327 307.7416570  +6.3559598     25169.31     34001.34     34830.42     78.15002     156.3621     312.2898      1.409     2.59      853.894     55.04068     3949.824        45     1.198     1.172 -86.52   0
       163    254.1708    786.2299 307.8134967  +6.3557671     766462.7      1662614      1847602     77.77699     155.9275     312.0103      2.201     3.24     853.2562     55.04068     64031.89       578     2.335     2.176  83.55   4
       164    919.6036    796.6057 307.5368375  +6.3737505     7230.009     10176.46      10793.8     77.65224     155.8653     312.1035      1.510     2.82     850.8503     55.04068     956.8983        30     1.233     1.093  57.58   0
       165    892.4253    797.7126 307.5480863  +6.3723870     672.1839     798.7332     505.1623     78.39773     155.9896     312.1346      1.455     4.08     851.8412     55.04068     111.9657         6     1.061     0.538  63.24   0
       166    660.1352    795.6534 307.6446122  +6.3654788     7324.777     9938.975     10295.64     78.27397     156.1139     312.2277      1.406     2.55     854.7607     55.04068     1143.475        31     1.138     1.123  36.34   0
       167    149.9565    796.2798 307.8564292  +6.3481179      578.986     741.3369     874.4692     78.27397     156.1759     312.2277      1.251     4.18     851.4671     55.04068     83.32281         6     0.896     0.557  88.58   0
       168    448.9434    793.7428 307.7323701  +6.3591984     2021.292     2796.823     2816.662     78.39773      156.238     312.2898      1.460     3.21     853.7103     55.04068     296.0989        18     1.062     1.022  51.28   0
       169    400.3069    795.5186 307.7525055  +6.3568352     599.8674     879.5627      925.002     78.02588      156.486     312.3209      1.288     2.90     853.7003     55.04068     118.0521         5     0.714     0.448 -23.37   0
       170    174.1079    793.0117 307.8465115  +6.3502785     738.2042     1094.991     915.9338     78.02588     155.8653     312.0414      1.435     3.64     851.9762     55.04068     112.8367         5     1.000     0.381  32.01   0
       171    748.0732    790.4022 307.6082727  +6.3705858     617.8466     1031.343     1285.018     77.77699     155.7408     312.1346      1.777     5.74     853.5518     55.04068     89.60999         7     1.180     0.785 -27.16   0
       172    888.2175    787.4802 307.5501759  +6.3764709     877.3378     1136.289     525.8009     77.90154     155.8653     312.1656      1.449     3.66      851.671     55.04068     116.4598         9     0.914     0.727  18.33   0
       173    695.3047    785.8121 307.6303383  +6.3707174     2673.269     3677.583     4120.211     78.02588     155.9275     312.0414      1.413     2.75      854.071     55.04068     378.3488        20     1.160     0.934 -62.34   0
       174    613.4928    787.8796 307.6642406  +6.3671280     1072.996     1150.344     1109.805     78.02588     156.3621     312.3209      1.116     2.86     854.3987     55.04068     160.9088         8     0.778     0.695  -5.79   0
       175    164.4819    786.6967 307.8507211  +6.3525620     1046.711     1220.443     1644.258     78.15002     156.5479     312.3209      1.299     3.93     851.4999     55.04068     148.0677        10     0.969     0.825  15.67   0
       176    139.3582    786.2940 307.8611662  +6.3518840     1212.375     1630.752     1652.668     78.39773     156.1139     312.3829      1.526     4.86     850.8381     55.04068     149.2524        14     1.250     0.830  44.99   0
       177    429.0467    782.4076 307.7410127  +6.3632110     60389.79     82507.05     85676.38     77.77699     155.9896      311.886      1.439     2.61      853.075     55.04068      8998.27        70     1.289     1.266 -47.37   0
       178    971.9269    784.1917 307.5155252  +6.3806201     833.8279     1217.458     1097.073     77.90153     155.7408     312.1035      1.523     5.11       849.41     55.04068     98.22162        10     0.982     0.752 -85.54   0
       179    546.8084    781.4457 307.6921464  +6.3675526     7804.486     10381.18      10646.5     77.77699     156.0517     311.9171      1.398     2.56     853.9204     55.04068     1172.154        28     1.129     1.044  70.80   0
       180     81.3373    783.5488 307.8853494  +6.3510666     673.1799     874.6221     1463.393     78.27397     156.1139     312.2277      1.528     4.71      849.979     55.04068     83.39636         7     0.893     0.703 -12.46   0
       181    463.5567    780.0635 307.7267618  +6.3653351      5051.65     6824.036     7765.907     78.27397     156.1139     312.2898      1.449     2.62     853.2724     55.04068     806.2689        25     1.157     1.010  64.86   0
       182    792.0530    778.0528 307.5904238  +6.3771531      12893.6     17854.18     18810.18     78.52129     156.0517     312.3209      1.443     2.72     852.5775     55.04068     1978.622        38     1.229     1.165  82.51   0
       183    963.3712    798.4567 307.5186012  +6.3744457     2077.483     2984.871     2246.359     77.90154      156.238     312.1656      1.562     3.10     849.7022     55.04068     332.2948        19     1.196     0.997 -86.23   0
       184    813.7790    772.4482 307.5815897  +6.3801923     1385.808      2079.62     2030.813     77.90154     156.1759     312.0724      1.531     3.25     852.2199     55.04068      202.563        13     1.044     0.818 -67.54   0
       185    460.3644    773.3604 307.7283126  +6.3679954     2786.274     3729.655     4062.628     78.02588     156.0518     312.0724      1.426     2.69     852.9806     55.04068     425.0802        17     1.013     0.951  66.11   0
       186     21.5130    774.1152 307.9105070  +6.3529484     1213.256     1646.345     1919.741     78.02588     156.3621     312.3209      1.431     2.91      850.546     55.04068     185.9883        10     0.941     0.669 -32.46   0
       187    157.8381    770.4108 307.8540284  +6.3590618     3447.327     4952.694     5480.693     77.65224     155.9896     311.9792      1.547     2.96     850.6934     55.04068     511.7727        26     1.246     1.068 -39.66   0
       188    149.7276    770.0162 307.8574093  +6.3589522     12756.29     17913.25     19185.02     77.77699     156.1139     312.1656      1.468     2.71     850.5568     55.04068     1975.911        41     1.230     1.203  42.90   2
       189    141.8877    767.5018 307.8607493  +6.3597267     3334.699     4731.547     5060.147     78.27397     156.6098     312.2898      1.552     2.78     850.3585     55.04068     468.0123        20     1.117     1.022 -22.24   3
       190    937.6097    766.6196 307.5303632  +6.3867303      6861.39     9755.114      10236.1     77.90154     155.8653     312.1346      1.512     2.83     849.9437     55.04068     867.2963        33     1.291     1.112  49.68   0
       191    986.8735    766.3092 307.5099162  +6.3885009     1431.069     2173.771     2810.662     78.27397      156.424     312.2898      1.631     3.40     849.0568     55.04068     177.6862        14     1.043     0.884  24.51   0
       192    692.9375    764.2346 307.6320446  +6.3795461     1841.807     2493.703     2612.747     78.15002      156.238     312.2277      1.464     3.13     853.2231     55.04068     282.5742        17     1.066     0.974 -25.89   0
       193    579.8453    763.4965 307.6790306  +6.3760683     2600.591     3374.302     3721.265     78.27397     156.0517     312.4139      1.402     2.66       853.22     55.04068     399.5659        19     1.041     0.984  -6.81   0
       194    427.6785    762.4254 307.7422524  +6.3714143       1170.1     1855.716      1885.97     78.02588     156.1139     312.2277      1.668     4.81     852.1432     55.04068     246.3824        14     1.486     0.796  72.67   0
       195    142.1087    761.0021 307.8608766  +6.3624173      2207.42     3388.952     3529.715     77.52731     155.8653     312.0414      1.586     3.14     850.1424     55.04068     339.3588        20     1.107     1.040 -63.19   0
       196    961.2664    758.1368 307.5208231  +6.3910211     3269.226      4829.25     5311.782     78.27397     156.1759     312.2588      1.575     3.02     849.4629     55.04068     484.9053        27     1.208     1.154   4.36   0
       197    931.7879    758.7076 307.5330454  +6.3898026     3387.517     4954.981     5645.994     78.02588     155.9275     312.0724      1.605     3.08     849.9418     55.04068     470.9959        22     1.160     1.035  57.60   0
       198    991.9146    757.8425 307.5081059  +6.3921642     1900.081     2561.431     2676.181     78.27397     156.0517     312.2588      1.423     3.01     848.9658     55.04068      270.768        15     1.033     0.879  36.73   0
       199    443.9024    758.9129 307.7356337  +6.3734081     461.8609     653.6008     80.28889     78.27397     156.6098     312.2898      1.190     3.90     852.2339     55.04068     84.97308         5     1.293     0.337 -27.12   0
       200    683.9570    757.6907 307.6359931  +6.3819474      1628.37     2192.261     2215.844     78.27397     156.1759     312.3519      1.429     3.21     853.0034     55.04068     277.7166        11     0.991     0.734  72.71   0
       201    831.0443    756.0840 307.5749681  +6.3875244     1104.755     1385.081     1032.759     78.27397     156.1759     312.2898      1.342     3.52     851.6506     55.04068     159.0892        10     0.913     0.769 -67.25   0
       202    906.8653    753.6187 307.5435650  +6.3910722     784.4405     1132.837     1149.419     77.90154     156.1759     312.1656      1.559     3.93      850.361     55.04068     127.2446         7     0.885     0.610  71.63   0
       203    256.4503    753.0145 307.8136684  +6.3695556     2155.724     3204.238     4087.729     77.65224     156.1759     312.0103      1.645     3.25     851.5562     55.04068     343.2983        19     1.299     0.948 -33.02   0
       204    774.9662    752.8525 307.5983632  +6.3869859     423.0554      510.791     284.5805     78.15002     156.1759     312.1967      1.388     5.13     852.2644     55.04068     73.00732         6     0.907     0.819 -80.35   0
       205    949.8330    748.5046 307.5258930  +6.3946164     1024.976     1518.254     1104.724     78.39773     156.0517     312.3519      1.395     3.54     849.5518     55.04068     166.0623        10     1.040     0.666  81.76   0
       206    693.8140    749.8465 307.6321629  +6.3855153     754.2242     1112.445     1188.772     77.65224     155.9896     312.0414      1.797     3.77     852.6707     55.04068     132.7832         7     1.052     0.614 -58.13   1
       207    276.7945    748.4339 307.8053751  +6.3721295     834.8479     1048.249     782.0576     77.52731     155.9896     312.0414      1.388     4.37     851.8132     55.04068     114.0278         8     0.834     0.777 -42.50   0
       208    923.4771    747.1622 307.5368827  +6.3942918     1204.933     1609.544     1658.846     78.15002      156.238     312.2588      1.527     3.25     849.9237     55.04068     188.4777        11     0.972     0.779  33.90   0
       209    172.3359    748.1489 307.8487588  +6.3687391     801.8328     1017.766     699.5814     78.27397     156.1139     312.2898      1.258     3.60     849.9654     55.04068     154.5476         7     0.941     0.543  35.21   0
       210    976.1074    745.9472 307.5150676  +6.3965482     2560.918     3647.315      3969.62     78.15002     156.0517      312.476      1.474     3.10     849.1763     55.04068     359.5705        20     1.114     1.017 -69.05   0
       211    695.6298    744.9297 307.6315737  +6.3876058     1240.807     1660.077     1408.416     78.15002     156.1759     312.1967      1.387     3.20     852.4789     55.04068     194.8363        11     0.953     0.797   7.79   0
       212    416.6692    740.6663 307.7475553  +6.3800280     704.1808     729.4632     734.7822     78.27397      156.238     312.2588      1.293     3.56     850.9581     55.04068     116.2681         5     0.954     0.603  30.64   0
       213   1017.8439    739.2819 307.4979585  +6.4006908     1708.334      2428.14     2190.206     78.27397     156.1759     305.7964      1.479     3.19     848.6562     55.04068     249.5631        18     1.054     1.034  87.45  16
       214    644.2501    738.9539 307.6531098  +6.3883548     848.3835     962.0549     868.4323     78.27397     156.0517     312.2898      1.186     3.68     852.1649     55.04068     151.0308        10     1.050     0.723 -47.32   0
       215    486.7413    740.1628 307.7184751  +6.3825838     596.4542     762.4537     979.8386     78.27397      156.238     312.2898      1.210     4.13     852.1802     55.04068     99.26886         6     0.763     0.638   5.56   0
       216    819.4109    738.0069 307.5804042  +6.3945988     1174.384     1428.815     1415.121     77.90154     155.9896     312.1656      1.288     2.66     851.3306     55.04068     193.2134         9     0.874     0.645 -24.00   0
       217    905.5226    734.9648 307.5447466  +6.3987285      1495.12     2351.507     2580.461     78.15002      156.238     312.2898      1.726     3.70     849.9426     55.04068     210.7346        18     1.210     0.976  57.53   0
       218    879.8276    730.4038 307.5555696  +6.3997541     1059.732     1324.405     1497.448     77.77699     155.9896     312.1035      1.276     2.75     850.1568     55.04068     198.0231         8     0.787     0.740  15.64   0
       219    666.0349    729.4706 307.6443816  +6.3929983     647.3887     889.6306     1093.059     78.15002     156.1139     312.2588      1.583     4.79      851.775     55.04068     98.27765         7     1.004     0.648  19.84   0
       220    862.5300    726.4564 307.5628848  +6.4008066      1654.04     2311.055     2092.658     78.39773     156.1139     312.2277      1.518     3.26     850.2717     55.04068     236.1415        16     1.093     0.932 -89.07   0
       221    125.5960    724.3373 307.8689690  +6.3769980     905.0614     1746.973     1852.366     77.65224     155.9275     312.0103      2.075     6.82     849.2168     55.04068     138.6443        16     1.702     0.767  68.99   0
       222     61.4239    725.4253 307.8955782  +6.3743909     2895.075     3750.844     4365.377     77.77699     155.9896     312.1967      1.420     2.79     849.3493     55.04068     392.7999        17     1.045     0.932 -20.71   0
       223    579.7941    720.6126 307.6804911  +6.3937702      566.863     805.1222      618.764     77.90154     155.9896     312.1346      1.494     3.96      851.496     55.04068      85.7168         6     0.914     0.665 -24.48   0
       224    674.0601    713.9692 307.6415688  +6.3996661     7129.445     9729.476     10510.36     78.02588     156.1759     312.2277      1.423     2.66     851.2286     55.04068      1170.26        30     1.177     1.059  71.84   0
       225    620.8892    713.3813 307.6636685  +6.3981306     1638.452     2421.304     2794.011     78.02588     155.9275     312.1656      1.602     2.91     851.1994     55.04068     267.4722        15     1.040     0.887  46.25   0
       226    542.7630    713.7794 307.6960979  +6.3953517     682.4131     824.7357     478.8005     77.90154     155.9275     312.0103      1.304     4.37     851.2392     55.04068     105.6896         7     0.871     0.623 -35.88   0
       227    531.8550    713.7542 307.7006284  +6.3949968     895.7088      1240.46     924.0332     78.27397     156.1759     312.2588      1.248     3.56     851.2432     55.04068     163.0959         8     1.088     0.502  29.85   0
       228    647.9348    709.6299 307.6525632  +6.4005839     2525.044       3632.1     4501.367     78.02587     156.1759     312.1967      1.568     2.98     851.0845     55.04068     362.4758        18     1.106     0.925 -39.71   0
       229    137.0894    709.7753 307.8646874  +6.3833957     4291.873     5821.647     6161.056     78.39773     155.9896     312.1035      1.413     2.60     849.0179     55.04068      654.076        24     1.135     1.017  49.36   0
       230   1011.2817    709.3153 307.5016850  +6.4128435     2694.402     4088.319     4106.569     78.02588      156.486     312.3209      1.627     3.23     848.0024     55.04068     378.8129        20     1.158     1.012   0.94   0
       231    323.8481    709.8699 307.7871345  +6.3896285     948.9103     1237.243      1436.21     78.27397     156.1139     312.2898      1.454     3.62       850.08     55.04068     165.8896        10     1.045     0.674  -9.25   0
       232    259.4460    709.7852 307.8138800  +6.3875020     722.9912     1019.584     1492.859     77.65224     155.9896     312.0414      1.539     2.50     849.8281     55.04068     113.5255         5     0.709     0.450 -67.29   0
       233    791.0498    706.0694 307.5932512  +6.4068367      22759.8     31000.07     32781.76     78.15002     156.1139     312.2898      1.429     2.59     850.7047     55.04068     3696.486        49     1.271     1.167  64.03   0
       234    921.0706    705.7442 307.5392674  +6.4113104      3941.66     5207.643     5503.864     78.27397     156.1139     312.2277      1.416     2.78      848.835     55.04068     589.4972        23     1.110     1.016 -60.52   0
       235    490.2624    706.1691 307.7181549  +6.3967352     1511.934     2288.468     2751.995     78.02588      156.238     312.2277      1.607     3.23     850.9708     55.04068     212.3389        12     0.943     0.854 -14.37   0
       236    518.2397    705.9999 307.7065427  +6.3977421     1034.212     1367.273     1421.494     77.27681     155.8653     311.9792      1.409     3.48     850.9572     55.04068     162.7692        10     0.993     0.771 -17.38   0
       237    335.6718    705.8443 307.7823601  +6.3916871     731.2857     829.1816     746.7415     78.15002     156.1759     312.2898      1.279     3.24        849.9     55.04068     111.0292         7     0.837     0.592 -63.21   0
       238    292.4199    705.7382 307.8003240  +6.3902795      702.423     969.7281     748.3025     77.90154     156.1759     312.1656      1.224     4.04     850.1028     55.04068     102.8521         7     0.950     0.491  86.31   0
       239    562.4255    704.8943 307.6882311  +6.3996779     529.4944     752.9411     163.7126     78.39773     155.9275     312.1035      1.433     4.19     850.9074     55.04068     84.39374         5     0.919     0.544  44.08   0
       240    264.5194    699.7158 307.8121122  +6.3918292     6837.685     9417.327     9710.859     78.15002      156.486     312.3209      1.455     2.63     849.5423     55.04068     999.4822        30     1.176     1.087  24.99   0
       241    671.5480    698.8505 307.6431189  +6.4058236     8079.958     11094.86     12178.99     78.39773     156.0517     312.2898      1.470     2.58     850.6789     55.04068       1231.5        34     1.179     1.147  57.21   0
       242    654.0154    700.0571 307.6503592  +6.4047392     1064.316     1394.603     1988.344     77.65224     156.1139     312.0103      1.371     2.78     850.7177     55.04068     194.6201         8     0.906     0.594 -59.19   0
       243    421.4017    700.8914 307.7469271  +6.3966066     7148.041     8261.986     7983.791     77.52731     155.8653     312.0103      0.821     4.00     850.2532     55.04068     3956.198        10     0.999     0.458   7.91   0
       244    366.6041    698.4462 307.7697643  +6.3957787     806.7575     852.6324     526.1617     77.65224     155.9275     311.9482      1.240     4.98     849.7888     55.04068     139.4868         7     1.040     0.674  44.00   0
       245    931.4650    691.3933 307.5354307  +6.4175816     1411.156     1897.707     1846.589     77.77699     155.9275     312.0724      1.375     2.88     848.2518     55.04068     204.4639        14     1.045     0.833  76.84   0
       246    743.1976    687.0850 307.6137590  +6.4130756     3904.735     6028.021     6502.391     77.65224     155.8031     311.9792      1.617     3.13     850.2449     55.04068     556.8915        30     1.376     1.108  73.89   0
       247    698.5675    687.5581 307.6322770  +6.4113887     1250.867     1547.557     1283.175     78.02588     156.1759     312.1035      1.318     3.07      850.289     55.04068     168.8808        11     0.921     0.781  76.74   0
       248   1009.6189    683.8684 307.5032259  +6.4232935     9510.399     13822.74     14223.51     77.90154     156.0517     312.2277      1.521     2.79     847.3467     55.04068     1360.469        37     1.268     1.192  67.68   0
       249    947.9763    684.5252 307.5288035  +6.4209676     2583.286     3276.122     2586.831     77.90154     155.9896     312.1967      1.176     3.04     847.9197     55.04068     388.7461        23     1.171     1.120  46.18   0
       250      9.1320    685.8702 307.9186259  +6.3889601     693.9742     1086.187     871.4498     78.27397        156.3     312.2277      1.609     2.91     849.0283     55.04068     118.4822         6     0.740     0.566 -50.46   0
       251     29.0630    683.6827 307.9104237  +6.3905338     2221.829     3227.302      4131.24     78.39773     156.1759     312.2277      1.694     3.70     848.9225     55.04068     346.6382        21     1.289     1.022  21.40   2
       252    998.3289    684.1843 307.5079040  +6.4227869     643.3261     912.6628      876.702     77.77699     156.1139     312.1346      1.563     4.42     847.4519     55.04068     92.68518         7     0.871     0.639  14.48   0
       253    562.7465    681.9717 307.6888673  +6.4091517     559.9662     867.3378     420.6547     78.02588        156.3     312.1656      1.527     3.56     850.0613     55.04068     103.6296         5     1.004     0.525 -51.76   0
       254    446.1301    681.8681 307.7372978  +6.4052887     654.0771      1102.22     1529.146     78.27397        156.3     312.2277      1.633     3.98     850.0144     55.04068     95.56152         6     0.785     0.578 -51.31   0
       255    548.2070    679.6909 307.6949817  +6.4096065     2364.127     3308.514     3951.695     77.90154     155.8653     312.0414      1.483     2.72     849.9878     55.04068     351.3041        16     1.018     0.874 -80.12   0
       256     86.9121    678.6744 307.8865716  +6.3945474     28607.28     39397.55     40913.63     78.27397      156.486     312.3519      1.457     2.67     848.6188     55.04068     4418.835        54     1.275     1.228 -42.93   0
       257    286.1176    679.6718 307.8038183  +6.4008287     551.9841     841.2764     1275.139     78.52129      156.486     312.2898      1.588     4.33     848.8648     55.04068     96.10303         6     0.942     0.603  68.36   0
       258    517.2075    676.7744 307.7079528  +6.4097726     1494.139     1982.319      2024.86     77.77699     156.0517     312.1035      1.417     3.24     849.9036     55.04068     233.8593        14     1.070     0.858   7.94   0
       259    938.1160    675.8494 307.5331885  +6.4242205     1142.033       1481.5     1623.263     78.27397     156.1759     312.3519      1.355     2.74     847.7373     55.04068      188.041        10     0.874     0.748  -0.82   0
       260    557.2205    673.6149 307.6914427  +6.4124167     1110.503     1485.902     1661.118     78.02588     155.9275     312.1656      1.525     3.05     849.7671     55.04068     153.8691        12     0.960     0.842 -60.56   0
       261    732.8929    670.9617 307.6185787  +6.4193875     3958.875     5358.967     6252.664     78.39773     156.1139     312.3209      1.433     2.82     849.6551     55.04068     644.1631        23     1.118     1.012  75.49   0
       262    754.9777    669.0922 307.6094699  +6.4208972     4565.562     6114.202     6079.667     78.27397     155.9896     312.1035      1.396     2.69     849.6024     55.04068     729.6428        22     1.077     1.030  58.37   0
       263    422.5455    667.7422 307.7475665  +6.4103297     1514.166      1952.08      1874.87     78.39773      156.238     312.2898      1.366     2.99      849.628     55.04068     225.9571        14     1.024     0.871  78.22   0
       264    586.4153    667.0402 307.6795395  +6.4161080     3734.791     5073.794      5488.91     77.77699     155.9896     312.0414      1.427     2.81     849.5467     55.04068     541.3363        21     1.130     0.966  86.99   0
       265    330.6337    666.2084 307.7857858  +6.4078806     1640.514     2092.627     2543.405     77.77699     155.9896     312.1035      1.303     2.58     848.7975     55.04068     281.4149        12     0.878     0.823 -46.16   0
       266    247.0007    666.5837 307.8205025  +6.4049185     2024.683     2639.651     2705.154     77.90154     155.7408     311.9792      1.416     2.80     848.2915     55.04068     325.0714        15     0.988     0.885 -23.12   0
       267    993.2664    664.1866 307.5106749  +6.4308739     8598.279      12253.5      12882.5     77.77699     155.9896     312.1656      1.502     2.78     846.9301     55.04068     1240.021        32     1.202     1.150  63.06   0
       268    713.0801    662.8843 307.6270773  +6.4220600     1251.184     1847.428     2027.911     78.15002      156.486     312.3519      1.734     3.12     849.5656     55.04068     193.7609        12     1.067     0.704 -71.20   0
       269    547.2040    664.2806 307.6959156  +6.4159348     651.3348     830.7477     508.5363     77.77699     155.7408     311.9792      1.176     2.77     849.4548     55.04068     113.7349         6     0.734     0.566  49.99   0
       270    151.6300    657.6283 307.8604073  +6.4054115     27081.19      37015.4     38068.34     77.77699     155.9275     312.0103      1.458     2.63     848.0948     55.04068     3926.431        52     1.277     1.215 -83.33   0
       271    103.8482    660.9653 307.8801362  +6.4024275     844.6927     1372.636     1268.097     78.02588     156.1759     312.1967      1.743     5.60     848.2629     55.04068     129.8024         9     1.253     0.705   1.57   0
       272    438.6778    658.4182 307.7411807  +6.4147196     3179.896      4397.54     4422.649     77.77699     155.8653     312.2277      1.521     2.72     849.2664     55.04068     458.6556        22     1.421     0.937 -58.77   0
       273    820.1289    658.2980 307.5827749  +6.4275293     1269.957      1829.15     2271.027     78.15002     156.3621     312.2588      1.504     2.91     849.0018     55.04068      218.544        10     0.968     0.681 -32.58   0
       274    656.2397    657.4579 307.6508642  +6.4223998     605.3008     736.9678     68.75047     78.27397      156.238     312.3209      1.577     4.85     849.4393     55.04068     118.1736         7     1.254     0.532 -69.35   0
       275    370.6964    653.0078 307.7695932  +6.4146739     848.3804       1401.8     893.5639     78.02588     155.8031     312.0414      1.713     5.54     848.6733     55.04068     125.0555        13     1.326     0.748 -70.64   0
       276    988.2128    647.2450 307.5133400  +6.4376996     7245.255     11296.56     11862.07     77.65224     155.9896     312.0103      1.660     3.36     846.5157     55.04068     957.2598        42     1.549     1.177  46.62   0
       277     32.9658    646.4760 307.9100587  +6.4060245     1286.238     1590.913     1621.267     78.15002     156.1759     312.2277      1.427     3.53      848.478     55.04068     211.4646        12     1.023     0.820  60.14   0
       278    581.6743    642.4345 307.6823342  +6.4261073     55278.13     73325.38     76391.26     78.15002     156.1759     312.2277      1.423     2.53     848.7816     55.04068     8107.691        68     1.280     1.221 -84.19   0
       279    224.9918    643.9465 307.8304043  +6.4135244     766.9767     1017.388     1443.734     77.77699     156.0517     311.9792      1.628     4.90     847.2141     55.04068     116.5453        10     1.041     0.850 -87.75   0
       280    540.8515    642.7174 307.6992777  +6.4246239     809.5534     999.3041     1503.982     78.27397     156.1759     312.3209      1.206     2.76     848.7979     55.04068     150.3809         8     0.863     0.620  -4.67   0
       281    806.6664    642.0836 307.5889088  +6.4337737     707.6801     1031.941       882.35     78.52129      156.424     312.3209      1.483     4.28     848.8402     55.04068      112.411         6     0.788     0.662  41.64   0
       282    189.1240    639.0277 307.8454645  +6.4143500     3163.514      4451.45     4734.373     78.15002     156.1759     312.2277      1.441     2.74     847.3058     55.04068     468.1881        23     1.242     1.030  76.99   0
       283    511.7686    639.0907 307.7114771  +6.4251473     698.3994     948.6304     1175.176     78.39773     155.9896     312.2588      1.472     4.85     848.5521     55.04068     121.4432         8     1.153     0.577 -69.72   0
       284    992.6945    638.5729 307.5117686  +6.4414292     804.0292     1018.692     1163.598     78.39773     155.9275     312.1035      1.408     3.75     846.1971     55.04068     104.7473         9     0.982     0.664 -30.98   0
       285    822.9401    634.6972 307.5823977  +6.4373664     10615.93     10768.48      11110.1     78.02588     156.1759     312.3519      0.659     0.95     848.5077     55.04068     5559.504        10     0.537     0.484  36.61   0
       286     82.1076    633.2418 307.8900990  +6.4131410     1518.761     2396.993     2665.601     78.27397     156.1139     312.3519      1.686     3.50     847.9042     55.04068     237.3722        16     1.095     0.991   1.27   0
       287    478.9310    626.2383 307.7255458  +6.4293531     71810.48     96867.77     101099.6     78.15002     156.1759     312.3829      1.434     2.60     847.9101     55.04068      11281.6        73     1.280     1.259  74.37   0
       288     21.9008    628.1030 307.9152735  +6.4132367     1692.865     2591.877     2925.817     78.27397     156.6717     312.1035      1.790     6.25     848.3925     55.04068      262.383        17     1.636     0.954 -17.87   0
       289    664.5742    623.1188 307.6485547  +6.4368547     894.3813     1059.922     1276.126     78.15002     155.9896     312.2588      1.400     4.79     848.9399     55.04068     152.4875         9     1.037     0.682  53.04   0
       290    153.3985    621.2779 307.8608982  +6.4204769      1686.05     2212.643     2308.392     77.65224     155.6163     312.0724      1.387     2.90     847.1063     55.04068     255.9601        16     1.024     0.940  72.50   0
       291    948.9855    618.8318 307.5305813  +6.4481218     625.5782     691.7086      760.462     77.90154     155.9275     312.1967      1.250     3.36     846.7559     55.04068     101.3333         6     0.879     0.485  33.97   0
       292    625.1364    618.0466 307.6651032  +6.4376296     1145.492     1601.577     1311.825     78.15002     156.1139     312.2898      1.394     3.08     848.2796     55.04068     218.7754         9     0.996     0.643 -66.18   0
       293    432.7900    618.8985 307.7449541  +6.4308369     1014.624     1630.043      1471.62     78.02588     155.8031     312.0724      1.619     4.38     847.9338     55.04068     167.0818         9     1.057     0.674 -14.76   0
       294    324.3556    615.6351 307.7900947  +6.4285476     2362.355     3372.549     3606.328     78.02588     156.1139     312.1346      1.470     2.73     847.4036     55.04068     335.4691        18     1.079     0.918 -70.22   0
       295     32.0430    615.4680 307.9114884  +6.4187938     583.3052     774.6364     853.2815     78.27397     156.1139     312.3209      1.255     3.61     848.1619     55.04068      107.535         6     0.919     0.531 -71.58   0
       296    476.3697    614.1703 307.7270150  +6.4342492     965.9375     1320.374     2044.616     77.77699     155.9275     312.0103      1.402     3.24     847.4507     55.04068     180.9495        11     1.099     0.626 -39.35   0
       297    750.8973    609.8196 307.6131506  +6.4452305     6078.443     8220.654     8358.787     78.15002     155.9896     312.0103      1.392     2.45     848.7142     55.04068     1055.616        27     1.108     1.059 -46.06   0
       298    804.5200    605.0202 307.5910415  +6.4490030     15506.88     20904.82     21884.14     78.02588     155.8653     312.2588      1.427     2.57     848.0779     55.04068     2462.606        42     1.218     1.151  76.64   0
       299   1021.7742    605.5146 307.5007964  +6.4560459     1068.807     1308.193     901.8101     78.39773     147.8209     263.7178      1.315     3.71     844.4379     55.04068     167.9153        10     0.942     0.818 -68.17  16
       300    546.7825    605.0268 307.6980803  +6.4403822      1431.51     2203.144      2786.04     77.90154     155.9896     312.1656      1.688     3.84     847.7119     55.04068     220.2852        15     1.150     0.902  60.28   0
       301    628.5317    603.0352 307.6641968  +6.4439403     3198.313     4194.898     4372.613     78.15002      156.238     312.3519      1.381     2.76     847.9924     55.04068     474.4457        18     1.054     0.938 -34.98   0
       302     49.9644    604.0995 307.9044300  +6.4240899     624.2917     724.5101     731.9887     78.27397     156.0517     312.4139      1.292     4.94     847.8217     55.04068     92.90051         8     1.025     0.675  27.78   0
       303    945.6348    599.1091 307.5326325  +6.4561523     1201.986     1869.641     2588.906     78.39773     156.0517     312.2588      1.818     3.44      846.438     55.04068     181.6195        12     1.011     0.802  29.76   0
       304    204.4866    597.4963 307.8404843  +6.4320110     729.4302     1139.458     1572.412     78.27397     156.5479     312.2898      1.921     4.73     845.9476     55.04068     100.6547         9     1.066     0.710 -23.33   0
       305    386.9997    596.7230 307.7647159  +6.4384563     1081.059     1262.767     634.7256     77.52731      155.554     311.9792      1.249     2.68     846.9919     55.04068     191.9634        10     0.835     0.764 -62.26   0
       306    371.3183    597.1591 307.7712135  +6.4377503     551.1652     813.9076     552.7211     78.27397     156.1759     312.1967      1.338     3.39     846.7965     55.04068      97.1087         5     0.775     0.430  73.91   0
       307    240.8473    596.7087 307.8254111  +6.4335574     1460.522     2145.583     2166.869     78.27397     156.1139     312.3829      1.529     2.95     846.0782     55.04068      242.626        11     0.983     0.737  44.35   0
       308    880.6197    588.2831 307.5599966  +6.4584529     3090.436     4184.644      4290.46     77.90154     155.8653     312.1967      1.413     2.61     847.0169     55.04068     518.2135        18     1.041     0.930  79.19   0
       309    175.7377    588.2612 307.8527343  +6.4348574      786.524     986.0844     1584.049     78.27397     156.1759     312.2898      1.319     4.68      846.178     55.04068     110.6766         8     0.926     0.674 -68.95   0
       310    839.4401    585.6271 307.5771881  +6.4581751     2789.302     3984.274     4405.556     77.90154     155.9896     312.1035      1.517     2.81     847.4441     55.04068     422.3954        19     1.153     0.931 -67.45   0
       311    819.9111    576.8998 307.5855911  +6.4611260     178351.9     239847.2     251366.8     78.27397     156.6098     312.2277      1.427     2.55     847.5585     55.04068     29814.21       129     1.419     1.330  85.74   0
       312    810.1495    581.5840 307.5894884  +6.4588662     2855.244     4068.042     4479.455     77.77699      156.238     311.9792      1.521     2.75       847.77     55.04068     446.4075        16     1.025     0.969  69.26   0
       313    752.9429    582.0867 307.6132303  +6.4567479     717.5585      1020.11     1251.557     78.27397     156.1759     312.3829      1.285     3.18      848.036     55.04068     109.3052         7     0.859     0.545 -44.79   0
       314    267.3127    580.7139 307.8149591  +6.4410491      8699.17     11707.99     11916.46     78.02588     156.3621     312.3519      1.419     2.70      846.351     55.04068     1198.212        31     1.130     1.107  57.89   0
       315    201.5000    575.2125 307.8424754  +6.4411097     66594.77     91364.01     96682.58     78.02588     155.9275     312.0414      1.477     2.66     845.7969     55.04068     9726.476        83     1.397     1.292 -54.42   0
       316    749.8337    577.3356 307.6146809  +6.4586054     654.5953     1086.099     1008.883     78.15002     156.1759     312.2277      1.303     3.41     847.9216     55.04068     109.3233         5     0.769     0.438 -16.16   0
       317    125.4670    571.3998 307.8741790  +6.4401282     6787.083     9353.571      9797.16     77.52731     155.6786     311.9792      1.471     2.76     846.3903     55.04068     928.0383        27     1.162     1.080  25.20   0
       318    991.1258    568.6990 307.5147560  +6.4702234     1561.426       2035.7     2117.088     77.77699        156.3     312.2277      1.368     3.64     844.7248     55.04068     216.7165        13     1.115     0.781 -89.04   0
       319   1012.0158    567.9926 307.5061034  +6.4712112     825.4525     878.5594     920.3433     77.90154     155.9275     312.1035      1.351     5.06     844.2738     55.04068     115.2047         7     0.937     0.774  82.65   0
       320    239.9761    567.3303 307.8267624  +6.4456561     875.5433     1180.376     1695.754     77.90153     156.0517     312.1967      1.570     3.20     845.7516     55.04068     123.4942         9     0.892     0.685  68.64   0
       321    856.4266    564.2271 307.5708498  +6.4675767     4942.073     6507.735     6584.759     77.77699     155.9896     312.1035      1.369     2.56     846.6944     55.04068     764.1326        23     1.085     0.994 -88.27   0
       322    374.9026    562.2998 307.7708975  +6.4522612     19027.81     26078.42     26831.57     78.27397     156.6098     312.1035      1.454     2.63     846.0073     55.04068      2979.83        44     1.226     1.182 -72.57   0
       323    465.3586    562.2377 307.7333331  +6.4553193     865.0377      1205.99     1302.822     78.02588     156.1759     312.1346      1.380     3.13     846.7509     55.04068     133.4376         7     0.810     0.636  23.10   0
       324    176.7858    561.2443 307.8532096  +6.4460456     2081.399     3004.375     3555.742     77.65224     155.9896     312.0103      1.431     2.75     845.7932     55.04068     331.1141        15     1.000     0.883  32.54   0
       325    810.4393    557.4799 307.5901754  +6.4688269     6591.884     8818.243     9169.865     78.15002      156.238     312.2277      1.428     2.60     847.4771     55.04068     898.0037        28     1.137     1.057  40.57   0
       326    541.2742    557.2869 307.7019710  +6.4599061     7260.553     9672.428     9384.896     78.39773      156.486     312.3209      1.394     2.58     846.9873     55.04068     1057.113        31     1.138     1.104 -71.72   0
       327    252.2389    558.8572 307.8219551  +6.4495657     863.7659     969.7789     627.0065     78.27397      156.238     312.2588      1.230     3.57     845.7442     55.04068     136.0179         8     0.902     0.630  79.48   0
       328    114.2856    558.2683 307.8792652  +6.4451731     1082.159     1446.181     1220.903     78.39773      156.424     312.2898      1.389     3.28     846.2677     55.04068     153.3165        11     1.039     0.755 -75.59   0
       329    182.5599    557.8232 307.8509270  +6.4476519      627.921     886.8536     1971.521     77.90154     155.9896     312.0414      2.033     5.09     845.7297     55.04068     104.4335         8     1.059     0.693 -47.79   1
       330    399.4414    553.7330 307.7609946  +6.4566207     1568.688     2084.264     2042.012     78.27397     156.1139     312.3209      1.429     2.83     845.9669     55.04068     236.0599        12     0.910     0.826  -1.77   0
       331    188.2010    550.3981 307.8488345  +6.4509067     7452.669     10537.21     11405.78     77.65224     155.7408     311.9482      1.521     2.74     845.6213     55.04068     1059.612        32     1.185     1.168  76.81   0
       332    586.1127    550.2117 307.6835865  +6.4643279     2678.909     4043.857     3965.615     77.90154     155.9275     312.1346      1.583     3.44     846.8697     55.04068     414.8944        22     1.347     0.949 -34.85   0
       333    503.2346    551.1734 307.7179746  +6.4611559     447.6819     446.5566     494.8574     77.77699     155.9275     312.0414      1.131     4.46     846.8501     55.04068      78.0498         5     0.772     0.731  86.80   0
       334    283.4870    546.8547 307.8093821  +6.4555698     97423.99     132921.2     139115.9     78.27397     156.0517     312.4139      1.458     2.64     845.5567     55.04068     14521.97        92     1.350     1.295  85.50   0
       335     59.8806    549.0887 307.9021683  +6.4471325     5631.217     7946.923      8233.93     78.02588     156.3621     312.3519      1.448     2.71     846.9158     55.04068     925.7451        27     1.170     1.076  75.42   0
       336    869.3387    550.5662 307.5659444  +6.4736473     673.3553     1040.695     1431.969     78.02588      156.238     312.1967      1.629     3.47     846.1367     55.04068     118.5541         5     0.744     0.468 -16.35   0
       337    827.0349    550.0306 307.5835323  +6.4724563     1597.247     2165.821     2662.706     77.90154     155.9275     312.0414      1.401     2.77     847.0112     55.04068     254.9495        11     0.911     0.751  -6.78   0
       338    572.9698    544.1825 307.6892474  +6.4663770     913.5179     1182.443     1647.336     77.90154     155.9896     312.1967      1.384     2.37     846.7466     55.04068     167.9224         8     0.792     0.639  41.75   0
       339    267.3924    541.8456 307.8162349  +6.4570973     1471.793     1948.728     2075.127     77.77699     156.0517     311.9171      1.334     3.52     845.3679     55.04068     230.7566        13     1.166     0.725  55.80   0
       340    983.1624    540.5818 307.5190036  +6.4815657     1741.468     2323.549     2457.436     77.90154     156.0517     312.0103      1.403     2.69     844.3482     55.04068      280.235        14     0.933     0.880  30.12   0
       341    510.2863    537.6597 307.7155000  +6.4669709     44791.41     66480.38     70576.54     78.27397        156.3     312.3829      1.636     3.03     846.3743     55.04068     6338.228        74     1.481     1.363  12.01   0
       342    660.9597    536.1089 307.6529743  +6.4726541     938.6234     1282.018     1463.078     78.27397     156.1139     312.3209      1.430     3.88     846.6132     55.04068     127.3755         9     0.889     0.787  76.62   0
       343    732.4372    531.5018 307.6234423  +6.4769457     1451.335     2150.886     2593.566     78.27397     156.0518      312.445      1.855     3.00     846.7289     55.04068     208.8231        13     1.006     0.804  79.25   2
       344    222.7650    534.0201 307.8350321  +6.4588290     2083.621     2890.116     2990.986     77.77699     155.9896     312.0724      1.451     3.32     845.1771     55.04068     314.2845        17     1.139     0.925 -42.37   0
       345     58.0901    534.3031 307.9034108  +6.4531759      1516.25     2152.331     2295.507     78.27397     156.6098     312.2588      1.583     3.42     846.7239     55.04068     215.2137        14     1.056     0.885   1.02   0
       346    670.3741    532.6671 307.6491797  +6.4743898     3368.822     4569.629     4571.604     77.90154     156.0518     312.1656      1.449     2.78     846.5352     55.04068     497.7463        20     1.117     0.985 -42.52   0
       347    806.6525    539.3251 307.5923563  +6.4761953      18459.2     24440.22     25332.56     78.27397      156.238     312.2588      1.397     2.55      847.238     55.04068     2892.983        40     1.182     1.130  59.44   0
       348    108.6105    534.2677 307.8824315  +6.4548900     576.2212     666.9121     517.8901     77.77699     155.9896     312.1035      1.367     4.24     845.9354     55.04068     98.66943         7     0.960     0.534 -30.80   0
       349    680.3312    532.7144 307.6450427  +6.4747032     1619.914     1948.183     2296.567     78.39773      156.424     312.2898      1.270     2.63     846.5739     55.04068     261.2184        12     0.880     0.803 -74.15   0
       350     89.5005    530.1960 307.8905050  +6.4559281     715.6808     1226.007     1757.407     78.02588     155.9275     311.9171      2.046     3.86     846.1378     55.04068     111.7352         6     0.808     0.575  45.39   2
       351    408.0301    528.2820 307.7582836  +6.4674154     1940.559     2637.716     2681.341     78.15002     155.9896     312.2277      1.421     3.10      844.983     55.04068     308.5737        14     1.050     0.851 -31.26   0
       352    339.4348    526.5609 307.7868299  +6.4658251     4217.409     5685.335     5783.934     78.02588     156.0518     312.0724      1.458     2.77     844.5306     55.04068     554.3463        21     1.077     0.975  18.20   0
       353    154.5873    525.1983 307.8636435  +6.4601798     28580.23     39051.19     40528.54     77.90154     155.8653     312.0414      1.447     2.67     845.2325     55.04068     4271.161        48     1.276     1.166 -69.63   0
       354    519.4423    526.1446 307.7120842  +6.4720313      2454.58      3265.35     3743.179     78.15002     156.1139     312.2898      1.403     2.91     845.6538     55.04068     337.2716        16     0.970     0.932  66.18   0
       355    882.6743    525.4567 307.5612461  +6.4844584     1788.104     2357.839     2289.097     78.15002     156.0518     312.2277      1.370     2.61     845.5014     55.04068     292.2779        13     0.939     0.804  65.32   0
       356    119.7771    523.4330 307.8781595  +6.4597382       2998.3     3918.889     3723.994     77.77699     155.9896     312.0414      1.404     2.77     845.6428     55.04068     419.8082        19     1.130     0.903  62.40   0
       357      1.0977    523.2603 307.9274516  +6.4558163     639.9583     825.1349     866.3056     64.71436     120.4272     231.1604      1.134     2.64     847.4515     55.04068     200.3779         5     0.908     0.295 -88.02  24
       358    356.7854    521.5508 307.7797926  +6.4684755      1118.76     1308.081     1433.804     77.65224     156.1139     311.9792      1.262     2.86     844.2966     55.04068     185.6328        10     0.988     0.680  84.58   0
       359    980.2244    519.8009 307.5209187  +6.4900469     5633.828     7740.146     8208.146     77.90153     155.8653     312.0414      1.457     2.62     843.8215     55.04068     902.9491        25     1.087     1.083  54.76   0
       360     55.1127    516.8360 307.9052367  +6.4602863     387.5083     634.8827     969.1832     78.27397     156.0517     312.2588      2.433     5.40     846.5063     55.04068     84.59576         5     1.174     0.701 -11.49   0
       361    553.2870    512.3845 307.6984898  +6.4788452      1536.98     1838.326     1879.191     77.90154     155.9275     312.1656      1.276     2.95     844.8732     55.04068     235.9122        10     0.979     0.681 -85.32   0
       362     18.8467    509.5265 307.9205444  +6.4620832     27662.99     38178.24     40252.72     78.15002      156.238     312.2588      1.473     2.64     846.9213     55.04068     4089.837        55     1.298     1.237 -51.58   0
       363    451.5810    506.3267 307.7409344  +6.4779390     47793.24     64651.18     67619.62     77.90154     156.1139     312.1656      1.448     2.61     844.2657     55.04068     7159.173        66     1.297     1.253  83.82   0
       364    428.0339    509.0432 307.7506226  +6.4760283     561.7381     714.1847     968.5325     78.02588     156.1759     312.0724      1.503     4.63     844.2667     55.04068     79.23114         7     1.113     0.546 -57.68   0
       365    659.6521    506.0571 307.6545255  +6.4850166     13648.26     18496.08     19516.16     78.27397     156.1759     312.2588      1.411     2.54     845.3824     55.04068     2262.191        39     1.216     1.141  56.58   0
       366    299.5982    506.3441 307.8040549  +6.4728341     1149.556     1353.535     1094.838     77.65224     155.8653     311.9482      1.349     2.83     843.4127     55.04068     193.1531        12     0.960     0.800 -21.81   0
       367    216.7619    503.9299 307.8385390  +6.4710490     20996.88     30790.26     32457.44     78.15002     156.1759     312.3209      1.551     3.02     844.2275     55.04068     2983.928        49     1.372     1.221  36.20   0
       368    182.3696    505.1404 307.8527816  +6.4693937     1788.708      2270.64      2206.65     78.02588     156.1759     312.2277      1.328     2.96     844.5556     55.04068     270.9523        13     1.051     0.755 -43.39   0
       369    993.5557    504.2450 307.5159017  +6.4969133     1093.416     1572.801     1129.531     78.27397     156.1759     312.2277      1.465     3.12     843.0289     55.04068     202.6674        11     0.961     0.825 -83.10   0
       370    833.9290    503.8732 307.5822147  +6.4917418     1031.544     1323.207     1527.812     78.52129        156.3     312.2588      1.481     4.82     845.8319     55.04068     131.3075        13     1.107     0.945 -13.52   0
       371    922.1630    503.8375 307.5455682  +6.4947010     789.4579     876.6321     558.0086     78.02588     156.0517     312.1035      1.222     2.81     844.7427     55.04068     125.7139         8     0.825     0.630  39.41   0
       372    581.4631    502.7535 307.6871108  +6.4837643     3021.375     4016.043     4345.032     78.15002     156.0518     312.3209      1.415     2.76     844.6074     55.04068     415.6447        20     1.026     1.001  41.71   0
       373    955.3272    499.9420 307.5319239  +6.4974153     5185.312     7231.529     7102.392     78.39773     156.1759     312.2277      1.442     2.55     843.9247     55.04068     814.9524        31     1.218     1.133 -74.11   0
       374    628.4194    498.4037 307.6677543  +6.4871313      7406.31      9829.25     10335.23     77.90154     155.7408     312.0724      1.416     2.55     844.7968     55.04068     1058.214        30     1.131     1.093 -39.14   0
       375    116.0371    498.7321 307.8805457  +6.4698092     1222.543     1654.322     1627.036     78.15002     156.1759     312.3829      1.323     2.87     845.3409     55.04068     194.9558         9     0.919     0.626  57.79   0
       376    736.9042    494.3206 307.6228333  +6.4924445     484.3397     824.0753     1045.652     78.02588      156.424     312.3209      1.997     4.19     845.9321     55.04068     97.35541         5     1.055     0.475  61.49   0
       377    977.9396    492.2638 307.5227885  +6.5013390     3727.833      4925.27     5042.511     78.27397     156.1139     312.2898      1.375     2.65     843.1078     55.04068     571.2991        21     1.057     0.975  62.34   0
       378    416.3078    491.3384 307.7560881  +6.4829440     816.1693     1171.048     925.0576     78.27397      156.238     312.3519      1.515     3.91     843.3724     55.04068     124.9141         8     0.967     0.594 -64.17   0
       379    540.6364    489.6097 307.7045089  +6.4878236     8145.274     11034.29     11710.43     77.77699     155.9275     312.0414      1.421     2.47     843.4803     55.04068     1337.008        29     1.125     1.085 -71.82   0
       380    756.4633    489.5453 307.6148696  +6.4950694     534.2988     766.4399      1068.27     78.39773     156.1139     312.2277      1.588     3.74     845.8682     55.04068     84.16327         6     0.973     0.412  71.41   0
       381      1.9426    503.7641 307.9277591  +6.4638930       188389     232414.3     239405.1     74.59587     132.7565     244.6879      1.300     3.09     847.0463     55.04068     30082.96        79     1.356     1.044 -84.94  24
       382    386.6398    489.7476 307.7684635  +6.4826059     2997.831     3955.656      4217.51     78.15002     156.1759     312.2588      1.439     2.81     842.9745     55.04068     443.8483        15     0.992     0.908  18.69   0
       383    109.9546    488.9807 307.8834008  +6.4736302     685.3445     1003.653      1412.28     77.90154     156.0517     312.0724      1.421     3.64     845.3004     55.04068     115.2913         5     0.696     0.547 -89.73   0
       384   1008.4039    487.8434 307.5102829  +6.5041793     451.3551      614.078     770.9614     77.65224     155.8031     311.9482      1.331     3.52     842.1343     55.04068      82.5163         5     0.806     0.444 -71.87   0
       385    897.1592    485.5287 307.5565663  +6.5014253     3431.656     4427.715     5804.727     78.15002     156.1759     312.3209      1.373     2.51      844.725     55.04068     522.7766        18     1.030     0.930  74.62   0
       386    245.0394    484.8506 307.8274378  +6.4798751     659.2713      830.424     560.5289     78.15002     156.1759     312.2277      1.244     3.80     843.1348     55.04068      105.136         5     0.811     0.511  64.20   0
       387    549.9235    486.3262 307.7007619  +6.4894901     759.4637     940.9686     1391.164     78.52129      156.424     312.2898      1.301     3.34     843.3052     55.04068     118.4659         9     0.907     0.675  68.68   0
       388    904.6443    479.8510 307.5536473  +6.5040190     2422.759     3274.117     3588.896     78.39773     156.1139     312.2898      1.392     2.57     844.5125     55.04068     388.6042        17     1.022     0.893  44.80   0
       389    943.8699    479.2014 307.5373765  +6.5055956     1420.124      1592.06     1075.493     77.77699     155.7408     312.1035      1.291     3.09      843.748     55.04068     209.7193        11     0.946     0.760  54.87   0
       390    123.2014    479.1919 307.8782294  +6.4781166      700.232      1073.45      714.674     77.65224     155.8653     312.0414      1.448     2.88      844.894     55.04068      135.158         7     0.974     0.511 -66.63   0
       391    282.2166    477.8921 307.8122318  +6.4839961     617.7659     646.8902     847.3586     78.02588     155.9896     312.1656      1.273     3.72     842.0946     55.04068     110.4655         6     0.910     0.590  27.17   0
       392    755.4061    477.0811 307.6157264  +6.5001797     439.6938     550.3912     135.4893     77.90153     155.7408     312.0414      1.094     3.49     845.4974     55.04068     99.97308         5     0.799     0.440  70.86   0
       393    728.4062    475.8772 307.6269812  +6.4997744     3476.779     4641.903     4613.095     77.90154     155.6786     312.1035      1.379     2.58     845.2914     55.04068      543.244        20     1.055     0.957 -73.19   0
       394    439.4845    474.6370 307.7470237  +6.4906157     1294.246     1936.543     2338.226     78.27397     156.1759     312.2277      1.545     3.44     842.6501     55.04068     208.3951        13     1.097     0.798 -54.18   0
       395    399.3310    473.9961 307.7637223  +6.4895341      4053.88     5650.844     5831.059     77.65224     155.8031     312.0414      1.451     2.68     842.3846     55.04068     590.3104        26     1.236     1.037 -82.75   0
       396     90.1410    474.7533 307.8921094  +6.4788370     2060.259     2877.156     2323.208     78.27397     156.1759     312.3829      1.471     2.97     845.4014     55.04068     306.7845        17     1.150     0.853 -77.26   0
       397    627.1633    470.5481 307.6692108  +6.4985889        11215     15111.73      16376.3     78.15002     156.1759     312.2588      1.408     2.54     843.6326     55.04068     1761.933        33     1.150     1.090  88.06   0
       398    789.8152    467.1994 307.6017657  +6.5054087     18212.13     24344.46     25551.44     77.90153     155.8653     312.0414      1.395     2.51     845.1079     55.04068     2992.188        43     1.222     1.121  68.62   2
       399    793.8919    462.1708 307.6002409  +6.5076208     1545.988     2277.902     2584.855     78.39773     155.9275     312.1656      1.476     3.53     844.9132     55.04068     251.7377        14     1.094     0.859   6.71   3
       400    309.4170    467.5235 307.8012839  +6.4891895     2862.824     4021.568      3877.97     77.77699     155.9275     312.1346      1.508     2.78     841.5538     55.04068     413.7057        18     1.065     0.941 -28.56   0
       401    433.1736    466.6909 307.7499120  +6.4936845     726.7169     1201.569     1219.274     78.39773     155.9275     312.1035      1.897     3.32     842.2681     55.04068     108.2913         6     0.742     0.617  63.06   0
       402    392.5782    464.1008 307.7668598  +6.4933926     1852.475      2452.42     2903.062     78.27397     155.9275     312.0414      1.460     3.20     841.8826     55.04068     277.1261        17     1.142     0.887  89.21   0
       403    818.9116    464.4705 307.5897718  +6.5075070     1468.054     2176.442     2101.412     78.39773      156.424     312.2588      1.544     4.53     844.7999     55.04068     219.9601        16     1.279     1.023  15.62   0
       404    974.8143    462.2093 307.5250918  +6.5136424      2109.35     2895.223     3046.671     78.02588     155.9275     312.1656      1.453     3.10     842.0693     55.04068      332.396        19     1.165     1.033 -73.56   0
       405    919.5754    464.1331 307.5479715  +6.5110060     522.8768     630.0873     757.5543     77.90154     156.1139     312.1656      1.079     3.90     843.5557     55.04068      108.327         5     0.771     0.602 -20.57   0
       406    723.5743    460.9665 307.6294880  +6.5057685     634.1594     819.3608     702.9266     77.77699     155.9896     312.0724      1.474     3.88     844.6209     55.04068     123.8204         6     1.026     0.661  -9.61   0
       407    381.2057    460.1000 307.7717177  +6.4946628     774.6332     949.6813     1653.092     78.02588     155.8031     311.9792      1.226     2.29     841.6028     55.04068     136.3199         8     0.769     0.647 -46.12   0
       408    127.2135    459.0122 307.8772437  +6.4865819     4868.742     6832.542     7091.263     78.15002     155.8653     312.1967      1.468     2.70     844.3079     55.04068     792.0327        27     1.156     1.088  -4.95   0
       409    765.4551    458.1783 307.6121861  +6.5083191     2614.883     3758.008     3645.236     77.77699     156.1759     312.0724      1.508     2.65     844.7574     55.04068     400.0605        15     1.074     0.819  43.35   0
       410    285.2378    456.0407 307.8117128  +6.4931181     1729.766     2360.381     2427.385     78.02588     156.1759     312.1346      1.417     2.83     841.0832     55.04068     281.8177        14     0.976     0.879  40.45   0
       411    363.2978    453.8363 307.7793662  +6.4966479     3457.995     4815.004     5009.488     78.27397     156.0517     312.4139      1.440     2.90     841.2206     55.04068     486.0227        20     1.087     0.966 -86.15   0
       412    719.2719    451.4845 307.6315930  +6.5095391     1874.228     2362.385     2641.921     78.39773      156.486     312.2898      1.339     2.66     844.1228     55.04068     300.0443        15     0.955     0.909 -52.98   0
       413    993.2031    450.5239 307.5178445  +6.5190795     660.4681     989.3854      1060.12     77.77699     155.6786     312.1346      1.615     3.46     841.1259     55.04068     103.7098         5     0.754     0.458 -19.47   0
       414    251.1426    449.2776 307.8261013  +6.4947652     821.2055     911.6911     1207.105     78.27397     156.1139     312.2277      1.281     4.25     841.4965     55.04068     150.6816         9     1.023     0.741 -83.34   0
       415    560.5204    444.3484 307.6977703  +6.5071743      1114.51     1713.665     1839.214     78.27397     156.1759     312.2588      1.642     3.30     842.0817     55.04068     166.1261        11     1.075     0.691 -81.61   0
       416    482.8854    442.7071 307.7300709  +6.5052516     1501.783     2101.196      2157.05     78.15002     156.6098     312.3519      1.470     2.90     841.2017     55.04068     265.6457        13     1.005     0.831 -76.63   0
       417    709.5649    443.0933 307.6359062  +6.5126788     629.9297     720.4122     928.4677     78.39773     156.0517     312.3519      1.299     4.22     843.6168     55.04068     99.86548         6     0.800     0.635  47.60   0
       418    845.4863    441.5823 307.5795003  +6.5178433     1631.394     2046.961     1946.086     77.90154     155.9275     312.1967      1.327     2.53     843.6541     55.04068     276.5418        14     0.994     0.798  44.56   0
       419    830.9744    440.5948 307.5855611  +6.5177664     2242.787     2920.291     2766.044     77.77699     155.9896     312.1035      1.349     2.84     843.7676     55.04068     356.3459        14     1.022     0.816 -88.79   0
       420    728.2947    438.9190 307.6282665  +6.5150282     16911.51     22441.69     23706.06     78.02588      156.424     312.3519      1.375     2.49     843.8297     55.04068     2608.368        42     1.221     1.104  56.57   0
       421    630.7504    440.5821 307.6687266  +6.5110797     732.0806     906.7267     1073.471     77.77699      156.238     312.0724      1.254     2.97     842.4326     55.04068     111.5399         5     0.717     0.460  18.98   0
       422    649.3959    434.7509 307.6611777  +6.5141107      2816.44     4140.817     4748.512     77.65224     155.9896     311.9171      1.577     2.61     842.3246     55.04068     463.0288        20     1.092     0.978 -74.25   0
       423    722.3478    433.7328 307.6309106  +6.5169704     758.9054     1038.205     1394.269     78.15002     156.1139     312.1967      1.462     4.24     843.5052     55.04068     118.4337         7     0.861     0.672  24.15   0
       424    624.6613    431.9844 307.6715442  +6.5144253      6012.31     8128.835     8731.886     77.77699     156.1139     312.0724      1.409     2.86     842.0157     55.04068     963.7405        24     1.118     1.032 -59.66   3
       425    620.7704    429.4128 307.6732467  +6.5153567     16599.04     23040.62     24088.09     77.77699     155.9275     312.1656      1.450     2.53     841.8627     55.04068     2558.481        35     1.174     1.131 -33.58   3
       426    953.6052    428.7862 307.5350193  +6.5267334     4155.367     5572.115     6173.698     77.90154     155.9275     312.1346      1.429     2.72     841.0877     55.04068     659.4883        20     1.061     0.992  86.91   0
       427    392.6845    424.7602 307.7681390  +6.5096367     32631.72     44809.73     46656.87     78.27397     156.1139     312.1967      1.466     2.63     840.2025     55.04068     5031.548        58     1.287     1.263 -46.94   0
       428    138.7515    424.2838 307.8736229  +6.5013061     2671.812     3764.393     3482.105     78.27397     156.1759     312.2898      1.506     3.18     843.0672     55.04068     417.5901        20     1.163     0.988 -41.75   0
       429    909.1696    424.4514 307.5536217  +6.5270408     1573.222     2349.924     2782.282     78.02588        156.3     312.1967      1.632     2.87     841.8018     55.04068     230.6459        13     0.962     0.835  49.22   2
       430    604.0298    420.3549 307.6805040  +6.5185359     711.7559     852.2024     803.7524     77.90153     156.1759     312.1346      1.382     4.12     841.4061     55.04068      109.877         8     0.935     0.704  75.02   0
       431    922.3855    419.1220 307.5483105  +6.5296818     5548.429     7124.285     7202.287     77.90154     155.9275     312.1035      1.339     2.60     841.2809     55.04068     807.5468        21     1.036     0.968  57.76   0
       432     72.0065    419.5741 307.9015028  +6.5010053      1620.16      2202.95     2036.068     77.77699     156.0517     312.0724      1.450     3.17     844.5996     55.04068      245.528        18     1.173     0.909   2.90   0
       433    250.2047    415.2660 307.8276366  +6.5087742     15498.92     21550.54     22326.82     77.77699     155.8653     312.0724      1.465     2.70       840.09     55.04068     2244.726        37     1.229     1.124 -67.21   0
       434    978.7001    417.5502 307.5249713  +6.5322087      750.733     960.1129     1095.039     78.27397     156.1759     312.4139      1.172     4.04     840.0599     55.04068     148.3154         7     1.109     0.422  14.92   0
       435    745.1706    408.7813 307.6222673  +6.5280339      804.276     1143.833     1315.513     77.90154     155.9896     312.1967      1.486     5.04     842.8362     55.04068     124.5986         8     1.099     0.653  43.25   0
       436    713.2915    408.2474 307.6355268  +6.5271887     835.0167     1092.461      1316.75     78.27397     156.1139     312.3829      1.362     3.71     842.2989     55.04068     149.4674         7     1.035     0.462  63.31   0
       437     85.8002    409.0101 307.8961304  +6.5058303     789.1587     1047.728     856.6644     77.90154     155.8653     312.0724      1.347     2.93     843.9816     55.04068     130.0555         8     0.814     0.658 -52.91   0
       438   1022.5010    408.3029 307.5070865  +6.5374863     611.9024     727.0035     850.5884     78.27397     140.4907      253.101      1.183     2.87     838.9372     55.04068     113.8323         6     0.855     0.459  -2.16  24
       439    973.9514    407.5905 307.5272770  +6.5361621     1158.059     1545.696     1847.809     77.77699     155.9896     311.9482      1.565     4.95     839.9315     55.04068     145.5286        14     1.238     0.869  11.13   0
       440    363.0671    404.9281 307.7811078  +6.5168303     1442.901     1881.194     1839.327     78.27397        156.3     312.2898      1.343     2.64     839.2382     55.04068     245.5361        11     0.884     0.779 -61.93   0
       441    150.4859    403.8771 307.8694374  +6.5101248       5651.1     7784.977     7923.976     78.27397      156.486     312.3519      1.452     2.66     842.1901     55.04068     850.2222        25     1.102     1.083  10.44   0
       442    196.1012    404.9217 307.8504564  +6.5112268     792.7601     998.0595     1005.262     77.90154      156.424     312.2898      1.287     2.99     841.0562     55.04068     130.2599         8     0.802     0.667  65.49   0
       443    255.1644    402.9820 307.8259904  +6.5140118     1451.446     2108.905     2320.655     77.77699     155.9896     312.0414      1.504     2.85     839.5399     55.04068     276.0464        12     0.953     0.827  26.49   0
       444    448.0888    402.4561 307.7458768  +6.5207020     778.3466     1179.667     1238.212     78.27397     156.0517     312.3829      1.606     3.48     839.2508     55.04068     145.7663         5     0.770     0.454  19.13   0
       445    836.6641    400.5045 307.5845405  +6.5345070     860.0118     1024.511     469.4164     78.15002        156.3     312.2898      1.107     2.70       842.18     55.04068     175.8037         7     0.833     0.601  68.41   0
       446    172.5979    399.5513 307.8603993  +6.5126538     2563.041     4005.568     4129.941     77.65224     155.8031     311.8549      1.693     4.20     841.5024     55.04068     318.1951        22     1.437     0.949 -66.82   0
       447    568.2681    398.6390 307.6960873  +6.5263037     1057.787     1522.963     1439.712     78.15002     156.1759     312.3829      1.643     4.03     840.1768     55.04068     183.9079        13     1.152     0.869 -60.38   0
       448    395.8681    394.4875 307.7678351  +6.5222407     2411.065     3172.107     3420.072     78.39773      156.424     312.2898      1.447     2.87     838.7343     55.04068     339.3961        17     1.063     0.947 -26.92   0
       449    284.0206    394.8709 307.8142783  +6.5183291     924.3069     1354.799     1566.375     77.90154     156.0517     312.2277      1.521     3.63     838.4899     55.04068     156.2491        10     1.045     0.824 -78.61   0
       450     14.8006    394.8737 307.9260957  +6.5092765      800.615     1128.991     950.5673     77.52731      155.554     312.1035      1.440     4.84     844.6003     55.04068     118.6284         8     1.104     0.601  79.64   0
       451    984.8823    393.5737 307.5232052  +6.5423132     1200.709     1872.073     1725.992     78.15002     155.9275     312.2277      1.626     2.60      839.417     55.04068     218.5471        10     0.956     0.653  64.98   0
       452    329.8131    392.1008 307.7953516  +6.5210098     720.8878      1091.29     1252.254     78.02588     155.9275     312.0103      1.583     3.68     838.4323     55.04068      125.697         8     1.031     0.641  41.97   0
       453    603.0771    390.9453 307.6818871  +6.5306450     637.2347     904.3721     739.5913     78.39773     156.1759     312.2588      1.532     3.70     839.6827     55.04068     90.62152         5     1.001     0.393 -30.31   0
       454    621.1104    389.5921 307.6744420  +6.5318071     452.0399     594.1775     963.0165     77.77699     155.8653     312.0103      1.376     4.29     839.8794     55.04068     99.14563         5     0.812     0.644 -73.87   0
       455    449.8601    388.0895 307.7456242  +6.5266921     8291.102     11485.45     11533.95     78.15002        156.3     312.2898      1.440     2.71     838.6403     55.04068     1340.782        31     1.199     1.097 -61.64   0
       456     46.2059    388.7508 307.9132588  +6.5128612     3375.749      5414.17     5944.774     77.77699     155.9896     311.9171      1.705     3.26     843.8278     55.04068     584.0096        28     1.549     1.015 -50.50   0
       457    790.4744    385.4720 307.6042304  +6.5391703     14835.71     19316.51     20473.84     78.52129        156.3     312.2898      1.386     2.54     842.1131     55.04068     2058.193        36     1.148     1.141  85.91   0
       458    782.5591    386.8295 307.6074728  +6.5383455     2258.094     2832.109     2955.159     77.90154     155.9896     312.1035      1.354     2.83      842.142     55.04068      315.978        14     0.914     0.882  -8.49   0
       459    210.7179    387.5703 307.8449703  +6.5188808     480.5297       585.19     552.6292     78.15002     155.9896     312.2277      1.089     3.48     840.1892     55.04068     106.2887         5     0.727     0.481  12.54   0
       460    354.0308    383.7201 307.7855747  +6.5252822     1275.352     1734.599     1591.575     78.15002     156.1759     312.2277      1.503     3.22     838.1289     55.04068     189.4767        12     0.956     0.838  65.69   0
       461    965.2051    377.2236 307.5319258  +6.5484069     555.9832     655.8072     642.6697     77.77699     155.9275     312.1035      1.074     3.60     839.4759     55.04068     100.4141         6     0.767     0.545  55.78   0
       462    198.8663    376.3122 307.8502723  +6.5231301     776.6064     1069.706     664.7922     78.27397     156.3621     312.2588      1.597     4.70     840.1769     55.04068     121.9714        10     1.152     0.620  46.83   0
       463      4.3173    374.3691 307.9311422  +6.5173879     1064.566     2615.413     3519.403     78.27397     155.4916     277.7194      2.881     9.68     844.0045     55.04068     128.6546        26     2.074     1.259 -49.61  24
       464    405.1915    374.7995 307.7646248  +6.5306809     470.7107     877.5835      770.835     77.65224     155.8653     312.0724      2.116     3.73     837.8382     55.04068     85.40167         5     0.898     0.445 -45.26   0
       465    470.2112    372.3557 307.7377000  +6.5338695     2591.704     3534.189      3693.36     77.77699     156.0517     311.9792      1.448     2.96     838.0539     55.04068     349.7046        15     1.066     0.835 -71.35   0
       466    538.0506    373.1527 307.7094948  +6.5358132     625.6072     702.8338     621.2397     78.27397     156.0517     312.2588      1.218     4.62      838.526     55.04068     79.37482         7     0.887     0.683  55.49   0
       467    498.0166    371.6612 307.7261738  +6.5350879     3474.415     4506.463     4338.823     77.77699     156.1139     312.0724      1.355     2.54     838.2227     55.04068     529.4838        21     1.069     0.969 -62.95   0
       468    926.8565    371.4951 307.5480472  +6.5494929       833.08     1011.153     1053.407     78.15002     156.1759      312.476      1.403     2.60     840.1132     55.04068     144.7657         8     0.841     0.623  53.95   0
       469    855.8309    368.3762 307.5776550  +6.5484104     36650.75     51333.25      53781.3     77.77699     156.0517     312.0724      1.497     2.74      840.645     55.04068     5542.977        55     1.374     1.147 -86.80   0
       470    348.1444    364.3832 307.7886705  +6.5330673     1141.853     1870.276     1959.084     77.77699     156.1139     312.0103      1.723     5.25     837.0721     55.04068     167.7093        14     1.161     1.023 -52.24   0
       471     73.0149    364.6082 307.9029389  +6.5237296     820.7545      1206.17     1280.399     77.90153     155.9275     312.1035      1.586     3.60     842.3475     55.04068     124.2462         7     0.836     0.705 -70.57   0
       472    627.6827    360.7696 307.6726795  +6.5439257     3074.005     4079.888     4156.212     78.15002     155.9896     312.1967      1.384     2.87     838.5354     55.04068      473.811        17     1.040     0.955  86.48   0
       473     35.9174    361.1628 307.9184634  +6.5239034     1233.693     1639.603     1459.385     78.27397     156.1139     312.2277      1.328     2.59     842.8978     55.04068     197.6974        10     0.862     0.724 -65.47   0
       474    712.2794    354.3381 307.6377551  +6.5494102     90799.37     120164.2       125507     78.39773      156.238     312.2588      1.390     2.53     840.3213     55.04068     13749.93        85     1.309     1.272  49.73   0
       475    870.1537    355.9038 307.5721230  +6.5540375      1325.62     1828.442     1844.017     78.27397     156.1139     312.4139      1.447     4.04     839.9842     55.04068     212.3904        14     1.133     0.966  30.55   0
       476     91.6016    353.7384 307.8955858  +6.5288421      1361.86     1763.361     1785.665     77.65224     155.9896     311.9792      1.351     3.22     841.5087     55.04068     247.8968        12     1.041     0.757 -84.61   0
       477    953.9529    351.6303 307.5374561  +6.5585975     825.1999     1203.355     1216.884     77.90153     156.1759     312.1656      1.434     3.79     839.1374     55.04068      163.287         9     1.121     0.690  59.27   0
       478    402.0379    352.0947 307.7666985  +6.5399481     509.0581     795.0411      1123.65     78.39773     156.0517     312.3829      1.840     3.97     836.7217     55.04068     99.26605         5     1.301     0.347 -64.11   0
       479    574.7914    351.0384 307.6949763  +6.5461728     3160.394     4201.411     4221.485     77.52731     155.9275     311.9792      1.373     2.62     837.2447     55.04068     510.6887        21     1.029     0.985 -54.74   0
       480    111.9225    349.8885 307.8872754  +6.5311150     6964.652     9411.243     10106.26     78.27397      156.424     312.3519      1.411     2.76     841.1338     55.04068     1076.502        25     1.106     1.052 -86.32   0
       481    782.0160    348.7253 307.6089754  +6.5540579     541.0286     917.9189     1047.434     77.77699     155.9275     312.1346      1.989     2.95     840.7358     55.04068     95.40839         5     0.787     0.491  59.29   0
       482    772.8300    349.0104 307.6127816  +6.5536333     602.9764     749.9046     1464.271     77.77699     155.9896     312.1035      1.243     3.32     840.6419     55.04068     101.0531         6     0.889     0.472  54.38   0
       483    558.0054    347.2262 307.7020769  +6.5471845     8139.182     10861.36     11163.31     77.77699     155.9896     312.1035      1.399     2.60     837.0312     55.04068     1328.816        27     1.076     1.061  86.12   0
       484    286.9540    344.8704 307.8147438  +6.5390686     2946.669     4182.084     4702.925     78.27397     156.1139     312.2588      1.467     2.67     836.4859     55.04068     444.3524        19     1.037     0.943 -58.76   0
       485    420.8880    342.4372 307.7591935  +6.5445670     29198.26     39624.66     41645.91     78.27397     156.0517     312.2588      1.447     2.65     836.3823     55.04068     4362.579        51     1.248     1.197 -76.78   0
       486    599.5182    341.7430 307.6850173  +6.5508378     802.4232     774.9105     364.6998     78.39773     156.1759     312.2898      1.345     4.41     836.9208     55.04068     109.3508         8     0.837     0.787  21.56   0
       487    528.6892    341.1774 307.7144575  +6.5486998     1531.481     1947.033     1887.636     78.27397     155.9896     312.1346      1.383     3.02     836.6785     55.04068      243.218        12     0.933     0.826 -78.51   0
       488    687.5411    340.8496 307.6484835  +6.5541514     720.8307     1061.483     877.6932     78.27397     156.1759     312.3209      1.601     3.62     839.3284     55.04068      122.868         7     0.952     0.837 -75.35   0
       489    400.7453    340.5000 307.7676254  +6.5446913     1394.621     2002.536     2397.375     78.02588     156.1759     312.5381      1.508     3.05     836.2089     55.04068     191.6395        11     0.928     0.807 -49.71   0
       490    500.2017    337.7548 307.7264057  +6.5491584     1347.453     1624.222      2002.34     77.65224     155.8031      311.886      1.244     3.03     836.5143     55.04068     197.1729        11     0.892     0.798  26.03   0
       491    815.7877    334.6400 307.5954188  +6.5610007     992.9991     1497.559     1620.888     77.77699     155.9896     312.0414      1.656     4.20     839.8182     55.04068     136.3321        12     1.113     0.878  55.97   0
       492    509.9462    332.7807 307.7225252  +6.5515383     9666.095     12900.19     13573.05     77.77699     156.1759     312.0724      1.391     2.58     836.2405     55.04068      1563.04        29     1.142     1.041 -84.12   0
       493    397.9380    334.6524 307.7689882  +6.5470111     822.5763     1259.971     1637.959     78.27397     156.1139     312.2277      1.884     4.38     835.9877     55.04068     119.1562         9     1.092     0.578  60.53   0
       494    779.0834    331.4868 307.6107713  +6.5610764     3494.804     4834.241     5788.985     78.02588     156.3621     312.2898      1.508     2.55     839.6313     55.04068     549.9492        21     1.161     0.962  26.02   0
       495    934.6878    331.6039 307.5461290  +6.5662225     1019.779     1362.154      1237.78     77.77699     155.8653     311.9482      1.374     2.52     838.0702     55.04068     170.0345         8     0.897     0.543 -68.35   0
       496    726.8171    331.2516 307.6324905  +6.5594269      906.662     1052.701     545.9641     77.77699      156.238     311.9792      1.261     3.09     839.1937     55.04068       147.86         9     0.861     0.731 -89.94   0
       497    336.4865    329.4115 307.7946900  +6.5471130     1233.522     1750.355     2064.309     77.90154     155.9275     312.1035      1.540     3.55     835.7704     55.04068     180.8217        13     1.130     0.791 -11.39   0
       498    172.0917    323.3305 307.8631795  +6.5441016     1246.788     1913.992     1634.501     78.27397        156.3     312.2588      1.629     2.85     839.3415     55.04068     216.1134        12     0.963     0.809 -58.62   0
       499    272.1793    323.1728 307.8216116  +6.5475296     713.6832      1218.73     1168.282     77.77699     155.9896     312.2277      1.587     2.74     836.5215     55.04068     123.6152         6     0.760     0.535  44.76   0
       500    619.0452    321.4361 307.6775877  +6.5598745     582.5684     533.7902     192.3977     78.02588     156.1139     312.1967      1.273     4.15     836.4663     55.04068     93.93872         5     0.750     0.655  78.77   0
       501    399.8161    317.0360 307.7688008  +6.5543465     8270.538      11489.6     11919.41     77.90154     155.9896     312.0414      1.438     2.73      835.235     55.04068      1283.99        30     1.156     1.112  82.76   0
       502    255.6602    317.4885 307.8286646  +6.5493213     2365.604     3366.903     3384.385     78.15002        156.3     312.3519      1.509     3.15     836.7761     55.04068     378.3146        18     1.066     0.986 -17.29   0
       503    753.3600    317.0432 307.6219410  +6.5661796      1044.18     1488.976     1683.988     78.02587     156.1759     312.1346      1.450     3.80       838.67     55.04068     152.6172        10     0.914     0.821 -43.31   0
       504    688.8136    317.7918 307.6487285  +6.5637129     525.4689     513.3405     336.5468     77.90153     155.9275     312.1346      1.134     3.34     837.8616     55.04068     98.29608         5     0.938     0.345 -44.16   0
       505    767.7772    312.8980 307.6160910  +6.5683726     61363.66     81193.32     84318.25     78.27397     155.9275     312.1035      1.390     2.52     838.5123     55.04068        10355        68     1.258     1.202  64.64   0
       506    439.2122    312.4450 307.7525907  +6.5575628     2553.045     3630.119     3777.324     77.77699     155.9896     311.9792      1.501     2.74     835.0528     55.04068     392.3274        20     1.120     1.003 -68.08   0
       507    585.6644    310.0504 307.6918362  +6.5634576     1438.644      1954.86     1791.727     78.15002     156.1139     312.2898      1.439     5.66     835.5276     55.04068     213.8804        15     1.305     1.159   5.01   0
       508   1002.6552    309.9561 307.5186188  +6.5774257     1732.481     2386.984     2537.843     78.27397     156.1759     312.2588      1.459     3.04     834.8873     55.04068      296.145        17     1.131     0.928  33.49   0
       509    943.4996    309.1441 307.5432201  +6.5757885      2533.51     3495.253      3782.41     78.02588     156.1759      312.507      1.426     2.56        836.2     55.04068     433.1993        18     1.071     0.891  61.43   0
       510    476.1614    308.4276 307.7373775  +6.5604597     1183.261     1801.311     1425.304     77.90154     155.9896     312.1035      1.575     4.11     834.8703     55.04068     193.4755        14     1.177     0.993  28.17   0
       511    425.8941    307.8670 307.7582768  +6.5590061     2204.052     2838.751     2559.587     78.15002     156.3621     312.2588      1.351     2.70     834.8584     55.04068     342.3804        16     0.990     0.882   9.64   0
       512    305.9546    307.5239 307.8081092  +6.5551237     753.2043     997.2182     665.6431     78.15002      156.238     312.2898      1.240     2.30     835.5975     55.04068     129.8409         6     0.742     0.497  -4.60   0
       513    847.0923    302.6841 307.5834851  +6.5752384     1438.664     2119.508     2312.036     78.02588     156.5479     312.3829      1.565     3.66     837.7469     55.04068     211.7769        14     1.255     0.735  84.97   0
       514    476.0941    302.8663 307.7375924  +6.5627533     861.9536     995.3023     865.6324     78.27397     156.3621     312.2588      1.302     4.86     834.6006     55.04068     123.0124        10     0.949     0.744  80.08   0
       515    202.4079    299.3313 307.8513961  +6.5550277     2712.223     3826.997     3702.785     77.77699     155.8653     312.1656      1.515     2.91     837.5948     55.04068      368.847        19     1.160     0.966 -72.28   0
       516    979.4419    300.8189 307.5285676  +6.5804240      531.036     650.1165     1113.515     77.77699     155.9896     312.0414      1.262     2.27     834.7622     55.04068     114.2177         5     0.687     0.474 -72.65   0
       517    766.2637    297.5508 307.6172342  +6.5746578      6993.04     9259.627     9643.758     78.15002     156.1139     312.3209      1.376     2.46     837.6435     55.04068     1085.412        32     1.209     1.081  78.29   0
       518    456.5307    299.6727 307.7458263  +6.5634160     1380.976     1862.826     1736.894     78.39773        156.3     312.2588      1.412     3.11     834.4594     55.04068     223.9509        10     0.903     0.725 -13.17   0
       519    356.9358    297.2165 307.7872795  +6.5610898     765.1207     1219.372     1002.831     77.77699     156.1139     312.1346      1.521     4.22     834.4459     55.04068     111.4772         7     0.978     0.617 -88.27   0
       520    237.9149    297.4219 307.8367117  +6.5570090     823.0237     1086.481     324.2774     78.15002     155.8653     312.1967      1.324     4.29     836.5903     55.04068     139.1055         9     1.149     0.595 -52.79   0
       521    782.5907    295.3250 307.6105264  +6.5761222     3048.114     4102.686     4016.944     77.90154     155.7408     312.1035      1.434     2.78     837.4891     55.04068     466.7514        22     1.099     1.066 -43.10   0
       522     98.6385    296.5876 307.8945915  +6.5526711     1326.583     1755.164     2256.875     77.77699     155.9896     311.9792      1.495     3.38      840.025     55.04068     186.9094        13     1.003     0.859  47.53   0
       523    485.0090    294.2165 307.7341800  +6.5666229     633.7576     710.8823     401.5642     78.02588     155.9275     312.1346      1.310     3.76     834.1049     55.04068     97.09216         7     0.852     0.674 -60.48   0
       524    372.2632    290.1533 307.7811504  +6.5645199     1841.812     3588.749     4006.527     78.15002     156.0517     312.3209      2.040     6.33     834.1551     55.04068     225.6534        25     1.699     1.079  -3.23   0
       525     85.7754    290.7275 307.9001322  +6.5546575      1385.09     1885.978     1356.612     77.90154     156.0517     312.1967      1.284     2.72     839.9323     55.04068     224.4463         9     0.837     0.710 -80.42   0
       526   1020.8418    286.3857 307.5118520  +6.5877625     6395.942     8923.418     9525.874     77.65224     154.8669     275.6522      1.439     2.48     832.8016     55.04068     997.3457        28     1.138     1.092   7.12  24
       527    498.7932    286.1597 307.7287249  +6.5704108     2276.531     3024.452     2724.416     77.65224     155.8653     311.9482      1.396     3.00     833.7318     55.04068     407.1943        17     1.045     0.952 -77.03   0
       528    261.2938    281.7368 307.8275291  +6.5642693     6529.101     8948.914     9854.851     78.27397      156.238     312.3209      1.462     2.70     835.8663     55.04068     948.6055        29     1.187     1.104  18.10   0
       529    929.2573    280.9893 307.5500788  +6.5869366     612.9457     774.5179     769.9064     77.65224     156.1759     311.9792      1.376     4.98     834.8453     55.04068     81.03162         7     1.078     0.652 -29.33   0
       530    826.1094    280.4435 307.5929468  +6.5837193     582.9446     789.4734     1718.685     78.27397     156.1139     312.3519      1.735     4.71     836.7147     55.04068     99.97192         5     1.042     0.603 -71.32   0
       531    781.0444    275.2392 307.6118420  +6.5843625     971.8715     1187.999     1136.467     78.02588     156.1759     312.1656      1.229     2.64     836.6597     55.04068     214.0684         9     0.941     0.634 -16.17   0
       532    238.4431    274.5999 307.8372614  +6.5664479     704.0884     914.6295     878.2111     77.52731     155.8031     311.8549      1.433     3.50     836.1149     55.04068     117.4135         8     0.889     0.714 -47.46   0
       533    395.7192    272.6145 307.7719971  +6.5725470     1922.445     2576.075     2464.857     77.90154     155.9275     312.1035      1.443     3.19     833.6514     55.04068     312.8113        16     1.187     0.813  46.51   0
       534    982.5052    271.4845 307.5282763  +6.5926363     1255.768      1579.92     2185.638     78.15002     156.5479     312.3519      1.358     2.96     833.4187     55.04068     199.1153        12     0.885     0.881 -10.66   0
       535    202.2527    270.2635 307.8524405  +6.5670220      721.263     990.4686     1449.697     78.27397     156.1139     312.2277      1.377     3.10     836.8586     55.04068     122.2201         7     0.853     0.582 -28.23   0
       536    317.8444    268.4818 307.8044850  +6.5716400     1366.502     1762.282     1295.474     78.27397     156.1759     312.2277      1.322     3.17     834.5521     55.04068     206.6791        11     0.946     0.803 -66.06   0
       537    165.2831    268.2943 307.8678634  +6.5665922     1963.167     2685.135     2914.126     78.02588      156.486     312.3829      1.410     2.52     837.7667     55.04068     310.3697        14     0.957     0.820 -43.98   0
       538    918.8009    263.0683 307.5550225  +6.5939861     2065.984     3047.689      3302.84     77.65224     155.7408     312.0414      1.554     4.25     834.5525     55.04068     320.6979        21     1.305     1.121  21.11   0
       539    575.0796    263.9604 307.6977811  +6.5821302     2435.378     3387.284     3584.766     78.15002      156.238     312.2277      1.450     2.78     833.7635     55.04068     429.1719        17     1.139     0.888 -60.84   0
       540    738.5937    261.6037 307.6299339  +6.5885730     5960.289     7839.018     8148.033     77.65224     155.8653     312.1346      1.388     2.50     836.2255     55.04068     945.1476        24     1.134     0.975 -88.53   0
       541    679.4485    261.5291 307.6545064  +6.5866263     2520.509     3427.656     3385.084     78.27397     156.1139     312.2898      1.435     2.52     835.4042     55.04068     370.5795        18     1.111     0.945 -42.81   0
       542    976.6058    261.2650 307.5310690  +6.5966585     837.7613     1226.109     1531.925     77.77699     155.9275     312.0414      1.648     3.84      833.348     55.04068     103.8649        11     1.057     0.803  78.76   0
       543    394.1384    255.7917 307.7732199  +6.5794387     814.3084     1097.552     1183.135     77.65224     155.9896     312.0414      1.344     4.55     833.2381     55.04068     121.1116        10     1.091     0.651  19.39   0
       544    934.6235    253.4462 307.5487714  +6.5984862     1341.312     1711.125     1489.673     77.90154     156.1759     312.1346      1.353     2.89      833.965     55.04068     230.0194        12     0.977     0.800  57.90   0
       545    238.2408    246.7814 307.8382829  +6.5779249     2747.218     3850.472     4106.703     77.90154     155.9896     312.0414      1.427     2.87     835.6507     55.04068     432.8503        18     1.067     0.962 -61.88   0
       546    880.9490    245.6868 307.5713292  +6.5998986     1946.863     2512.976     3074.126     78.27397     156.0517     312.3209      1.378     2.64     834.5294     55.04068     353.0543        15     0.999     0.923  46.28   0
       547    771.2225    245.0951 307.6169327  +6.5964786     1875.385     2304.104     2304.834     78.27397     155.9896     312.1035      1.289     2.75     835.6577     55.04068     317.1352        15     1.113     0.749  74.90   0
       548    260.0935    240.7081 307.8294100  +6.5811661     679.3744     984.8561     962.9315     78.27397     156.6717     312.2588      1.465     5.21     835.0934     55.04068     111.3349         8     1.018     0.754  10.89   0
       549    472.0546    236.7476 307.7414934  +6.5899130     26059.33     35509.54     37156.64     78.52129     156.1139     312.2277      1.427     2.64      832.072     55.04068     4036.972        48     1.236     1.204 -82.68   0
       550    332.9987    238.1291 307.7992120  +6.5846787     765.5662     1214.616     1334.309     77.65224     155.7408     312.0724      1.768     5.06     833.7859     55.04068      106.505         9     0.984     0.737 -72.06   0
       551    798.1082    235.8881 307.6060722  +6.6011777     15273.99     20637.44     22167.12     78.27397     156.6098     312.3519      1.427     2.66     835.3571     55.04068      2568.24        48     1.440     1.152  -8.93   0
       552    736.8810    231.6684 307.6316493  +6.6008738      935.187     1105.787     1325.734     78.39773      156.424     312.2898      1.365     4.03     835.2235     55.04068     137.0485        10     1.064     0.673  42.42   0
       553    477.6309    231.4112 307.7393564  +6.5923028     1582.195      2128.51     2475.276     77.77699     155.9275     312.1346      1.418     2.84     831.8336     55.04068     248.4511        11     0.903     0.796  66.79   0
       554    160.2135    229.9477 307.8712625  +6.5822515      2611.53     3937.713     3891.467     77.65224     156.1139     312.0103      1.555     2.87     836.7266     55.04068     396.0562        23     1.254     1.015  43.84   0
       555    134.7361    229.1211 307.8818736  +6.5817360     1262.639      1668.68     2141.991     78.52129      156.238     312.2588      1.482     2.73     837.4525     55.04068     219.6293        10     0.883     0.736  41.30   0
       556    294.6098    237.8560 307.8151680  +6.5835027     517.9251     665.5453     315.4959     77.65224     156.1139     311.9482      1.282     4.39     834.3351     55.04068      77.8736         5     1.139     0.482  85.76   0
       557    187.5117    228.2033 307.8599818  +6.5838894     710.1888     978.0588     956.6019     77.77699     155.8653     311.9482      1.525     3.96     836.2094     55.04068     138.6585         9     1.003     0.856   8.79   0
       558    934.4969    226.4217 307.5497284  +6.6096385     1605.775     2096.322     2178.194     78.15002     155.9896     312.0724      1.406     3.06     833.2628     55.04068     250.4887        14     1.046     0.828 -69.84   0
       559    316.5367    223.5769 307.8065404  +6.5901334     1363.093     1852.305      1916.95     77.90154     156.1759     312.1656      1.564     3.57     833.7772     55.04068     214.1582        13     1.204     0.701 -53.74   0
       560    596.0716    222.4355 307.6904553  +6.5999753     5405.463     7390.697     7548.022     78.15002     156.1759     312.2588      1.440     2.65     833.1654     55.04068     842.7296        27     1.162     1.030  57.13   0
       561    558.8432    222.4499 307.7059204  +6.5987229     2477.165     3186.243     3497.594     78.39773     156.1139     312.2588      1.358     2.60     832.2638     55.04068     372.4163        13     0.915     0.842  72.17   0
       562    400.4454    221.7932 307.7717439  +6.5936854     1781.741     2345.663     2475.179     77.77699     155.9896     311.9171      1.346     2.60     832.3193     55.04068     278.1135        11     0.896     0.743 -17.76   0
       563    956.9584    219.5833 307.5406259  +6.6132108     2893.858     3937.924     3414.518     77.77699     155.9896     312.0414      1.448     2.89     832.7382     55.04068     479.7108        21     1.157     0.970  84.85   0
       564    903.1285    219.0573 307.5630067  +6.6116322     12687.48     17009.57     17716.27     78.39773     156.1759     312.2277      1.385     2.58     833.1948     55.04068     2007.528        36     1.218     1.088  67.41   0
       565    330.8231    219.2766 307.8007505  +6.5923882     1135.308     1619.606     1891.265     77.90154     156.0517     312.1967      1.540     4.26     833.6026     55.04068     153.6802        10     1.014     0.744 -39.20   0
       566    222.3978    219.3474 307.8457887  +6.5887176     832.7585     1331.647     1164.132     77.65224     155.9275     311.8549      1.669     4.57     835.5059     55.04068      113.386         9     0.938     0.777 -80.01   0
       567    989.7736    216.8913 307.5270831  +6.6154164     10798.42     14394.22     14805.06     78.39773     155.9275     312.1035      1.398     2.59     832.2278     55.04068     1772.357        34     1.152     1.096  54.54   0
       568    578.4253    218.7674 307.6979092  +6.6008988      1031.21     1181.589     834.4803     77.77699     155.9896     312.1035      1.432     3.72     832.6484     55.04068     142.9219        11     0.945     0.846  54.36   0
       569     29.2647    215.6755 307.9261392  +6.5837372     28814.49     40161.28     42297.96     78.39773     156.1759     312.2277      1.491     2.72     838.8952     55.04068     3960.095        55     1.291     1.263  78.16   0
       570    701.2173    216.7944 307.6469640  +6.6058219     3165.775     4149.524      4377.53     77.90153     155.8653     312.1035      1.356     2.67     834.7356     55.04068     494.6465        20     1.056     0.985 -76.41   0
       571    275.5147    216.7523 307.8238111  +6.5915733     1261.859     1611.218     1509.701     78.27397     156.1139     312.2588      1.380     3.24       834.39     55.04068     172.3716        14     0.994     0.918  13.32   0
       572    509.8384    211.6482 307.7266411  +6.6015406     2468.037     3244.204     3021.617     78.15002      156.238     312.1035      1.351     2.86     831.6022     55.04068     385.2526        15     0.937     0.916 -30.64   0
       573    841.5499    208.4781 307.5889434  +6.6139441     2144.459     2654.966         2652     78.27397      156.238     312.2588      1.294     2.51     833.3954     55.04068     368.7955        13     0.913     0.813  54.47   0
       574    521.7304    207.7151 307.7218331  +6.6035627     2986.281     4116.057     4183.237     78.39773      156.424     312.2898      1.480     2.70     831.5995     55.04068     463.9111        19     1.031     0.985 -78.06   0
       575    893.9944    207.4800 307.5671890  +6.6161068     2299.603     2947.611      3197.44     77.90154     155.7408     312.0414      1.368     2.66     832.7517     55.04068     370.4659        14     0.932     0.897  58.07   0
       576    753.3093    205.0226 307.6257179  +6.6124230     45767.88     60659.28     63293.64     78.27397     155.9896     312.1346      1.387     2.52     834.3589     55.04068     7098.975        62     1.263     1.203  59.86   0
       577    356.2891    204.4080 307.7906722  +6.5993808     6159.364     12225.84     13503.48     77.77699     155.8653     312.0103      2.074     5.85     833.2591     55.04068     785.2907        44     1.877     1.213 -72.91   0
       578    986.9581    203.7265 307.5286931  +6.6207573     3280.424     4531.972     4703.655     78.15002      156.238     312.2898      1.459     2.69      831.895     55.04068     532.7299        23     1.289     0.989  42.16   0
       579    921.2160    202.1607 307.5560580  +6.6192111     8298.336     11343.58     12062.34     77.90154     155.9896     312.0414      1.409     2.50     832.4026     55.04068     1311.431        30     1.150     1.074 -87.73   0
       580    464.7722    201.1642 307.7457152  +6.6043583     5586.331     7827.243     7873.873     77.90154     155.9275     312.0724      1.452     2.63      831.475     55.04068     895.5268        26     1.146     1.061  76.17   0
       581    239.1941    197.8605 307.8395356  +6.5981520     871.0068     1105.137     874.8764     77.65224     156.0517     312.0414      1.262     4.83     834.8494     55.04068     145.6862        10     1.062     0.723 -43.53   0
       582    121.9954    192.5153 307.8884011  +6.5964186     5398.828     7430.458     7975.726     77.77699     155.8031     311.9171      1.457     2.65     836.7845     55.04068     805.1849        27     1.184     1.066  57.66   0
       583    941.4736    191.4815 307.5479995  +6.6242956     1040.094     1455.185     1525.884     78.52129      156.486     312.3209      1.533     3.07     831.8279     55.04068     146.0241        10     0.946     0.729  63.20   0
       584    292.3637    189.2151 307.8177395  +6.6035068      38429.7     52702.45     55267.23     77.90154     155.9896     312.0414      1.459     2.63     834.0889     55.04068     5517.606        60     1.267     1.259   8.06   0
       585    267.7194    190.1934 307.8279442  +6.6022753      7483.36     10216.86     10683.94     77.90154     155.7408     312.0724      1.430     2.58     834.3785     55.04068     1184.888        29     1.146     1.072 -88.31   0
       586    618.6855    190.7587 307.6821244  +6.6138091     729.9647     983.9811     1096.981     78.27397     156.1139     312.2588      1.467     3.23     832.6448     55.04068     114.5227         6     0.730     0.629 -44.03   0
       587    721.8463    188.6823 307.6393370  +6.6181169     1039.612     1648.347     1843.549     78.27397     156.1759     312.2588      1.530     3.59     834.0276     55.04068     189.7758        11     1.119     0.626  73.53   0
       588    416.4665    184.6965 307.7663365  +6.6095368     57763.84     77707.27     81013.33     78.27397      156.238     312.2898      1.447     2.57     831.7697     55.04068      8484.75        62     1.276     1.213  89.59   0
       589    172.3975    186.0101 307.8676831  +6.6007989      4627.17     6305.264     6475.344     77.77699     155.8653     312.1035      1.447     2.76      835.271     55.04068     667.3179        24     1.137     1.036  69.19   0
       590    433.7427    185.1616 307.7591439  +6.6099242     1686.972     2202.867     2154.784     78.27397      156.238     312.2588      1.373     2.79     831.5963     55.04068     281.4143        14     0.980     0.852 -87.52   0
       591    320.4736    182.3999 307.8062916  +6.6072640     20934.03     28520.72     29663.21     77.52731      155.554     312.0414      1.440     2.62     833.7397     55.04068     2914.883        42     1.221     1.165  89.09   0
       592    755.7620    180.9240 307.6255071  +6.6224534     37760.97     49998.95     51515.25     78.15002      156.238     312.2588      1.371     2.50     833.5603     55.04068     6400.946        50     1.212     1.152  69.09   0
       593    327.7813    182.4285 307.8032549  +6.6074975     2482.618     3634.981     4724.877     77.90154     155.9896     312.1967      1.726     2.71       833.64     55.04068      391.125        17     1.094     0.896 -56.20   2
       594    704.1498    182.9091 307.6468826  +6.6199086     1100.325     1660.812     1644.625     78.27397     155.9896      312.445      1.439     3.06     833.8623     55.04068     212.8527        11     1.072     0.699  17.11   0
       595    804.1581    181.1425 307.6053936  +6.6239802     1448.552     2013.173      2410.09     78.15002     156.1759     312.2898      1.553     3.21     832.8837     55.04068     224.3245        12     0.955     0.857  69.40   0
       596     72.5264    178.1683 307.9094349  +6.6006766     10348.38     14070.53     14404.04     78.15002     156.1759     312.2588      1.441     2.67     838.0295     55.04068      1491.23        33     1.200     1.096 -78.28   0
       597    106.3127    176.2551 307.8954644  +6.6026033     1635.622     2303.182     2145.135     78.27397     156.0517     312.4139      1.459     3.03     836.7702     55.04068     224.2657        13     0.942     0.875   3.77   0
       598   1014.1374    175.4188 307.5183482  +6.6333496     1302.106     1434.884     1741.195     77.90154     156.1139     312.1346      1.335     3.04     830.9872     55.04068      207.499        15     1.004     0.951   3.63   0
       599     24.1742    174.5311 307.9296434  +6.6005503     504.5978     714.3782     416.3415     77.90154     156.0517     312.1967      1.716     5.25     839.9844     55.04068     79.01813         5     1.062     0.734  81.08   0
       600    981.8086    174.3122 307.5318166  +6.6327287     578.8942     724.5554     872.2285     77.90154     155.8653     312.0414      1.356     3.09      831.056     55.04068     109.7654         5     0.760     0.425 -16.98   0
       601    589.1793    165.3075 307.6952373  +6.6233282     941.9323      1128.62     1013.873     78.15002     155.9896     312.1035      1.311     5.00      831.318     55.04068     152.9539         9     1.216     0.667 -46.71   0
       602   1015.1804    161.5934 307.5183773  +6.6390919     2335.497      3144.87     3598.256     77.90154     155.9275     312.0724      1.504     2.86     830.6943     55.04068     365.8162        15     1.027     0.854  67.27   0
       603      6.0049    163.2255 307.9375729  +6.6046054      990.638     1290.921     1346.307     77.77699     155.9896     296.2314      1.335     2.59      841.184     55.04068     176.2594         9     0.864     0.678  15.17  16
       604    597.9605    159.3428 307.6917895  +6.6260845     1253.653     1607.756     2138.569     78.27397      156.238     312.2588      1.445     3.47     831.2032     55.04068     196.6458        11     0.960     0.810 -63.53   0
       605    291.3146    155.4963 307.8193112  +6.6173911     34924.03     47754.89     50180.16     78.27397     156.5479     312.3209      1.455     2.65     834.1736     55.04068     4812.782        57     1.276     1.238 -49.27   0
       606    606.4371    157.2037 307.6883397  +6.6272513     2220.036      3148.36     3833.704     77.40216     155.9896     312.0724      1.587     2.80     831.1963     55.04068     360.2213        17     1.030     0.958 -50.37   0
       607    350.8814    157.3396 307.7945033  +6.6186298     1089.036     1460.702     1127.682     78.39773     156.1759     312.2277      1.396     3.33     833.4481     55.04068     163.6235        12     1.024     0.810 -13.07   0
       608    284.1867    158.4213 307.8221738  +6.6159442     658.0952     1041.967     1226.307     78.02588     155.9275     312.1656      1.710     3.28     834.1733     55.04068     108.0547         5     0.743     0.439  22.13   0
       609     36.5050    153.9323 307.9252168  +6.6094687     5176.039     6929.995     7204.336     78.15002        156.3     312.2898      1.434     2.61     839.5365     55.04068     835.0616        23     1.079     1.042  26.96   0
       610    723.0128    152.0787 307.6400802  +6.6332667     9030.858     11918.09     12417.57     77.90154     155.8653     312.0724      1.364     2.44      832.723     55.04068     1599.336        31     1.158     1.051  63.19   0
       611    200.2969    153.2128 307.8571992  +6.6152758     1104.196     1615.492     1581.874     78.15002     155.9275     312.0103      1.559     3.60     834.3621     55.04068     145.3563        11     0.902     0.858  -6.68   0
       612    277.0656    150.5671 307.8253967  +6.6189474     720.4432     868.7299     1248.648     78.15002      156.238     312.2277      1.322     4.28     834.2525     55.04068     102.7327         8     0.839     0.683 -88.49   0
       613    133.7408    149.2056 307.8849832  +6.6146921     5682.849      7887.37      8419.94     77.77699     156.0517     312.0414      1.472     2.74     835.1372     55.04068     853.9408        26     1.143     1.062 -89.37   0
       614    595.7590    147.2876 307.6931090  +6.6309874     981.4324     1292.344     1795.513     78.27397     156.1139     312.2898      1.456     3.19     830.8814     55.04068     157.8487        10     0.854     0.824  54.94   0
       615    472.6720    146.4272 307.7442740  +6.6272195     1684.883      2284.16     2137.223     78.02588     156.1139     312.1656      1.452     3.11     830.7958     55.04068     275.9879        14     1.077     0.819  78.06   0
       616    404.3374    145.1995 307.7727043  +6.6254350     4322.863     6674.589     6865.453     77.52731     155.9896     311.9482      1.636     3.31     831.7936     55.04068     556.6814        29     1.374     1.071  79.23   0
       617    661.7944    145.9248 307.6657202  +6.6337599     864.2627     1184.083     832.2451     77.90154     155.6786     312.1656      1.377     3.58     832.1628     55.04068      146.591         9     0.983     0.710  17.91   0
       618    580.9861    144.1208 307.6993528  +6.6318002     678.2599      1165.04     1197.427     77.90154     155.9275     312.0414      1.754     5.31      830.742     55.04068     110.5046         7     1.236     0.714 -48.37   0
       619    368.8554    144.0371 307.7874841  +6.6247244     3623.445     4740.678     4888.552     78.27397     156.1759     312.2898      1.383     2.81     833.1249     55.04068     587.6412        19     1.043     0.952  86.28   0
       620    123.3070    144.0142 307.8894928  +6.6164842     1983.842     2621.163     2953.151     78.02588     155.9275     312.1035      1.393     2.72     835.3009     55.04068     292.6713        15     1.025     0.823  78.13   0
       621    759.6953    142.2212 307.6251708  +6.6385623     651.9041     654.3865     55.82229     78.15002     155.9896     312.1035      1.185     4.22     831.7267     55.04068     125.2838         6     0.870     0.738 -79.46   0
       622    684.6680    141.8458 307.6563541  +6.6362089      912.696     1041.225     872.6046     78.27397     156.1139     312.2588      1.241     2.89     832.1651     55.04068     160.7723         7     0.810     0.625  18.64   0
       623   1015.5580    138.3135 307.5189991  +6.6487151     1754.892     2191.461     2049.392     78.27397     156.0518     312.2898      1.336     3.01     829.4612     55.04068     242.4896        14     1.034     0.814  72.69   0
       624    741.7017    138.8016 307.6327611  +6.6393726     596.6237     702.7861     678.5871     77.77699     155.9275     311.9482      1.285     3.66      831.796     55.04068      102.946         5     0.882     0.436  42.55   0
       625     62.1166    139.2738 307.9150724  +6.6163820     544.7231      817.377     621.0424     78.39773      156.486     312.3209      1.388     3.44     837.8154     55.04068      78.7135         5     0.993     0.345 -45.06   0
       626    220.6620    133.0289 307.8494195  +6.6242923     6302.851     8652.318      8694.13     78.02587     156.1759     312.2277      1.445     2.70     834.2283     55.04068     1007.396        29     1.183     1.062 -80.23   0
       627    682.5451    131.8593 307.6575712  +6.6402605     7292.155     9564.411     9702.489     78.39773     156.1759     312.2277      1.346     2.54     831.5767     55.04068     1180.038        28     1.128     1.091 -68.85   0
       628    103.4086    132.9424 307.8981326  +6.6203852     2449.365     3465.738     3669.709     77.65224     156.1139     311.9792      1.477     2.71     835.4616     55.04068     366.0266        21     1.106     1.007  23.16   0
       629    859.4084    132.9206 307.5840552  +6.6457325      727.019     983.5897     894.0558     77.90153     155.8031     312.1035      1.335     2.73     829.7651     55.04068     139.4166         7     0.723     0.670 -88.01   0
       630    830.6929    131.6617 307.5960278  +6.6452934     1290.478     1536.784     1572.134     78.27397     156.1759     312.3209      1.196     2.78     830.1812     55.04068     206.6415         9     0.922     0.640  83.45   0
       631    634.7396    129.0683 307.6775261  +6.6398134     10736.17     14624.68     15458.64     78.39773     156.1139     312.2588      1.428     2.56     830.8479     55.04068     1710.965        34     1.162     1.127 -67.28   2
       632    638.2137    120.6383 307.6763658  +6.6434097     61333.76     81750.64     85854.34     77.90154     155.9896     311.9792      1.391     2.52     830.5636     55.04068      9521.42        74     1.290     1.235  68.97   2
       633    572.7767    128.6763 307.7032822  +6.6379010     823.6154     1128.617     1267.223     77.90154     156.0517     312.2277      1.523     3.54     830.3617     55.04068     129.8449         9     0.912     0.713  86.80   0
       634    269.5333    129.2805 307.8292431  +6.6274817     905.8009     1246.361     1094.683     78.39773      156.424     312.2588      1.717     3.79      834.418     55.04068     137.3056         9     0.999     0.705  14.87   0
       635     33.0960    128.3593 307.9274966  +6.6199105     1118.467     1897.553      2064.94     78.27397     156.0517     312.4139      1.803     3.72     839.2659     55.04068       150.47        11     0.992     0.795  80.16   0
       636    361.7847    124.9104 307.7910654  +6.6323829     4075.974     6111.293     6776.525     78.02588     155.9896     312.1035      1.618     2.96     833.7361     55.04068      609.296        27     1.368     1.034 -51.82   0
       637   1007.8671    123.7371 307.5226820  +6.6544763     942.8091     1453.294     1280.164     78.27397     156.1759     312.2588      1.519     4.76     828.7452     55.04068     118.1769        10     1.010     0.852  72.84   0
       638    543.4326    123.9632 307.7156318  +6.6388640     2004.837     2681.032     2890.995     77.90153     155.9275     312.0103      1.426     3.09     830.2025     55.04068     309.4132        16     1.024     0.962  54.37   0
       639    813.1373    116.3544 307.6038346  +6.6510263     426.0094     651.2693     911.7327     78.15002     156.1139     312.3209      1.093     3.41     829.7405     55.04068     86.14569         5     0.793     0.425  19.10   0
       640    317.2931    114.3349 307.8099053  +6.6352552     4015.193     5567.415     6012.034     78.15002     156.3621     312.2898      1.489     2.77      834.581     55.04068     574.6428        23     1.131     1.061  35.82   0
       641    512.4899    111.8041 307.7288958  +6.6428468     717.0077     1019.889     1235.846     77.77699     155.8653     311.9792      1.451     2.86     830.1044     55.04068     139.9241         6     0.720     0.654  10.17   0
       642     14.7836     97.4304 307.9361488  +6.6320613     744316.6      1473918      1611351     77.90154     155.9275     312.1967      2.087     3.15     839.9174     55.04068     62030.71       472     2.088     2.029 -85.52   4
       643    717.3477    108.8863 307.6438828  +6.6509081     1187.833     1491.449     1483.279     78.27397     156.0517     312.3519      1.386     3.07     830.0237     55.04068     175.7778        11     0.925     0.781 -59.69   0
       644    688.6170    107.9798 307.6558499  +6.6503216     1762.719     2147.617     2228.924     78.02588     155.9896     312.1656      1.264     2.30     830.1205     55.04068     343.0776        11     0.832     0.763  23.61   0
       645    702.5598    104.5985 307.6501706  +6.6521837     3741.299     4815.548     4951.782     77.52731     155.9275     311.9792      1.318     2.54     829.8565     55.04068      595.152        18     1.029     0.879  82.75   0
       646    444.2903     95.5602 307.7577761  +6.6472666      4815.37     6789.268     6986.429     78.27397     156.1139     312.2898      1.494     2.67     830.2326     55.04068     679.7802        27     1.166     1.113 -83.81   0
       647    916.8412     90.9476 307.5615990  +6.6649769     4298.983     6029.205     6112.341     78.27397      156.238     312.2588      1.437     2.62     827.5325     55.04068     689.8438        27     1.218     1.033 -76.49   0
       648    898.8434     91.8634 307.5690461  +6.6639983     2480.421     3418.217     3313.918     78.27397     156.1139     312.2898      1.396     2.68     827.6353     55.04068     408.1077        17     1.084     0.871  84.66   0
       649    597.2729     91.7472 307.6943455  +6.6539662     839.4065      993.991     769.5532     78.15002     156.1759     312.2898      1.371     3.30     829.4029     55.04068     137.6743         7     0.855     0.590  60.55   0
       650    609.0052     89.5102 307.6895463  +6.6552824     2046.321     2575.474     2130.094     77.77699     155.8653     312.0103      1.301     2.60     829.3083     55.04068     331.4923        16     1.019     0.854   4.10   0
       651    628.8229     89.2755 307.6813205  +6.6560426     568.6696     717.7479     1037.715     77.90154     156.0517     312.1656      1.279     3.00     829.2515     55.04068     90.20917         5     0.819     0.634 -38.56   0
       652    407.7083     87.4151 307.7732485  +6.6494022     2258.685     3045.994     2934.947     78.02588     155.9896     312.1035      1.451     3.11     830.9713     55.04068     344.0115        18     1.157     0.913 -80.60   0
       653    254.8784     88.9878 307.8366893  +6.6436225     882.7281     1213.273     1692.669     77.90154     155.8653     312.1035      1.386     3.31     834.4265     55.04068     130.3876         8     0.829     0.730  82.71   0
       654    155.6237     84.2630 307.8780834  +6.6422366     3647.782     4954.985     5192.359     77.90154     156.1759     312.1656      1.404     2.63     833.3785     55.04068     555.9555        23     1.174     0.985 -87.14   0
       655     37.5493     82.1579 307.9272071  +6.6391324     14070.96     19400.43     20687.84     78.39773     156.1759     312.2588      1.481     2.74     837.3359     55.04068     2008.496        38     1.199     1.184  33.30   0
       656    303.9375     82.2751 307.8165338  +6.6480413     1486.083     2169.935     2960.917     78.52129     156.1759     312.2588      1.619     4.63     834.8718     55.04068     242.4721        17     1.306     0.937  70.27   0
       657    959.0953     81.3591 307.5443639  +6.6703448     586.6216     833.8181     868.5604     78.27397     156.1139     312.3829      1.611     4.92     826.7014     55.04068       94.427         6     1.139     0.602  70.62   0
       658    577.0895     81.9070 307.7030617  +6.6573526      762.856      1066.35     1128.313     78.27397     156.6717     312.2898      1.513     3.28     829.0742     55.04068     140.9119         8     0.895     0.679  -3.24   0
       659    564.6625     81.5398 307.7082371  +6.6570881     888.7581     1238.029     1010.231     78.27397     156.1759     312.2898      1.346     4.01     829.0994     55.04068     133.2307         8     0.982     0.640  40.52   0
       660    994.8364     80.8291 307.5295316  +6.6717554     513.0052     894.8423     1242.258     77.90154     155.9275     312.0724      1.619     4.03     826.1835     55.04068     78.79999         6     0.793     0.587  37.66   0
       661    771.6016     76.3338 307.6224334  +6.6661600     637.6556     1201.078     2359.711     77.65224     155.8031     312.0414      3.758     3.16     828.1533     55.04068      139.149         7     0.848     0.657  71.46   2
       662    906.3480     78.0081 307.5663920  +6.6699685     743.2192     1010.995     1016.294     77.77699     156.0517     311.9792      1.460     4.32     827.1596     55.04068     130.3716         7     1.048     0.681  52.37   0
       663    839.2574     76.6980 307.5943112  +6.6682697     6873.023      9111.86     9269.158     78.02588     156.1759      312.445      1.372     2.54        827.7     55.04068     1083.626        29     1.138     1.083  79.75   0
       664    784.3531     77.1037 307.6171095  +6.6662683     3790.384     4777.833     4906.443     78.27397     156.0517     312.4139      1.317     2.50     828.1927     55.04068     608.5222        19     1.070     0.915  74.46   0
       665    429.4400     77.8101 307.7645430  +6.6540961     1313.847     1676.241     1512.706     77.65224     155.9896     312.0103      1.308     2.72     830.2151     55.04068     199.1744        11     0.930     0.731 -15.03   0
       666    109.1092     77.6789 307.8976297  +6.6433899     726.6347     1002.331     1017.916     78.02588      156.424     312.3209      1.457     4.10     833.8284     55.04068     100.8801         7     0.745     0.675 -20.40   0
       667    546.7216     75.1141 307.7159070  +6.6591398     1336.844     1650.198     1876.642     78.27397      156.486     312.3519      1.292     2.81     828.8949     55.04068     226.4258        10     0.990     0.617  71.81   0
       668    438.8641     73.9446 307.7607577  +6.6560079     1199.394     1601.583      1885.95     78.39773     156.1139     312.2588      1.429     4.65     830.1359     55.04068     194.1348        12     1.173     0.792 -79.11   0
       669     77.7680     74.0133 307.9107738  +6.6438484     3670.246     5045.965     4821.896     77.77699     155.9275     312.1967      1.413     2.64     834.8149     55.04068     585.5891        19     1.042     0.963 -78.33   0
       670    666.2826     74.0231 307.6662690  +6.6635925     645.0691     865.5748     835.9515     78.15002     155.8653     312.1967      1.452     4.36      828.549     55.04068     108.2931         7     1.220     0.443  85.92   0
       671     62.3781     74.8010 307.9171408  +6.6430052     1063.049     1279.238     838.0527     77.90154     155.8653     311.9792      1.273     3.52     835.6552     55.04068     145.8909        11     1.073     0.683  40.27   0
       672    601.5892     70.5139 307.6932655  +6.6628762     1541.925      1824.52     1917.983     77.90154     155.9275     312.1035      1.308     2.71     828.6111     55.04068     232.6929        12     0.871     0.852  83.20   0
       673     20.2762     69.4630 307.9348118  +6.6437911     2900.048     4109.341     4953.332     78.52129     156.1759     312.2277      1.520     2.71     837.2761     55.04068     404.1768        20     1.209     0.911 -75.74   0
       674    272.7323     70.5025 307.8298948  +6.6518531     633.0794     901.4545     1239.572     78.27397      156.238     312.2588      1.283     3.10       834.61     55.04068     114.1426         5     0.734     0.468 -18.04   0
       675    728.3262     67.4035 307.6407132  +6.6684001     559.5998     891.6132     1027.574     77.77699     155.7408     312.1035      1.747     3.93     827.8223     55.04068     98.03906         5     1.006     0.441  13.80   0
       676    778.8837     64.6064 307.6198011  +6.6712447      2332.91     2985.813     3186.322     77.90154     155.8653     312.1346      1.360     2.55     827.6519     55.04068     425.2739        18     1.037     0.944  25.04   0
       677    419.6927     64.5428 307.7690391  +6.6592461     1288.203     1737.839      1322.79     78.15002     156.1139     312.3829      1.325     2.61     830.1933     55.04068     223.6859        11     0.900     0.766 -54.97   0
       678    180.6568     65.8300 307.8683053  +6.6506876     517.4093     837.1545      424.614     78.15002      156.238     312.1656      1.487     3.61     833.3986     55.04068     80.38983         5     1.011     0.370  -3.79   0
       679     92.7593     65.0253 307.9048493  +6.6480632      1069.02     1292.699     907.1949     77.90153     155.9896     312.0414      1.372     3.48      833.866     55.04068      143.195        10     0.903     0.752   6.53   0
       680    670.7216     64.2610 307.6647523  +6.6677710     539.9082     709.6968     631.5151     78.39773      156.238     312.2277      1.306     3.82     828.0845     55.04068     83.48077         5     0.911     0.460 -44.63   0
       681    116.7064     63.6609 307.8949466  +6.6494322     1043.756     1405.286     1897.379     78.15002     156.1759     312.2898      1.477     2.85      833.535     55.04068     156.0624        10     0.852     0.776 -56.22   0
       682    105.5845     58.2550 307.8997496  +6.6512895     10804.78      14920.2     15888.61     77.65224     156.1759     311.9482      1.471     2.70     833.5079     55.04068     1566.033        33     1.226     1.082  81.04   0
       683    434.7076     58.0826 307.7630182  +6.6624165     2907.543     3930.355     3854.285     78.02588      156.486     312.3519      1.370     2.63     830.0682     55.04068     481.4794        20     1.090     0.957 -71.68   0
       684    256.2869     57.7090 307.8371583  +6.6565819     771.5194     1030.136     1647.478     78.02588     156.6098     312.3829      1.333     3.16     834.2542     55.04068     143.9895         7     0.903     0.528 -28.93   0
       685    272.2404     52.4146 307.8307087  +6.6593034     1780.291     2600.985     3302.236     77.90154     155.9896     312.0414      1.527     3.02     834.5351     55.04068     259.3733        14     0.980     0.900  80.22   0
       686    648.3769     50.3514 307.6745032  +6.6727655      21262.7     28068.33     29439.13     77.90154     156.1759     312.1656      1.369     2.48     827.5826     55.04068     3204.146        42     1.196     1.114  74.91   0
       687    548.1143     46.3970 307.7162935  +6.6710414     6025.239     8013.646     8258.022     77.65224     155.8031     311.9792      1.374     2.55     827.8873     55.04068     948.3914        26     1.111     1.035 -53.97   0
       688    274.3513     42.4351 307.8301680  +6.6634939     10663.01     14777.42     16177.18     78.15002     156.1759     312.1967      1.498     2.66     834.5475     55.04068     1497.292        36     1.224     1.152  83.50   0
       689    635.6825     44.3436 307.6799793  +6.6748209     957.3206     1341.583     1900.303     78.27397     156.1759     312.3519      1.531     4.06     827.4046     55.04068     162.0578         7     1.146     0.500  36.43   3
       690    634.5246     40.1476 307.6806012  +6.6765143     3775.636     5259.564     6100.764     78.27397      156.238     312.2588      1.463     2.50     827.2479     55.04068     590.2683        22     1.150     0.987  58.54   2
       691     15.6930     44.4395 307.9375612  +6.6539664     1361.701     1887.913      1441.08     78.39773     156.1139     312.3519      1.476     2.82     835.3229     55.04068     199.3271        11     0.904     0.776  67.06   0
       692    453.6631     42.0006 307.7556838  +6.6696909     26009.79     35472.07     36831.26     77.52731     155.9896     312.0103      1.427     2.58     829.8679     55.04068     4284.438        47     1.208     1.178  72.37   0
       693    931.4238     42.0601 307.5571769  +6.6856454     2367.354     3118.916     3098.974     77.90153     156.1139     312.1346      1.404     2.84     825.6841     55.04068     327.9905        17     1.024     0.940  40.79   0
       694    334.2769     42.7956 307.8052587  +6.6653575     1235.251     1536.078     1781.545     77.90154     155.6786     312.1035      1.336     2.83     834.8718     55.04068     198.6611        10     0.881     0.741  52.31   0
       695     39.6709     41.9742 307.9276830  +6.6557915     2700.583     3630.383     3358.998     77.90153     156.0517     312.1967      1.401     2.81     834.5872     55.04068     394.0461        18     1.050     0.954  31.77   0
       696    566.9816     41.6828 307.7086128  +6.6736193     787.6367     970.2299     684.1381     77.90153     155.8653     312.2277      1.345     2.48     827.6712     55.04068     151.2513         7     0.819     0.563 -30.63   0
       697    266.2030     46.7062 307.8334094  +6.6614571     2188.974     3225.133     4763.659     78.02588     155.8653     311.9792      1.643     3.07     834.3954     55.04068     312.4486        17     1.060     0.962  65.00   0
       698    262.2867     39.0803 307.8352935  +6.6644735     3471.208     4845.335     5987.537     78.02588      156.424     312.3829      1.463     2.73     834.2734     55.04068     544.8602        22     1.086     1.021  55.87   0
       699    315.2194     37.2171 307.8133645  +6.6670205     1242.814     1503.475     1774.107     78.02588     155.9896     312.1656      1.279     2.83     834.8718     55.04068     178.5785        11     0.880     0.790 -80.34   0
       700    952.0693     32.3887 307.5489224  +6.6903267     1106.671     1357.506     2020.428     77.77699     155.9896     312.1346      1.334     3.81      824.383     55.04068     167.8655        11     1.075     0.705  89.15   0
       701    703.4606     31.5158 307.6522487  +6.6823838     2083.584     2513.802     2530.973     78.39773      156.238     312.3209      1.260     2.43     826.4066     55.04068     350.5182        13     0.930     0.788  53.08   0
       702    108.1062     32.1978 307.8995815  +6.6621308     696.2601     925.2693      1132.43     77.77699     155.8653     311.9482      1.424     3.74     833.0515     55.04068     134.5296         5     0.807     0.498 -44.02   0
       703    214.8611     27.1188 307.8554004  +6.6678176     798.8607     1098.315     962.1876     78.39773     156.1759     312.2277      1.345     2.65     833.2714     55.04068     156.0945         7     0.822     0.703   9.89   0
       704    191.7749     24.4342 307.8650824  +6.6681498     12363.27     16802.81     17503.98     77.65224     155.9896     312.0414      1.438     2.62     833.1479     55.04068     1802.272        35     1.177     1.122  82.47   0
       705    269.1304     25.9705 307.8328920  +6.6701152     918.4675     1325.837      1975.02     78.02588     156.1759     312.1967      1.422     4.47     834.3815     55.04068     137.5325         7     0.931     0.611  73.72   0
       706      4.9536     24.8295 307.9426854  +6.6616996     1083.863     1324.329      1123.26     77.77699        156.3     285.2276      1.350     3.06     833.8075     55.04068     156.4443         9     0.785     0.759  47.39  16
       707    937.3563     22.2288 307.5553759  +6.6940301      4601.08     6110.477     6284.554     77.90154      156.238     312.1656      1.392     2.51     824.6511     55.04068      722.485        22     1.091     0.953  77.10   0
       708    535.9824     22.6302 307.7221329  +6.6804462     3383.195      4582.15     4471.014     77.90153     155.9896     312.1967      1.405     2.58      827.456     55.04068     558.5018        22     1.113     0.996 -33.13   0
       709    738.1501     20.7657 307.6381960  +6.6879815     2315.723     3106.565     3102.641     78.15002     156.1759     312.1967      1.383     2.44      825.654     55.04068     385.4725        15     0.957     0.859  72.06   0
       710    474.3198     21.0098 307.7478074  +6.6790487     2125.984     2731.506     2934.268     77.90153     155.8653     312.1346      1.335     2.59     829.6302     55.04068     359.3338        15     0.939     0.897 -87.69   0
       711   1002.1862     18.4425 307.5285650  +6.6977552     2138.086     3066.282     2953.671     77.65224     155.9896     312.0103      1.485     3.23     821.0291     55.04068     334.0804        17     1.054     0.970 -38.15   0
       712    797.3218     18.0951 307.6136996  +6.6910616     605.3143     815.5991     1152.667     78.02588     156.3621     312.2898      1.293     3.42     825.5267     55.04068     111.5674         5     0.782     0.433  74.28   0
       713    724.1646   1021.4766 307.6104588  +6.2743922     1107.358     1673.906     2085.498     78.15002     150.6145     267.6223      1.788     3.75     858.1827     55.04068     169.9921        12     1.065     0.899   0.51  17
       714    254.2101   1020.6856 307.8055887  +6.2589809       1531.8     2256.497     2247.323     77.90154     155.3045     277.7194      1.561     3.09     859.3653     55.04068      217.438        14     1.033     0.859  82.05  16
       715    729.5699   1018.9158 307.6083005  +6.2756299     2767.471     4211.695     4439.495     78.27397     155.9896     296.9831      1.641     3.16     858.0278     55.04068     355.3035        21     1.135     1.060 -23.99  16
       716    452.5089   1019.7885 307.7232959  +6.2660007     966.6855     1337.548     945.1967     78.02588     155.8653     288.2367      1.417     3.02     860.1185     55.04068     170.8905         8     0.806     0.753  -2.39  16
       717    744.9262   1018.0480 307.6019541  +6.2765012     1045.764     1554.155     1142.016     78.15002      156.238     304.3665      1.517     5.37     857.7382     55.04068     128.4697        13     1.289     0.761  63.20  16
       718    376.2105   1016.3179 307.7550878  +6.2648765      1905.09     2768.245     3435.517     77.90154     155.8653     312.1035      1.625     3.39     860.4064     55.04068     285.4116        17     1.161     0.952  87.15  16
       719    224.7103   1015.2357 307.8180187  +6.2602404     437.8056     717.9083     516.2109     78.39773     156.1139     312.2588      1.959     4.31     857.6723     55.04068     90.57666         5     0.763     0.693  22.63   0
       720    714.6584   1013.1321 307.6146850  +6.2775194     521.3818     670.0067     1281.659     78.39773     156.1139     312.2588      1.512     4.18     858.2364     55.04068     73.19427         6     0.766     0.652  23.79   0
       721    626.9994   1010.7897 307.6511566  +6.2755561     554.1409     702.6453     498.9604     77.90154     155.8653     312.0724      1.583     4.33     859.7108     55.04068     83.60913         5     1.075     0.497  39.78   0
       722    529.1437   1007.9828 307.6918768  +6.2734406     1205.385     1625.354     2231.781     77.77699     156.1139     312.0103      1.386     3.49     859.8775     55.04068     206.3282        11     1.012     0.770  31.93   0
       723    308.9291   1005.1470 307.7833952  +6.2672317     15704.49     23205.77      25959.1     78.15002     156.1139     312.1967      1.610     3.23     860.4459     55.04068     2243.125        60     1.723     1.294 -34.53   0
       724    763.0814   1005.9316 307.5948223  +6.2821096     8230.015     12306.31     12459.03     78.52129      156.424     312.2898      1.570     3.05     857.2759     55.04068     1160.149        35     1.273     1.210  32.23   0
       725    558.6219   1006.4557 307.6796898  +6.2750577     4517.863     6598.742     6684.759     77.90154     156.1759     312.0724      1.556     2.87     859.8304     55.04068     618.4954        26     1.200     1.083  77.62   0
       726    824.1792   1005.4611 307.5694718  +6.2843439     1199.858     1958.872     2530.655     77.90154     156.1759     312.1967      2.046     4.28      856.413     55.04068     149.4236        14     1.125     0.902 -81.01   0
