#   1 NUMBER                 Running object number                                     
#   2 X_IMAGE                Object position along x                                    [pixel]
#   3 Y_IMAGE                Object position along y                                    [pixel]
#   4 ALPHA_J2000            Right ascension of barycenter (J2000)                      [deg]
#   5 DELTA_J2000            Declination of barycenter (J2000)                          [deg]
#   6 FLUX_APER              Flux vector within fixed circular aperture(s)              [count]
#   9 FLUXERR_APER           RMS error vector for aperture flux(es)                     [count]
#  12 FLUX_RADIUS            Fraction-of-light radii                                    [pixel]
#  13 FWHM_IMAGE             FWHM assuming a gaussian core                              [pixel]
#  14 BACKGROUND             Background at centroid position                            [count]
#  15 THRESHOLD              Detection threshold above background                       [count]
#  16 FLUX_MAX               Peak flux above background                                 [count]
#  17 ISOAREA_IMAGE          Isophotal area above Analysis threshold                    [pixel**2]
#  18 A_IMAGE                Profile RMS along major axis                               [pixel]
#  19 B_IMAGE                Profile RMS along minor axis                               [pixel]
#  20 THETA_IMAGE            Position angle (CCW/x)                                     [deg]
#  21 FLAGS                  Extraction flags                                          
         1    257.8392     21.6952 307.8303862  +6.6636050     5345.108     12412.31     15260.44      87.8774     175.1977     350.7091      2.567     6.23     1088.947     61.79362      637.886        62     2.348     1.544 -34.10   2
         2    437.2809     21.3124 307.7557756  +6.6697692     13675.45     31081.99     36247.74     87.59886     175.6157     350.7091      2.408     5.57     1070.832     61.79362     1501.648        75     2.219     1.563 -42.24   0
         3     23.3870     21.3929 307.9278937  +6.6558656     1437.443     3089.833     2543.818     87.45926      175.128     350.4652      2.252     6.71     1096.154     61.79362     168.2898        25     1.668     1.241 -60.91   0
         4    618.0146     19.5463 307.6806722  +6.6765366     2232.688     4950.232     6411.287     87.17939     175.2674     350.2559      2.506     5.43     1066.245     61.79362     269.3015        34     1.759     1.246 -31.59   0
         5    246.1091     18.3560 307.8353776  +6.6645910     1782.173     3865.072     5242.635      87.8774     175.2675     350.7091      2.574     5.68     1088.912     61.79362     242.7864        30     1.893     1.126 -36.62   0
         6    935.0364     11.5030 307.5490968  +6.6904222      738.245     1192.807     1394.979      87.8774     175.1977      350.744      1.937     4.99     1056.173     61.79362     114.3477         6     1.108     0.635 -55.78   0
         7    686.9211     11.2898 307.6522940  +6.6822456     1087.358     2035.638     1648.778     87.59886     175.6157     350.6743      1.848     5.95     1065.077     61.79362     151.9232        13     1.400     0.713 -38.05   0
         8    175.4321      3.8373 307.8652621  +6.6682179     6548.584     14701.67     15959.59     87.45926     171.6039     304.9376      2.266     5.69     1088.696     61.79362     738.8872        53     2.019     1.445 -36.04  24
         9    920.5489      2.0612 307.5554403  +6.6938397     2761.263     4129.775     4568.985     85.33786       151.08     276.8795      1.679     5.16     1056.208     61.79362     362.9219        23     1.711     0.877 -21.29  24
        10    519.7571      2.3665 307.7221168  +6.6803505     1879.539     3237.111     3472.206     87.03912     155.3074     281.8656      1.772     5.75     1067.346     61.79362     231.6981        24     1.729     1.058 -16.69  24
        11    457.2453      2.1612 307.7481213  +6.6783460     800.2478     1403.234      1418.24     85.76634     152.2884     278.4637      1.717     6.45     1069.318     61.79362     129.2094        10     1.409     0.828 -26.81  24
        12    721.3301      1.1518 307.6383259  +6.6875800     695.8759     856.1173     794.1102     73.82204     136.1032     260.3676      1.128     3.37     1062.976     61.79362     160.7607         5     1.092     0.301 -10.74  24
        13    707.6316   1000.3684 307.6103042  +6.2744406     934.3567     1551.449     2150.548     87.31944     175.0582     350.2908      1.807     4.60      1113.64     61.79362     185.3859         8     1.390     0.432 -47.58   3
        14    755.0663   1022.6895 307.5898399  +6.2668020     627.5536     1003.996     420.1193     87.17939     154.9135     281.0842      1.457     4.17     1113.627     61.79362     115.6887         6     1.215     0.408 -32.22  24
        15    579.0369   1020.9100 307.6630492  +6.2616690     129639.4     232429.5     246286.4     88.01633     173.5862     308.8395      1.914     5.04     1117.801     61.79362     16292.93        80     2.000     1.125 -37.74  27
        16    580.7621   1013.7115 307.6625754  +6.2646996     60571.96     109676.9     119116.3      87.8774     175.1977     350.6046      1.952     4.93     1117.519     61.79362     7517.813        75     2.025     1.134 -39.36  19
        17    397.0633   1023.2053 307.7385894  +6.2546444     541.3137     884.6702     1236.351     81.82932     146.7309     272.0267      1.542     3.84     1117.502     61.79362     91.94092         5     0.811     0.521 -58.06  24
        18    213.5005   1023.0816 307.8148695  +6.2485548     2773.834     3841.872     4417.144       83.602     149.1263     274.2635      1.487     4.42     1119.112     61.79362     400.9475        18     1.445     0.768 -21.55  24
        19    713.1342    997.6061 307.6081107  +6.2757648      2339.81     4164.699      4856.96     87.31944     175.0582     350.3606      2.009     6.13     1113.421     61.79362     284.0327        22     1.714     0.855 -36.15   2
        20    238.4001    999.4744 307.8053227  +6.2591380     904.8408     1717.927      1850.43     87.03912     174.6389     350.3257      2.327     5.70      1118.85     61.79362     125.9928        12     1.561     0.586 -29.72   0
        21    436.7363    998.4486 307.7229407  +6.2661947     735.1736     1137.373     1044.048     87.73824     175.1977     350.6395      1.551     3.49     1116.914     61.79362     129.8774         5     0.789     0.445 -19.93   0
        22    729.2621    996.5127 307.6014454  +6.2767537     891.3737     1442.153     1409.775     87.73824     175.5461     350.6046      1.844     4.86     1113.006     61.79362     196.4463         8     1.339     0.499 -42.30   0
        23    360.0155    995.1682 307.7549326  +6.2649852     1465.007     2638.648     2891.934     87.45926     175.0582     350.4652      2.009     6.57     1118.583     61.79362     178.2948        20     1.603     0.894 -46.87   0
        24    969.1518    993.4404 307.5018582  +6.2860051     594.3026     834.3892     340.3352     87.73824     175.2675     350.4303      1.576     4.53     1107.362     61.79362     98.57825         5     1.132     0.515 -59.70   0
        25    542.0822    985.4221 307.6796042  +6.2750925     3475.832     6340.274     7463.012     87.59886     174.9884        350.5      1.972     4.72     1116.413     61.79362     452.7086        32     1.840     0.980 -41.26   0
        26    746.5441    984.8207 307.5946577  +6.2821583     6816.864     11827.17     12812.22     87.31944     175.3372     350.3606      1.872     4.90     1112.122     61.79362     901.9652        39     1.864     0.969 -40.23   0
        27    512.4908    986.9622 307.6918490  +6.2734686     897.0966     1407.594      1669.14     88.01633     175.2674     350.6046      1.709     3.74     1116.937     61.79362     136.8949         6     1.189     0.338 -40.11   0
        28    292.3680    984.2708 307.7834119  +6.2672232     11980.75      22291.4     24686.11     87.73824     175.3372     350.5349      2.022     5.01     1118.515     61.79362     1391.086        56     2.114     1.131 -39.01   0
        29    416.9319    984.3611 307.7316467  +6.2713510     765.4254     1707.026     1613.769     87.73824     175.3372     350.7091      2.254     6.32     1116.488     61.79362     94.78906        11     1.916     0.585 -64.13   0
        30    807.8054    984.0737 307.5692246  +6.2845068     915.4877     1618.247     1887.759     87.45926     174.8486     350.4652      1.651     5.42     1111.141     61.79362     137.5197        11     1.712     0.484 -37.80   0
        31    264.2591    981.6968 307.7951795  +6.2673456     710.7313      1175.36     1370.255     87.59886     175.3372     350.7091      1.567     4.54     1118.466     61.79362     124.1829         6     1.464     0.400 -32.89   0
        32    907.9266    978.2409 307.5278132  +6.2902472     7835.592     13444.92     14256.73     87.73824     175.4068     350.6046      1.801     5.11     1108.934     61.79362     1085.256        35     1.809     0.924 -40.22   0
        33    539.3151    977.6288 307.6810173  +6.2782188      6853.87     12403.74     13387.98     88.01633     174.9884     350.3954      1.903     4.96     1116.237     61.79362     813.7485        39     1.867     1.046 -37.17   0
        34    881.5429    974.4031 307.5389068  +6.2909547     11102.88     18904.25     20993.79     87.17939      175.128     350.2559      1.859     4.91     1109.236     61.79362     1614.981        52     1.969     1.100 -38.06   0
        35   1003.2326    973.8245 307.4883546  +6.2952393     4454.722     7476.812     7953.744     87.17939     175.0582     350.3257      1.780     4.84     1104.874     61.79362      605.979        29     1.729     0.884 -41.89   0
        36    594.5376    974.4450 307.6581764  +6.2813765     1177.182      1750.35     966.9697     87.73824     175.2675     350.6395      1.621     5.48     1115.725     61.79362     177.6267        12     1.263     0.777 -49.34   0
        37    525.5800    973.4433 307.6868664  +6.2794890     3347.313     6323.096     7611.448     87.31944     175.1977     350.3954      2.069     5.12     1116.277     61.79362     480.2136        31     1.796     0.975 -37.27   0
        38    635.0468    973.1436 307.6413861  +6.2832651     1069.599     1892.023     1442.699      87.8774     175.3372     350.6743      1.852     6.60     1114.487     61.79362     135.9572        16     1.769     0.692 -44.03   0
        39     60.0718    972.5645 307.8803363  +6.2642768     783.8023     1328.639     1582.911     87.73824     175.3372     350.5698      1.963     5.40     1117.812     61.79362     127.2474         7     1.229     0.670 -39.44   0
        40    479.1499    969.7325 307.7062863  +6.2794712     1793.426     3269.551     2794.635     87.73824     175.1977     350.5349      1.842     6.02     1116.854     61.79362     239.9011        20     1.634     0.835 -41.77   0
        41    913.2442    962.0161 307.5261493  +6.2971251     38934.32     67312.42     71612.84     87.31944     175.1977     350.3257      1.833     5.09     1107.989     61.79362     5148.723        67     1.919     1.073 -41.66   0
        42    220.7470    960.5050 307.8139785  +6.2746412     1339.131     2518.146     2571.189     87.73824     175.2675     350.8485      2.041     6.15     1117.953     61.79362     188.3655        18     1.504     0.905 -25.58   0
        43    620.6728    957.7502 307.6478790  +6.2891433     762.0363     1062.655      1188.76      87.8774     175.4068     350.6046      1.517     4.54      1114.29     61.79362     154.4181         7     1.196     0.620 -43.78   0
        44    811.1529    955.7589 307.5687872  +6.2963126      2030.39     3467.771     3348.531     87.73824     175.3372     350.4303      1.694     5.88     1110.098     61.79362     267.2231        19     1.606     0.720 -41.91   0
        45    759.5449    953.6821 307.5903044  +6.2954519     5552.059     9636.878     10945.98      87.8774     175.3372     350.6046      1.948     4.50     1110.632     61.79362     871.5056        37     1.859     0.992 -42.94   0
        46    546.1202    952.9960 307.6790213  +6.2886195     765.2568     1451.392      1290.35     87.45926     174.7787     350.2908      1.749     6.61     1115.341     61.79362      90.0542        10     1.557     0.788 -39.35   0
        47    228.0000    953.1418 307.8112140  +6.2779250     1062.565     2303.857     2766.051     87.03912     174.9185     350.1861      2.189     4.57     1117.807     61.79362     165.2783         9     1.319     0.476 -66.42   2
        48    194.2896    952.7503 307.8252356  +6.2769579     745.7743     1462.754     1250.662      87.8774      175.128     350.7091      1.703     5.18     1117.603     61.79362     114.1711         7     1.390     0.547  77.98   2
        49     53.8552    951.0482 307.8836496  +6.2729543     2058.964     4059.866     3972.044      87.8774     175.3372     350.6743      2.027     5.79     1117.372     61.79362     248.9358        26     1.792     0.990 -48.14   0
        50    947.6837    948.6884 307.5122852  +6.3037747     6201.378     10502.43     11052.08     87.59886     175.5461     350.6046      1.825     5.01     1106.107     61.79362     845.3566        37     1.823     0.980 -40.57   0
        51    254.4574    936.7063 307.8007764  +6.2855985     3481.765     6405.046     7069.073     87.73824     175.3372      350.744      1.983     5.02     1117.448     61.79362     412.4241        34     1.895     1.058 -44.40   0
        52    780.9341    936.9432 307.5819796  +6.3030776     1131.841     1766.734     1763.779     88.01633     175.2674     350.5698      1.731     5.19     1109.799     61.79362      157.201        14     1.410     0.835 -41.29   0
        53    642.0894    936.2549 307.6397042  +6.2987352     3872.549     6985.729     7394.061      87.8774     175.1977     350.7091      1.936     5.12     1112.149     61.79362     490.2997        32     1.797     0.956 -38.78   0
        54    991.7621    936.1763 307.4943874  +6.3104074     758.3133      1297.98     1801.759     87.45926     175.0582     350.3257      1.949     5.53      1103.79     61.79362     110.8729         8     1.334     0.761   1.34   0
        55    463.9243    934.9063 307.7137906  +6.2933460     850.7278     1531.193     1491.967     87.73824     175.5461     350.5698      1.766     5.48     1115.904     61.79362     136.0502        10     1.241     0.807 -41.27   0
        56     23.3882    934.3143 307.8968779  +6.2788432     1625.867     3068.801     3130.569     87.45926     175.0582     350.3954      2.003     5.97     1117.015     61.79362      206.152        20     1.600     0.921 -32.62   0
        57    874.1130    933.0707 307.5433860  +6.3077783     870.5659      1319.16      803.302     88.01633     175.6157     350.5698      1.468     5.51     1107.651     61.79362      128.543        11     1.128     0.759 -43.12   0
        58    566.8736    928.7521 307.6712155  +6.2993249     1320.398     2402.576     2030.859      87.8774     175.4068     350.6046      1.922     6.92     1114.158     61.79362      181.548        20     1.759     0.939 -40.73   0
        59    998.6057    928.4745 307.4918023  +6.3138158     741.6859     1627.773     1898.578     87.45926     174.7787     350.4652      2.182     7.07     1103.164     61.79362     101.1324        12     1.972     0.711 -66.15   0
        60    965.8102    930.3617 307.5053685  +6.3119464     607.6373     898.4979      390.082     87.03912      175.128     350.2559      1.577     4.13     1104.461     61.79362     94.03577         6     1.222     0.399 -30.56   0
        61    921.4150    940.3289 307.5234835  +6.3063539      1859.56     3098.932     3443.016     87.31944     175.2675     350.4652      1.809     5.05     1106.584     61.79362     260.8656        20     1.646     0.763 -40.88   0
        62    606.2240    925.4821 307.6549727  +6.3019883     907.3448     1549.538     1544.844     87.73824     175.0582        350.5      2.148     6.41     1113.166     61.79362     106.3141        13     1.585     0.727 -31.54   0
        63    286.1740    923.2283 307.7880527  +6.2922263     1171.238     2155.709     2511.682     87.31944      175.128     350.4303      1.912     6.96      1117.27     61.79362     133.6813        17     1.360     0.998 -43.36   0
        64    753.1409    919.1164 307.5941309  +6.3095146     738.3233     1217.272     1374.905     88.01633     175.4068     350.6395      1.983     4.85     1109.152     61.79362     142.0076         7     1.400     0.476 -43.41   0
        65    890.2994    915.7386 307.5372425  +6.3154752     5937.471     10450.45     11144.48     87.59886     175.2675     350.7091      1.885     5.14     1106.508     61.79362     807.6703        36     1.915     0.943 -40.43   0
        66    426.5612    912.9567 307.7300598  +6.3011630     1617.139     2927.963     2893.957     87.59886     175.2675     350.4303      1.921     5.05     1115.659     61.79362     208.5629        18     1.592     0.789 -36.87   0
        67    328.0126    911.3046 307.7710697  +6.2985505      7203.43     13827.89     14649.81     87.59886     175.0582     350.3606      2.055     4.96     1117.065     61.79362     804.4434        49     1.915     1.227 -42.18   0
        68    247.9463    910.3718 307.8043742  +6.2962566     5465.278     10461.57     11220.29     87.59886     175.4068     350.4652      2.062     5.04     1117.147     61.79362     647.0493        44     1.988     1.221 -39.32   0
        69    576.2253    904.5485 307.6681464  +6.3096332     861.5106     1579.936     1567.335     87.45926     175.3372     350.4652      2.161     4.38     1113.073     61.79362     131.0978         7     0.955     0.571 -52.35   0
        70    760.4528    903.6345 307.5916140  +6.3161523     739.2451     1321.792     1698.383     87.73824     175.3372     350.4652      1.873     4.44     1108.375     61.79362     118.7687         7     1.063     0.528 -45.88   0
        71    906.0266    900.9099 307.5312054  +6.3221228     974.1528     1808.871     1459.089     88.01633     175.0582     350.4303      1.937     5.98     1105.466     61.79362     143.8561        12     1.706     0.590 -30.31   0
        72    742.2973    893.8893 307.5994878  +6.3195724     1493.493     2807.802     3379.856      87.8774     175.8243     350.5698      1.937     5.86     1108.138     61.79362     205.8342        20     1.794     0.799 -41.24   0
        73    834.6854    894.4227 307.5610734  +6.3224285     501.9174     726.5604     485.5335      87.8774     175.0582     350.4652      1.150     4.39     1106.902     61.79362     101.0685         7     1.186     0.463 -40.13   0
        74    607.1329    890.4670 307.6557769  +6.3164801     753.6612     1585.009     1437.858      87.8774     175.3372     350.6046      2.102     5.31     1111.189     61.79362     118.5465         7     1.143     0.697 -32.42   0
        75    527.7148    890.0396 307.6887968  +6.3140064     924.1635     1587.409      1309.94      87.8774     175.2675     350.5349      1.962     5.80     1114.025     61.79362     123.4548        11     1.284     0.738 -63.90   0
        76    973.8260    889.5267 307.5034106  +6.3290783     1193.244     2086.545     2117.925     87.45926     175.1977        350.5      1.824     6.02     1101.487     61.79362     161.2682        12     1.230     0.829 -35.85   0
        77    661.0456    887.1680 307.6334825  +6.3196406       2009.4     3694.764     4430.543     87.59886     175.3372     350.4303      2.036     5.18     1109.552     61.79362     229.2629        27     1.636     1.074 -32.02   0
        78    950.8818    885.1278 307.5130944  +6.3301325     649.9639     897.3173     1267.181     88.15505     175.6853     350.6046      1.631     3.57      1102.69     61.79362     132.9447         5     1.256     0.293 -57.19   0
        79     57.7137    883.5923 307.8843356  +6.3009422     2358.067     4668.973     4789.375     87.45926     174.9884     350.3606      2.093     5.54     1115.963     61.79362     275.3916        31     1.778     1.168 -43.46   0
        80     75.3224    882.7130 307.8770480  +6.3018959     1548.819     2805.941       3720.9      87.8774     175.6853     350.6743      2.189     6.67     1115.943     61.79362     213.7274        23     1.726     1.056 -59.84   0
        81    822.2861    883.2629 307.5666024  +6.3266249     761.1767     1209.194     1452.785     88.01633     175.4765     350.6046      1.674     4.85     1106.496     61.79362     152.0659         9     1.354     0.574 -33.32   0
        82    201.3536    882.6750 307.8246751  +6.3061351     1675.673     3344.746     3550.943     87.73824     175.4068     350.5698      2.080     5.15     1116.659     61.79362     195.7936        26     1.594     1.083 -45.17   0
        83    655.5537    876.3899 307.6361286  +6.3239089     5501.747     10395.91      11612.3     87.31944     175.1977     350.1861      2.059     5.49     1109.315     61.79362     735.3071        40     1.965     1.053 -40.21   0
        84    235.8416    878.6263 307.8104800  +6.3089621     625.7302      1266.68     961.7166     87.45926     175.2675     350.3954      2.152     4.07     1116.861     61.79362      126.233         5     1.470     0.322 -28.23   0
        85     15.7128    874.5143 307.9020977  +6.3032824     935.4073     1952.643     1926.121     87.59886     175.5461     350.6395      2.022     6.35     1115.783     61.79362     111.5079        13     1.600     0.708 -22.93   0
        86    893.2919    872.5938 307.5374512  +6.3333941     2426.771     4139.387     4489.125     87.45926     174.9884     350.3606      1.826     5.22     1104.891     61.79362     325.0159        23     1.746     0.824 -41.59   0
        87     29.4105    872.5865 307.8964709  +6.3045381      780.523     1579.666     1510.186     87.59886     175.0582        350.5      1.997     6.67     1115.743     61.79362     140.7228        12     1.832     0.909 -60.78   0
        88    338.6595    869.5534 307.7680583  +6.3161498     12155.43     23406.98     26351.88      87.8774     175.3372     350.7091      2.085     5.02      1116.41     61.79362     1408.088        53     1.980     1.241 -40.80   0
        89     73.7907    870.4816 307.8780996  +6.3068959     955.4023     1946.806     2122.736     87.45926     174.9185     350.3954      2.287     6.91     1115.684     61.79362     123.1345        13     1.446     0.927 -42.20   0
        90    209.7389    868.8920 307.8216575  +6.3121083     996.8588     1695.445     1688.457     87.73824     175.4068     350.6743      1.811     6.25     1116.552     61.79362     125.4027        10     1.187     0.925  89.57   0
        91    101.9646    860.1364 307.8667425  +6.3121131     1281.089     2434.157      2622.93     87.73824     175.3372     350.5698      2.039     6.87     1115.548     61.79362     146.2161        19     1.578     0.979 -40.85   0
        92    416.4896    859.9314 307.7360386  +6.3227259     823.0676     1472.477     1801.811     88.01633     175.5461     350.5698      1.930     4.94     1113.891     61.79362     144.8856         7     1.099     0.629 -44.82   0
        93    883.6013    854.2182 307.5420973  +6.3406611     1633.782     2976.331     2894.406     87.45926     174.8486     350.2559      1.794     5.02     1104.193     61.79362      231.443        18     1.500     0.889 -30.38   0
        94    339.8275    878.5131 307.7672696  +6.3124886     800.2591     1516.533     1875.157     88.01633     175.0582     350.4303      1.876     4.32     1116.526     61.79362     137.6831         7     1.111     0.479 -45.64   0
        95    854.4924    853.7373 307.5542117  +6.3398912      1833.47     3100.018       2675.7      87.8774     175.4068     350.6395      1.821     5.25      1104.89     61.79362     236.5389        22     1.580     0.948 -25.89   0
        96    817.9429    853.1096 307.5694234  +6.3389340      2578.29     4673.953     4788.681     87.73824     175.2674     350.6743      1.937     4.96     1104.921     61.79362     361.9349        25     1.710     0.908 -40.02   0
        97     85.4643    854.0143 307.8738072  +6.3140882     1835.384     3345.125     3671.199     87.31944     175.1977     350.4303      2.134     4.71     1115.437     61.79362     223.5465        19     1.454     0.874 -38.49   0
        98    553.7294    844.7154 307.6795163  +6.3335939     250074.6     478261.6     527435.4     88.01633     175.6157     350.6046      2.065     5.01     1111.453     61.79362     28504.84       155     2.137     1.387 -39.95   0
        99    398.0945    847.3306 307.7441098  +6.3273152     5483.801     10756.45     11970.79     87.73824     175.4068     350.6046      2.091     5.24     1114.097     61.79362      608.592        44     1.985     1.152 -37.86   0
       100    341.2394    845.8130 307.7677897  +6.3260409     9010.254     18166.46     20218.17     87.31944      175.128     350.3257      2.136     5.26     1115.726     61.79362      982.027        52     2.017     1.239 -39.08   0
       101    641.8044    847.6147 307.6428139  +6.3353348     1074.947     2076.583     1933.087     87.45926     174.9884     350.3954      1.936     6.50     1108.427     61.79362       138.45        15     1.404     0.844 -15.44   0
       102    659.7828    842.1207 307.6355272  +6.3382034     2678.491     5190.958     5552.451     87.45926     174.9884        350.5      2.016     5.58     1107.846     61.79362     284.9238        32     1.885     1.047 -32.64   0
       103    892.0344    840.7336 307.5390463  +6.3465110     4462.307      7966.27     8728.494     87.73824     175.4068     350.6395      1.927     4.98     1103.048     61.79362     627.1597        33     1.788     0.995 -37.62   0
       104   1023.6157    836.1678 307.4845114  +6.3527709     1903.433     2388.368     2627.746      76.7436     139.9104     264.6499      1.148     3.72     1095.189     61.79362     464.1837        11     1.216     0.534 -81.52  24
       105    634.4987    835.9923 307.6462424  +6.3398913     2620.967     4815.491     5191.746     87.59886     174.9185     350.3606      1.945     4.98     1108.053     61.79362     326.3383        29     1.700     1.050 -40.95   0
       106    822.7867    834.9797 307.5680210  +6.3465831     1329.703     2371.114     2261.198     87.59886     174.9884     350.4652      1.988     5.11     1103.923     61.79362     190.9265        18     1.477     0.916 -31.28   0
       107    626.8580    831.4947 307.6495698  +6.3414940     1609.946      3913.81     5571.964     87.73824     175.3372     350.7091      2.962     9.86     1107.972     61.79362     195.6758        34     2.513     1.079 -55.23   0
       108    910.9602    828.5703 307.5315898  +6.3521641     2553.375     4496.148      4524.39     87.31944     174.9884     350.3954      1.894     5.39     1101.433     61.79362     345.5492        23     1.722     0.833 -40.99   0
       109    321.4146    830.1102 307.7765603  +6.3318630     709.2975     1284.169      1122.24     87.59886      175.128     350.3954      1.772     4.55     1115.771     61.79362     98.15222         7     0.959     0.613   7.48   0
       110    369.0324    824.8295 307.7569492  +6.3356365     1806.514     3840.613     4462.454     87.31944     175.0582     350.2559      2.285     6.45     1114.302     61.79362     223.3619        30     1.748     1.229 -29.63   0
       111    505.6460    814.1928 307.7005314  +6.3445946     2158.453     4101.303     4342.846     87.31944     175.0582     350.1861      1.995     5.41     1110.354     61.79362     242.3297        28     1.705     1.079 -44.22   0
       112    849.9570    813.1042 307.5574652  +6.3565223     929.6689     1657.605     1930.791      87.8774     175.2674     350.7091      1.920     6.27     1102.572     61.79362     109.6245        13     1.361     0.811 -26.17   0
       113    552.1472    810.5701 307.6813273  +6.3476433     4222.055     8377.037     9449.652     87.59886     175.4765        350.5      2.119     5.19     1109.198     61.79362     471.0962        39     1.915     1.155 -36.91   2
       114    558.2488    810.2101 307.6788035  +6.3479956      1000.53     2337.922     2833.659     87.31944      175.128      350.221      2.515     8.02     1108.953     61.79362     115.5007        17     1.644     1.094 -20.81   3
       115    470.1153    809.2233 307.7154664  +6.3454603     1110.124     1910.676     1980.241     87.73824     175.0582     350.4652      1.891     6.15     1110.854     61.79362     143.6172        13     1.418     0.750 -35.53   0
       116    111.5030    808.7089 307.8645233  +6.3336720     1183.055     2120.445     2489.447      87.8774     175.8938     350.5698      1.988     7.09     1114.899     61.79362     138.6807        14     1.263     1.115 -34.50   0
       117    887.7462    808.3174 307.5419200  +6.3597567     1133.759     2059.717     2305.853      87.8774     175.3372     350.6743      2.086     5.23     1101.058     61.79362     157.4891        16     1.509     0.784 -30.53   0
       118    522.8545    804.4023 307.6937102  +6.3492127      14180.6     28048.08     30737.48     87.17939     175.0582     350.1512      2.120     5.11     1109.346     61.79362     1559.892        60     2.023     1.289 -39.04   0
       119    249.9641    805.0359 307.8071042  +6.3398275     663.0667     1460.266     2978.814     87.59886     175.0582     350.2908      5.008     7.93     1116.119     61.79362     99.85352         7     2.730     0.644 -64.85   2
       120    250.9490    801.6427 307.8068099  +6.3412618      465.779     1416.443     3436.595     88.01633     175.3372     350.6046      3.833     3.90     1116.081     61.79362      88.4502         4     0.886     0.492  12.92   3
       121    936.3923    802.5726 307.5218944  +6.3637473     3297.881     5708.057     6005.866     87.45926      175.128     350.3606      1.864     5.71     1098.334     61.79362     445.2471        26     1.778     0.854 -41.50   0
       122     33.3660    795.1499 307.8974562  +6.3366512       1099.7     2220.917     1673.215     87.73824     175.3372        350.5      2.075     7.34     1114.882     61.79362     128.2582        16     1.872     0.806 -32.04   0
       123    315.5791    792.9948 307.7802422  +6.3469964     2334.615     4527.458     4242.862     87.45926     175.0582     350.3606      1.951     5.67      1114.74     61.79362     256.3745        28     1.785     1.015 -32.29   0
       124    780.9130    788.9156 307.5869771  +6.3642139     43225.51     79493.68     86365.07     87.59886     175.5461     350.6395      1.993     5.02     1101.714     61.79362     5214.887        75     2.012     1.200 -40.06   0
       125     15.5803    791.2900 307.9049788  +6.3376486      1446.17     3293.664     3581.743     87.73824     175.0582     350.3954      2.306     7.22     1114.779     61.79362     189.7825        26     1.847     1.050 -46.09   0
       126    237.7472    765.4821 307.8135219  +6.3557540     776542.2      2254404      2689220      87.8774     175.3372     350.6046      2.692    10.11     1114.634     61.79362     63327.61       561     2.782     2.144 -59.04   4
       127    906.1462    784.0833 307.5350881  +6.3703778     7362.126     12924.34     13896.82      87.8774     175.3372     350.7091      1.876     4.65     1098.902     61.79362     1007.907        39     1.923     0.978 -40.43   0
       128    709.1757    783.5201 307.6169754  +6.3640524     16528.35     31572.17     36035.56     87.59886      175.128     350.5698      2.076     4.97      1103.22     61.79362     1886.925        61     2.023     1.249 -37.80   3
       129    702.8937    780.0543 307.6197033  +6.3652745     66105.02     126044.7     138047.2     87.73824     175.2674     350.8137      2.041     5.02     1103.302     61.79362     7740.369        84     2.059     1.259 -39.24   3
       130    347.8737    780.9648 307.7672275  +6.3530451     13910.17     28963.63     32653.79     87.73824     175.3372     350.5349      2.208     5.21     1112.794     61.79362     1432.692        62     2.041     1.368 -41.30   0
       131    409.7599    778.8022 307.7415798  +6.3560075     15069.02     31415.46     34974.15     87.03912     175.0582     350.2908      2.189     5.18     1111.464     61.79362     1570.059        67     2.062     1.399 -40.62   0
       132    396.7732    781.3400 307.7468914  +6.3545253     1013.456     2009.188     2120.475     87.45926     175.4068     350.4303      1.980     6.15     1111.792     61.79362     123.8945        14     1.351     0.788 -43.19   0
       133    643.2731    775.0053 307.6446540  +6.3653721     4550.124      9080.57     10712.51     87.45926     174.8486     350.4652      2.277     6.04     1104.876     61.79362     531.1528        50     2.771     1.150 -37.32   0
       134    946.5439    777.7856 307.5185091  +6.3743222     1748.278     3094.892     3562.033     87.17939     175.1977     350.2559      1.919     6.02     1097.031     61.79362     222.1123        22     1.687     0.920 -35.42   0
       135    903.1173    775.5650 307.5366338  +6.3737952      5604.77     9678.965     10535.62      87.8774     175.3372        350.5      1.861     4.90     1098.685     61.79362     705.6238        35     1.845     0.962 -36.69   0
       136    432.4517    772.7628 307.7323529  +6.3592602     1349.782     2502.866      2938.83     87.73824     175.3372     350.5349      2.134     5.73     1110.402     61.79362     173.4308        21     1.589     0.925 -35.01   0
       137    157.0171    772.3478 307.8468412  +6.3502143     606.2682     1192.536     788.7868     87.31944     175.4068     350.2559      1.875     2.35     1114.613     61.79362     111.8325         5     0.835     0.476  -0.08   0
       138    412.6521    761.5071 307.7409628  +6.3632471      36975.4     75165.47     84403.77     87.73824     175.1977     350.8137      2.161     5.18     1110.657     61.79362     3950.718        81     2.118     1.404 -41.15   0
       139    121.9893    766.6677 307.8615915  +6.3513861     597.3162     1259.301     1261.854     87.31944      175.128     350.3954      2.028     6.87      1114.27     61.79362     81.84485         8     1.276     1.038  59.57   2
       140    871.7554    766.5441 307.5499730  +6.3764776     802.0991     1348.905     1455.411      87.8774     175.3372     350.5698      1.972     4.85     1099.708     61.79362     108.5082         6     0.928     0.720 -20.26   0
       141    678.7780    764.7797 307.6302420  +6.3707792     1879.662     3697.263     4038.143     87.59886     175.2675        350.5      2.031     4.92     1103.518     61.79362     251.6157        24     1.446     1.111 -33.23   0
       142    955.9476    762.7062 307.5151078  +6.3808629     688.6979     1365.273     1441.815     87.73824     175.1977     350.8485      2.268     5.72     1096.407     61.79362     114.9651         9     1.404     0.657 -37.52   0
       143    530.4011    760.5251 307.6920562  +6.3675862     4810.964     9867.324     10645.05     87.03912     174.7088     350.4303      2.165     5.58     1106.885     61.79362     536.2909        47     1.971     1.292 -41.13   0
       144    447.3933    758.9421 307.7266102  +6.3654674     3007.079     6398.292     7620.337     87.31944     175.1977     350.2559      2.412     5.58     1108.969     61.79362     323.2202        43     1.940     1.425 -37.65   0
       145    775.5052    757.0162 307.5903000  +6.3772087     9044.396     16892.09     18665.95     87.59886      175.128     350.3954      1.994     5.10     1100.222     61.79362     1021.117        49     1.889     1.196 -36.21   0
       146    443.8650    752.5528 307.7282928  +6.3679884     1497.802     3036.984     3607.747     87.73824     175.2675     350.6395      2.095     6.74     1108.805     61.79362     167.0314        21     1.607     0.938 -30.22   0
       147      5.6793    753.6172 307.9103730  +6.3528747     833.4873      1450.93     1679.099     87.45926     174.9884     328.9185      2.009     4.87     1112.877     61.79362     112.5084         6     1.337     0.503 -37.28  16
       148    797.2957    751.1579 307.5814403  +6.3803539     1060.319     1827.075     2017.993      87.8774     175.2675     350.7091      1.952     6.58      1099.41     61.79362     109.8822        14     1.435     0.847 -30.25   0
       149    133.4616    749.2151 307.8574156  +6.3589785      7891.49     16417.46     19092.38     87.31944     175.2675     350.3606      2.204     5.28     1113.999     61.79362     883.8246        58     2.001     1.368 -39.30   3
       150    141.5692    749.4731 307.8540372  +6.3591437     2060.316     4385.022     4604.449     87.73824     175.3372     350.5698      2.135     6.41     1114.043     61.79362     231.7019        27     1.778     1.098 -32.18   3
       151    921.0046    745.5842 307.5302082  +6.3867726     5305.611     9311.974     9882.289     87.45926     174.9884     350.3954      1.876     4.86     1096.547     61.79362        678.7        35     1.823     0.977 -37.35   0
       152    125.8040    746.5653 307.8606881  +6.3598161     2037.805     4225.374     5798.228     87.03912     175.1977     350.3257      2.370     6.01     1113.927     61.79362       236.09        28     1.775     1.068 -48.92   3
       153    125.7853    740.4370 307.8609037  +6.3623465     1368.577     2980.573     3905.794     87.45926      175.128     350.3257      2.538     5.78     1113.797     61.79362      160.652        22     1.577     1.066 -48.72   3
       154    970.1154    745.7045 307.5097910  +6.3883558     1338.936     2049.311     2858.624      87.8774     175.7548     350.6743      1.912     5.96     1095.864     61.79362     179.5571        16     1.591     0.716 -35.47   0
       155    676.4904    743.3096 307.6319173  +6.3795703     1334.151     2659.673     3000.906      87.8774     175.8938     350.6743      2.092     7.68     1102.442     61.79362     167.2206        21     1.784     0.951 -40.30   0
       156    563.1785    742.6548 307.6790365  +6.3760609      1618.46      3063.86     2998.424     87.31944     175.3372     350.3606      2.078     7.07     1105.229     61.79362      200.066        27     2.006     0.956 -36.19   0
       157    411.5027    741.6069 307.7421137  +6.3714274     865.4506     1475.262     1098.931     87.59886     174.9185     350.2908      1.791     5.83     1109.772     61.79362     109.7037        10     1.187     0.805 -44.21   0
       158    944.6716    737.1513 307.5206547  +6.3910425     2463.127     4308.007     4236.986      87.8774     175.4068     350.6046      1.845     5.64     1095.787     61.79362     339.3467        25     1.855     0.841 -38.63   0
       159    915.2454    737.5343 307.5328730  +6.3899058     2321.289     4350.963     5004.178      87.8774     175.2675     350.5698      2.063     5.91     1096.455     61.79362     291.6692        26     2.035     0.790 -35.49   0
       160    975.6223    736.8102 307.5078012  +6.3922123     1559.037     2856.294     3388.161     87.45926     175.0582     350.3954      2.146     5.86     1095.696     61.79362     200.0963        19     1.656     0.769 -39.44   0
       161    668.0184    736.8469 307.6356567  +6.3819569     1120.952     2034.428     2102.757     87.31944     175.2674     350.3606      1.952     6.21     1102.284     61.79362     141.4961        14     1.334     0.813 -45.32   0
       162    240.2594    732.0306 307.8136113  +6.3696534     1295.817     2390.644     3814.777     87.59886     175.3372     350.5349      2.699     7.89     1113.226     61.79362     150.1189        21     1.679     1.036 -34.21   0
       163    907.0212    725.9267 307.5366823  +6.3944263      900.237     1879.119       2126.7     87.45926      175.128        350.5      2.099     6.88     1096.242     61.79362     119.6077        15     1.984     0.669 -38.22   0
       164    959.5873    724.8077 307.5148702  +6.3966365     2040.321     3578.105     4058.207     87.45926      175.128     350.4652      1.899     5.96     1095.093     61.79362     254.0332        23     1.704     0.897 -41.59   0
       165    933.3965    727.1734 307.5256771  +6.3947886     966.9385     1523.174     1709.484     87.31944     175.0582     350.3954      1.821     4.65     1095.378     61.79362     127.0892         9     1.023     0.709  -6.82   0
       166    814.8280    734.6277 307.5747100  +6.3877648     838.0932     1586.027     2067.548     87.31944      175.128     350.3606      2.067     5.00     1098.402     61.79362     128.4476         8     1.329     0.533 -31.85   0
       167   1001.6893    717.8914 307.4976025  +6.4008924     1388.291      2396.49     2745.167      87.8774     175.8938     350.6743      1.760     6.76     1094.302     61.79362     172.9282        17     1.642     0.781 -35.17   0
       168    468.8311    719.5987 307.7190304  +6.3824327     484.7086     955.3903     1286.523     87.17939      175.128     350.3606      2.293     3.53     1105.952     61.79362     88.26562         5     0.787     0.456  16.28   0
       169    802.6226    716.9108 307.5803804  +6.3946757     820.7334     1730.027     2223.299      87.8774      175.128     350.4303      2.384     6.01     1097.582     61.79362     124.7563        12     1.590     0.639 -35.49   0
       170    889.4439    713.7172 307.5443996  +6.3988843     1234.327     1897.781     2648.888      87.8774     175.3372     350.5349      1.758     3.27     1096.392     61.79362     174.9019        10     1.058     0.626 -38.34   0
       171    649.5806    709.1550 307.6442550  +6.3927792     401.0834     929.1423     877.1634     87.45926     175.1977     350.3954      1.993     4.41     1100.938     61.79362     91.60999         5     1.306     0.425 -59.19   0
       172    863.8254    708.8032 307.5552138  +6.4000615     637.2878     1095.728     979.7595     87.31944     174.9884     350.3606      1.792     5.03     1097.071     61.79362      89.3374         7     1.251     0.572 -15.86   0
       173    845.5701    705.5870 307.5629102  +6.4007823     1202.374     2330.098     2504.535     87.31944      175.128        350.5      2.102     6.80     1096.967     61.79362     126.7686        16     1.638     0.792 -44.11   0
       174     45.3131    704.6800 307.8955628  +6.3744151     1714.759     3537.605     3564.076     87.59886     175.6157     350.7091      2.067     5.74     1112.382     61.79362     218.5928        27     1.720     1.170 -52.56   0
       175    657.5632    692.9979 307.6414823  +6.3997183     4446.274     8749.706     9245.339     86.89862      175.128     350.3606      2.056     5.25      1099.88     61.79362     546.8752        41     1.881     1.221 -36.50   0
       176    604.4833    691.8235 307.6635851  +6.3984329     980.2164     2329.897     3027.792     87.73824     175.0582        350.5      2.703     8.70      1100.81     61.79362     129.6575        17     1.835     1.153 -57.21   0
       177    120.8087    689.0002 307.8647172  +6.3834226     2445.045     5357.692     5649.769     87.17939     174.9884     350.3257      2.239     6.23     1112.371     61.79362     272.2415        32     1.842     1.171 -36.42   0
       178    994.4122    688.0868 307.5016300  +6.4129603     2268.693     3760.712     3771.668     87.45926     175.0582     350.4303      1.816     5.12     1092.387     61.79362     307.7764        22     1.672     0.829 -39.50   0
       179    631.4713    688.4956 307.6524796  +6.4007076     1343.981     3098.892     3708.152     87.73824     175.4068     350.5698      2.244     7.75     1099.984     61.79362     148.6497        24     1.812     1.007 -33.96   0
       180    904.4339    684.6569 307.5391472  +6.4113853     2936.439     4656.566     4464.793     87.73824     175.3372     350.5698      1.781     4.85     1094.485     61.79362     418.1611        23     1.640     0.849 -41.53   0
       181    473.7716    685.0614 307.7181447  +6.3968618     786.4155     1478.332     1783.351     87.45926     175.3372        350.5      1.884     5.71     1104.738     61.79362     130.3385         9     1.614     0.569 -27.67   0
       182    248.1359    678.9035 307.8121380  +6.3918585     3989.886     8542.128      9861.99     87.73824     175.4765     350.6046      2.309     5.46     1110.211     61.79362      414.894        46     2.012     1.345 -41.68   0
       183    655.0859    677.9448 307.6430200  +6.4058528     4827.372     9538.833     10984.08      87.8774     175.3372     350.7788      2.173     5.33     1099.047     61.79362     532.6544        42     2.015     1.165 -41.77   0
       184    774.5255    685.0505 307.5931332  +6.4068986     14956.89     28268.22     31247.32      87.8774     175.4068     350.6046      2.050     5.09     1096.689     61.79362     1719.252        61     2.030     1.234 -37.82   0
       185    915.2213    669.9749 307.5351575  +6.4178080     1046.642     1852.985     1315.405     87.45926      175.128        350.5      1.707     4.81     1093.431     61.79362     177.1786        12     1.340     0.722 -39.36   0
       186    726.8922    666.3110 307.6135649  +6.4130513     2599.901     5192.273     6424.036      87.8774     175.8938     350.6395      2.347     5.54     1096.738     61.79362     262.7186        31     1.841     1.089 -45.97   0
       187    682.6661    666.1762 307.6319530  +6.4116329     831.1475     1265.399     681.0145     87.45926     175.3372        350.5      1.682     5.68     1097.808     61.79362     119.0559        10     1.201     0.757 -55.11   0
       188    993.0124    662.8033 307.5030624  +6.4233563     7304.596     13046.86     13829.51     87.45926     174.9884     350.4303      1.873     4.94     1090.878     61.79362     956.9719        39     1.788     1.038 -38.33   0
       189    931.3282    663.4372 307.5286822  +6.4210438     2099.389     3599.884     3807.241     87.73824     175.3372     350.6395      1.892     6.05     1092.579     61.79362     255.6771        22     1.872     0.779 -37.88   0
       190     12.7586    662.5854 307.9105227  +6.3907073     1236.845     2739.414     3133.456     87.17939      175.128     350.2559      2.190     5.70     1111.643     61.79362     179.7773        25     1.645     1.259 -38.94   0
       191     70.6117    657.9264 307.8866353  +6.3945725     16929.68     36025.43     40926.93     87.31944     174.9185     350.3606      2.259     5.16     1111.428     61.79362     1833.289        73     2.100     1.468 -42.02   0
       192    531.8746    658.6934 307.6948850  +6.4096924     1409.281     2943.039     3172.024      87.8774     175.4765     350.5349      2.234     6.10     1102.499     61.79362     183.0031        22     1.582     0.985 -52.50   0
       193    500.8930    655.4959 307.7078710  +6.4099784     935.8892     1757.139     1752.267      87.8774     175.8938     350.5349      1.963     4.69     1102.971     61.79362     134.6958        10     1.138     0.850 -18.61   0
       194    921.7980    654.4649 307.5329458  +6.4244325     843.4295      1477.89     1339.413     87.17939     175.0582     350.3257      1.945     4.71     1092.481     61.79362     111.0522         8     0.946     0.665 -55.09   0
       195    539.3364    653.0036 307.6919756  +6.4122914     670.1449     1427.483     2095.182     87.17939     175.0582     350.3257      2.992     5.36     1101.927     61.79362     90.01135         7     1.001     0.810  32.32   2
       196    716.4458    649.9593 307.6184588  +6.4194566     2459.646     4797.178     5369.361     87.73824     175.3372     350.3954      2.086     5.78      1096.13     61.79362     293.7792        29     1.846     1.010 -31.56   0
       197    738.5797    648.0442 307.6093228  +6.4209852     3002.107     5729.026     5881.077     87.31944     175.1977     350.3954      2.018     5.38     1095.569     61.79362     322.6674        32     1.797     1.090 -39.56   0
       198    569.9785    646.2172 307.6794679  +6.4161171     2199.682     4607.833     5148.781     87.59886      175.128        350.5      2.235     6.88     1100.105     61.79362     232.0344        28     1.878     1.108 -40.19   0
       199    314.0442    645.7352 307.7858670  +6.4077630     827.4884     1977.919     1867.104      87.8774     175.2675     350.5698      2.370     7.81     1106.905     61.79362      128.843        16     1.818     0.938 -51.00   0
       200    230.7558    645.6929 307.8204875  +6.4049923     1194.256     2690.695     3920.089      87.8774     175.2675     350.7091      2.718     7.75     1109.003     61.79362     138.5847        20     1.686     0.998 -40.19   0
       201   1011.3134    644.3247 307.4960765  +6.4315964     4207.183     7262.098     7803.957      87.8774     175.6853     350.6395      1.823     4.94     1089.315     61.79362     565.4034        27     1.692     0.912 -38.74   0
       202    976.6650    643.2849 307.5105145  +6.4308744     6771.318     11767.09     12803.76     88.01633     175.5461     350.6395      1.870     4.87     1090.283     61.79362     863.4971        38     1.828     1.011 -37.09   0
       203    406.8318    646.4628 307.7472743  +6.4105660     795.5222     1503.893     1979.666     87.59886     175.4068     350.5349      1.643     3.75     1104.128     61.79362     155.3877         6     0.824     0.490   7.82   0
       204    422.3770    637.4506 307.7411177  +6.4148077      1949.32     4209.725      4943.02     87.31944     175.4068     350.4652      2.288     5.75      1103.31     61.79362     213.4138        32     1.650     1.347 -47.59   0
       205    135.3071    636.8474 307.8604607  +6.4054473      15491.4     33160.04     37078.07     87.73824     175.2675     350.7091      2.248     5.36     1110.432     61.79362     1608.103        69     2.117     1.434 -40.63   0
       206    803.6528    637.3307 307.5826343  +6.4275775     875.4427     1604.063     1472.566     87.73824     175.1977        350.5      1.873     5.55     1094.458     61.79362     108.6993        10     1.526     0.569 -41.30   0
       207    971.6295    626.0603 307.5131873  +6.4378210     5543.749     10803.82     11985.81     87.59886     175.3372     350.5349      2.072     5.09     1089.566     61.79362      686.824        47     1.855     1.279 -35.04   0
       208     16.6235    625.5984 307.9101727  +6.4061121     841.6869     1564.991     1715.816     87.45926     174.9884     350.3257      1.866     6.02     1110.055     61.79362     104.6672        12     1.379     0.740 -56.60   0
       209    565.2448    621.5195 307.6822700  +6.4261594     31348.78      65709.6     75048.37      87.8774     175.3372     350.5698      2.272     5.45     1098.854     61.79362     3176.863        92     2.172     1.514 -41.51   0
       210   1023.7592    622.5373 307.4916356  +6.4410085     8847.899     10749.93     11658.42     75.13454     137.9756     262.2846      1.013     2.58     1087.707     61.79362     2853.633        21     1.450     0.519  89.32  24
       211    929.0388    623.8972 307.5309649  +6.4372983     635.4646     1066.339     1033.656      87.8774     175.1977     350.7788      1.760     4.68     1090.868     61.79362     97.98865         6     0.926     0.672 -43.47   0
       212    173.1982    618.1464 307.8453456  +6.4144407     1683.388     3998.998     4698.319     87.17939     175.0582     350.1512      2.480     6.95     1109.412     61.79362     212.1519        29     1.870     1.227 -47.53   0
       213     65.7024    612.6729 307.8902122  +6.4130971     923.6395     1720.674     1811.017     87.45926     175.4765     350.5698      1.989     7.34     1109.497     61.79362     100.8158        14     1.361     1.108 -43.93   0
       214    462.5051    605.3533 307.7255233  +6.4294050     40262.79     86822.07     99429.05     87.73824     175.2675     350.7091      2.304     5.46     1101.203     61.79362     3987.149        94     2.200     1.523 -40.44   0
       215      6.4633    606.9406 307.9150295  +6.4134766     1120.605     2295.716     3343.606      87.8774     175.2675     337.3547      2.450     7.87     1109.265     61.79362     138.6212        20     1.682     1.031 -25.85  16
       216    649.0397    602.1960 307.6480903  +6.4369360     630.2876     1311.954      1836.15     87.03912     175.0582     350.2559      2.283     4.28     1095.052     61.79362     97.22009         6     1.181     0.442 -27.89   0
       217    136.6892    599.9895 307.8611367  +6.4207157      973.157     2147.927     1858.606     87.59886     175.0582     350.3606      2.233     4.63     1108.857     61.79362     128.5957        11     1.144     0.809 -49.12   2
       218    308.3917    594.5724 307.7899494  +6.4287040     1309.561     2995.665     3884.717     87.45926      175.128     350.3954      2.555     8.75     1103.415     61.79362     148.3807        24     1.920     1.125 -53.31   0
       219    734.4281    588.9017 307.6130434  +6.4452732     3657.497     7248.086     7754.434     88.01633     175.0582     350.5349      2.076     5.01     1093.437     61.79362     421.2673        38     1.834     1.164 -40.41   0
       220    788.0345    584.0307 307.5909234  +6.4490709     9878.094     19447.25     21002.43     87.45926     175.0582     350.3257      2.081     5.00     1091.895     61.79362     1117.803        54     1.959     1.280 -39.83   0
       221   1005.7868    584.0607 307.5004011  +6.4563027     766.0651     1257.868     805.4614     87.31944      175.128      350.221      1.549     4.76     1086.392     61.79362      136.515         8     1.451     0.443 -47.50   0
       222    611.8631    582.4302 307.6642118  +6.4438593     1984.499     4056.178     4257.863     87.59886     175.4068        350.5      2.100     5.91     1095.234     61.79362     215.5847        30     1.831     1.079 -39.46   0
       223    531.1398    583.6461 307.6977268  +6.4406627     854.3849     1909.661     2472.564     87.73824     175.3372     350.6395      2.602     8.05     1097.907     61.79362     108.9589        12     1.492     1.214  46.68   0
       224    928.8192    577.8854 307.5326053  +6.4562945     869.7781     1566.914     2487.634     87.45926     175.0582        350.5      2.411     5.84     1088.142     61.79362     127.0029         9     1.114     0.862 -51.56   0
       225    224.7917    576.2343 307.8253211  +6.4334786      703.931     1435.661      1509.17     87.31944      175.128     350.3257      2.154     5.76     1105.775     61.79362     80.47351         9     1.352     0.691 -71.31   0
       226    370.5654    575.4543 307.7647526  +6.4386798      697.913     1278.481     1620.089     87.73824     175.3372     350.5698      2.045     4.13     1101.219     61.79362     87.13489         5     1.174     0.415 -35.63   0
       227    864.0709    567.2638 307.5598796  +6.4585272      2092.15     4003.631     4170.655      87.8774     175.3372     350.6046      2.063     5.54     1089.647     61.79362     255.6842        28     1.833     0.956 -37.88   0
       228    822.7279    564.9229 307.5771452  +6.4581179     1975.122     3764.424     4282.184     88.15505     175.6157     350.5698      2.089     5.62     1089.769     61.79362     273.9563        23     1.723     0.913 -43.96   0
       229    803.3076    556.0192 307.5855186  +6.4611486     110380.6     220478.5     245759.1     87.73824     175.0582     350.3954      2.155     5.21     1089.145     61.79362     12154.84       140     2.414     1.423 -35.21   0
       230    251.0655    559.8170 307.8149562  +6.4411388     4821.546     10513.21     11743.54     87.31944     175.1977     350.4303      2.318     5.39     1103.622     61.79362     514.2185        51     2.029     1.402 -40.93   0
       231    185.1527    554.4030 307.8425384  +6.4411668     35560.02     79843.86     93524.05     87.17939     175.0582     350.1512      2.367     5.51     1105.432     61.79362     3745.934        96     2.233     1.584 -40.50   0
       232    109.2182    550.5774 307.8742323  +6.4402014      3850.48     8685.293      9993.58     87.59886     175.2675        350.5      2.391     5.71     1106.534     61.79362     417.2554        46     1.984     1.368 -43.44   0
       233    974.4318    547.7669 307.5146571  +6.4702504     937.9146     1694.551     1868.268     87.31944     175.0582     350.2908      1.967     6.16     1085.347     61.79362     123.8156        14     1.696     0.629 -41.96   0
       234    995.9574    546.1915 307.5057614  +6.4716166     587.0265     966.0135     491.7026     87.31944      175.128     350.2908      1.833     6.11     1084.854     61.79362     101.0162         6     1.248     0.840 -38.37   0
       235    840.0584    543.1375 307.5706749  +6.4676924     3199.329      6220.18     7092.831     88.01633     175.2675     350.6046      2.146     5.58     1087.973     61.79362     398.8741        36     1.918     1.089 -39.49   0
       236    358.5245    541.5287 307.7709064  +6.4522883     10370.51     23274.04     27281.41     88.15505     175.5461     350.5698      2.414     5.67     1099.282     61.79362     1038.107        71     2.217     1.510 -41.40   0
       237    159.6607    541.6548 307.8535673  +6.4455774     1094.024     2061.254     2675.281     88.01633     175.2675     350.5349      2.378     4.44     1105.402     61.79362     136.1626        10     1.016     0.844  69.35   3
       238    161.9908    539.5411 307.8526705  +6.4465285     1095.932     2046.746     3601.862     87.17939     175.1977     350.2559      2.139     4.94     1105.241     61.79362     154.6338        12     1.216     0.728  53.92   3
       239    793.9786    536.5229 307.5900541  +6.4688900     4080.374     8160.387      9188.63     87.45926      175.128        350.5      2.118     5.11     1088.398     61.79362     483.4949        39     1.817     1.226 -40.54   0
       240    524.8552    536.4444 307.7019348  +6.4599474     4230.083     9009.416     10527.65      87.8774     175.3372     350.6046      2.341     5.29     1095.443     61.79362      442.785        51     1.991     1.446 -37.61   0
       241     98.4301    536.6481 307.8791895  +6.4455922     619.5139     1372.272     1169.946     87.45926     175.4068     350.4652      1.842     4.70     1106.222     61.79362       92.099         7     1.380     0.454 -81.29   0
       242    383.2967    533.1190 307.7608935  +6.4565900     712.9279     1580.254     1678.652     87.73824     175.6853     350.6395      2.375     6.40     1098.468     61.79362     102.7018        10     1.637     0.703 -24.46   0
       243    172.0284    529.5029 307.8488385  +6.4510106     4216.961     9184.023     10246.95     88.01633     175.0582     350.5698      2.326     5.32     1104.381     61.79362     444.2104        49     1.921     1.484 -38.68   0
       244    810.5215    528.8804 307.5834345  +6.4725974     995.8295     1914.934     2019.367     88.15505     175.6157      350.744      2.053     7.36     1087.605     61.79362     120.1222        17     1.669     0.908 -52.01   0
       245    267.1386    526.0576 307.8094190  +6.4556195     51702.55     117613.6     137699.3     88.01633     175.2675     350.6046      2.403     5.58     1100.595     61.79362     5212.462       110     2.260     1.639 -41.11   0
       246    569.8052    529.4015 307.6834868  +6.4643569     1599.775     3155.182     3272.272     87.17939     174.9884     350.3257      2.048     7.63     1093.839     61.79362     212.3525        20     1.642     0.992 -23.88   0
       247     43.7994    528.2389 307.9021837  +6.4472324     3139.122     7097.044     8054.684     86.89862      175.128     350.2559      2.302     5.68     1106.599     61.79362     347.3933        44     1.886     1.432 -47.46   0
       248    790.1492    518.3127 307.5922601  +6.4762835     11295.19     22231.57     25171.22      87.8774     175.1977     350.7091      2.132     5.13     1087.779     61.79362     1271.306        57     1.996     1.300 -40.96   0
       249    966.8158    519.6406 307.5187699  +6.4816138     1204.766     2388.472     2533.722     87.31944      175.128     350.3257      1.990     6.85     1083.691     61.79362     173.3875        15     1.587     0.830 -52.63   0
       250    493.8430    516.7897 307.7154914  +6.4670290     24580.48     57735.85     68673.66     87.31944      175.128     350.2908      2.477     5.72     1094.937     61.79362     2448.526        95     2.277     1.677 -34.25   0
       251    251.1774    520.8607 307.8162302  +6.4572313     980.5162     1994.342     2230.273     87.45926     175.2675     350.4652      2.163     5.27     1101.065     61.79362     125.9536        12     1.153     0.859  -4.62   0
       252    206.8457    513.0916 307.8349219  +6.4589550     1116.223     2723.178     3714.425      87.8774     175.2674     350.7091      2.697     8.38     1102.527     61.79362      133.267        23     1.804     1.218 -34.55   0
       253    653.9303    511.6310 307.6491148  +6.4745031     2047.439     4317.565     5526.814     87.73824     175.3372     350.5698      2.363     6.12     1091.011     61.79362     216.6859        30     1.797     1.100 -46.44   0
       254     42.7000    513.6381 307.9031366  +6.4532255     760.4105       1455.4     1703.915      87.8774     175.1977     350.8137      1.949     4.05     1106.289     61.79362     104.9624         6     0.914     0.513 -46.23   0
       255    663.7919    511.7751 307.6450103  +6.4747725     809.6259      1730.18     2248.899     87.45926      175.128     350.3954      2.059     6.56     1090.852     61.79362     142.6901        11     1.794     0.674  84.53   0
       256    391.5833    507.4865 307.7583164  +6.4674534     1181.209     2520.258     2416.454     87.45926     175.0582        350.5      2.197     8.23     1096.637     61.79362     147.8009        24     1.779     1.064 -30.10   0
       257    138.2718    504.4466 307.8637208  +6.4602271     15730.11     34970.28     39933.84      87.8774     175.4068     350.5698      2.350     5.47     1104.015     61.79362     1670.504        75     2.161     1.522 -42.54   0
       258    323.2387    505.5880 307.7867919  +6.4659511     2264.714     5295.433      5451.19     87.31944      175.128     350.2559      2.352     6.52     1097.086     61.79362     250.9353        38     2.007     1.306 -35.36   0
       259    502.4325    505.6302 307.7122980  +6.4719248     1122.823     2253.362     2579.043     87.31944     175.0582     350.2559      2.230     4.84     1094.154     61.79362     147.2943        12     1.202     0.869  72.08   2
       260    504.9332    503.9930 307.7113137  +6.4726845      853.536     1051.356      1351.54     87.31944     175.0582     350.3954      1.301     6.65     1093.974     61.79362     135.3302         8     1.807     0.686 -32.25   3
       261    866.0990    504.1916 307.5611614  +6.4846443     1136.392     1961.852     1828.847     87.59886     174.9185     350.3954      1.850     5.41     1086.288     61.79362     143.0149        16     1.351     0.977 -20.81   0
       262    103.6159    502.8438 307.8781813  +6.4597270     1715.821     3499.836     4583.664     87.31944     175.1977     350.3606      2.403     5.81     1105.285     61.79362     202.0326        23     1.581     1.073 -44.43   0
       263    963.6978    498.8091 307.5207673  +6.4901138     3783.765     7128.634     7839.453     87.59886     174.9185     350.3257      2.050     5.08     1082.438     61.79362     473.2887        34     1.821     1.033 -40.18   0
       264    537.3684    491.9275 307.6982377  +6.4787509     794.1079     1775.081     2513.323     87.73824     175.3372     350.5698      2.600     6.16     1092.517     61.79362     109.9681         9     1.489     0.715 -53.09   0
       265      3.0899    488.6954 307.9204492  +6.4621970     15850.55      31255.3     33523.89      87.8774     164.8489     293.8779      2.065     5.22     1106.045     61.79362     1692.959        56     1.897     1.356 -61.94  24
       266    435.2038    485.5101 307.7409266  +6.4779880     25669.12     57478.45     66172.44     87.31944     174.9884      350.221      2.367     5.56     1094.732     61.79362     2597.578        84     2.181     1.556 -38.89   0
       267    643.1182    485.1597 307.6545035  +6.4850753     7668.975     16400.87     18668.46      87.8774     175.4068        350.5      2.268     5.44     1089.414     61.79362     761.5222        57     2.107     1.367 -40.49   0
       268    200.4259    483.2448 307.8386029  +6.4710664     11092.58     26533.74     31093.93     87.31944     175.4068     350.4303      2.472     5.60     1101.066     61.79362     1090.461        75     2.196     1.641 -39.80   0
       269    166.6378    483.9774 307.8526237  +6.4696316     976.4662     2191.388     1956.734     87.45926     175.0582     350.3257      2.263     7.59     1101.828     61.79362     134.1157        16     1.593     1.012 -63.71   0
       270    976.6804    483.9668 307.5158695  +6.4966755     789.3417     1302.402     1680.253     87.73824     175.2675     350.5698      2.185     5.41     1080.964     61.79362     111.0234         8     1.461     0.565 -48.37   0
       271    565.1667    481.9747 307.6870177  +6.4837895     1859.099     4099.852     4816.226     87.17939      175.128     350.3606      2.338     7.71     1091.242     61.79362     216.7771        29     1.919     1.215 -48.21   0
       272    817.6937    482.6352 307.5820117  +6.4919360     886.3786     1552.329     1564.039     88.01633     175.1977     350.6743      1.846     5.84     1085.892     61.79362      107.835        10     1.300     0.738 -57.38   0
       273    938.7536    479.0282 307.5318036  +6.4974542     3611.361     6790.036     7524.437     87.45926     175.4068     350.4652      2.030     5.10     1082.202     61.79362     448.0391        36     1.813     1.106 -42.90   0
       274    612.0706    477.4463 307.6676714  +6.4872252     4151.152     8790.686      10578.7      87.8774     175.2675     350.5698      2.299     5.58     1089.884     61.79362     468.3978        45     1.965     1.333 -40.10   0
       275    100.3123    477.6855 307.8804087  +6.4700063     671.7759       1356.2     1860.343     87.59886     175.5461     350.6743      2.281     6.34     1104.794     61.79362       103.77         9     1.307     0.865 -68.70   0
       276    961.3954    471.2144 307.5226534  +6.5014343     2540.156     4752.587     5781.688     87.45926     174.9884     350.3954      2.015     4.75     1080.874     61.79362     329.5632        29     1.739     1.008 -42.47   0
       277    524.2551    468.7267 307.7044735  +6.4878949     4493.757     10284.96     12177.61     87.73824     175.1977     350.4652      2.377     5.93     1091.135     61.79362     447.7386        48     2.034     1.380 -39.88   0
       278    370.4702    469.0286 307.7683953  +6.4826303     1680.675     3672.709     3664.246     87.59886     175.3372        350.5      2.243     6.36     1093.873     61.79362     197.3003        28     1.897     1.046 -34.06   0
       279    880.8007    464.3874 307.5563904  +6.5015732     2270.343     4455.508     5448.167     87.45926     174.9884     350.3606      2.268     5.93     1083.729     61.79362     263.8048        27     1.779     1.002 -39.05   0
       280    888.3403    458.8042 307.5534439  +6.5041300     1493.426     2887.768      3172.46     87.17939     175.1977     350.2908      2.229     6.48     1083.117     61.79362     189.6023        22     1.788     0.857 -42.08   1
       281    926.9719    457.7811 307.5374172  +6.5058377     1037.507     2120.584     2167.744     87.45926      175.128        350.5      1.967     7.30     1081.315     61.79362     143.9332        15     1.563     0.954 -55.76   0
       282    711.9211    454.9990 307.6269178  +6.4998261     1868.334     4022.912     5048.663     87.03912     174.7088     350.3257      2.278     6.40     1086.254     61.79362     206.6744        28     1.877     1.031 -28.35   0
       283    382.9224    453.1540 307.7637562  +6.4896030     2326.255     5197.895     5606.748     87.73824     175.4068     350.5698      2.303     6.26     1092.257     61.79362     257.4558        37     1.872     1.296 -42.36   0
       284     74.5166    454.0666 307.8919339  +6.4788953     1212.409     2415.507      2508.89     88.15505     175.6157     350.6395      2.157     7.05     1104.027     61.79362     166.4437        17     1.527     0.911 -45.74   0
       285    610.6298    449.7273 307.6692067  +6.4986252     6151.042     13395.37     15208.33     87.73824     175.3372     350.5349      2.336     5.55     1088.401     61.79362     635.6061        55     2.104     1.404 -44.04   0
       286    773.5950    445.9910 307.6015810  +6.5056017     10941.06     22292.03     25970.62     87.17939     175.0582     350.3954      2.244     5.44     1084.987     61.79362     1183.485        71     2.388     1.320 -43.14   0
       287    293.2350    446.6408 307.8012619  +6.4892919     1499.468     3565.467     3291.181     87.59886     175.3372     350.3606      2.302     8.00     1093.422     61.79362     144.6738        27     1.856     1.133 -37.35   0
       288    376.5009    443.2257 307.7667619  +6.4934886     837.2407     1873.677     2354.416     88.01633     175.0582     350.4652      2.459     6.53     1091.505     61.79362     87.91736         9     1.317     0.910  -7.88   0
       289    958.5871    441.0385 307.5248368  +6.5138039     1477.501     2830.967     3009.012     87.45926      175.128     350.2559      2.183     4.83     1079.292     61.79362     176.4906        17     1.425     0.917 -26.50   0
       290    111.0016    438.4435 307.8772972  +6.4865713     2636.877     6089.575     7645.873     87.17939     174.9884      350.221      2.514     6.14     1102.078     61.79362     284.2634        41     1.950     1.375 -41.60   0
       291    748.8107    437.2613 307.6121795  +6.5083814     1470.598     3021.628     3412.366     87.17939     175.1977     350.2908      2.124     6.36     1084.781     61.79362     199.1166        22     1.712     0.944 -40.20   0
       292   1012.6080    435.8633 307.5025513  +6.5177371     3142.899     6111.179     6421.083     87.17939     175.0582     350.3606      2.024     5.23     1077.646     61.79362     355.2316        36     1.834     1.190 -33.20  16
       293    269.1761    435.3179 307.8116474  +6.4931627       973.17     2245.187     2374.205     87.73824     175.0582        350.5      2.328     7.36     1093.992     61.79362     125.0017        14     1.552     0.977 -58.43   0
       294    347.0500    433.0699 307.7793494  +6.4966977     1788.402     4231.978     4766.377      87.8774     175.2674     350.6046      2.430     7.41     1091.652     61.79362     200.2081        36     2.020     1.330 -30.71   0
       295    702.0858    431.2244 307.6318092  +6.5093173     1036.612     2076.021     2378.375      87.8774     175.0582     350.3606      2.095     6.71     1085.674     61.79362     119.6257        14     1.372     0.922 -70.15   2
       296    467.0771    421.6907 307.7298351  +6.5054107     835.2943     1637.408     2133.573     87.59886     175.6157     350.5698      2.367     6.55     1087.287     61.79362     94.65405        11     1.288     0.936 -23.45   0
       297    814.5975    419.7669 307.5854184  +6.5177981     1214.407     2476.017     3006.946     87.03912      175.128     350.2908      2.294     7.17     1083.538     61.79362     154.3312        18     1.514     0.993 -35.12   0
       298    711.8087    418.0188 307.6282125  +6.5150955     9365.849     19889.54     23218.02     87.59886     174.9884     350.3606      2.260     5.30     1084.886     61.79362     979.8773        55     2.041     1.358 -40.69   0
       299    829.3033    420.3110 307.5792859  +6.5180630     932.6372      1633.48     1315.286      87.8774     175.8243     350.6046      1.578     5.36      1083.07     61.79362     145.9634        10     1.345     0.602 -10.01   0
       300    633.0181    413.7880 307.6611128  +6.5142153     1511.561     3405.805     3718.774     87.59886     174.9884     350.4652      2.410     6.61     1086.095     61.79362     202.4125        23     1.489     1.280  -5.11   0
       301    605.3542    409.1970 307.6727692  +6.5151883     8255.008     21876.25     29368.34     87.17939     175.0582     350.1861      2.888     6.58     1085.753     61.79362     901.8966        91     2.501     1.960  15.01   0
       302    936.9951    407.8250 307.5349322  +6.5268035     2753.093     5123.162     5413.759     87.31944     175.0582     350.3954      1.940     5.05     1077.859     61.79362     346.5256        30     1.784     1.011 -37.94   0
       303    376.2964    403.9326 307.7681773  +6.5097097      16645.4     38702.19     45715.52      87.8774     175.4068     350.5698      2.442     5.72     1088.424     61.79362     1712.332        78     2.220     1.596 -39.85   0
       304    122.6142    403.5832 307.8736531  +6.5013577     1367.836     2982.886     3348.847     87.59886     174.9884        350.5      2.227     6.73     1099.799     61.79362     175.6532        22     1.528     1.198 -76.46   0
       305    891.9893    403.6902 307.5537835  +6.5270140     1038.859      1737.99     2241.411     87.59886     174.9884     350.3257      1.927     5.84     1079.632     61.79362     144.9432        12     1.184     0.812 -72.37   0
       306     56.3090    399.7010 307.9013494  +6.5007367     755.7242     1949.581      1993.69      87.8774     175.8243     350.5349      2.377     7.26     1102.252     61.79362     91.00134        14     1.522     0.971 -64.60   0
       307    905.9565    398.2221 307.5481606  +6.5297371     3537.806     6942.727     6962.796     87.31944     175.1977     350.3606      2.057     5.17     1078.634     61.79362     407.9205        36     1.846     1.146 -37.16   0
       308    233.8951    394.6484 307.8276935  +6.5087774     7899.111     18223.31     21523.65     87.73824     175.1977      350.744      2.426     5.79     1093.475     61.79362     802.8148        67     2.178     1.542 -38.47   0
       309     70.7075    388.2777 307.8957516  +6.5059375     608.8666     1026.817     1065.197     87.59886     175.6157     350.6046      1.693     5.16     1101.227     61.79362      79.6156         7     1.657     0.454 -54.67   0
       310    956.9296    387.0067 307.5273450  +6.5360646     784.6313     1431.697     1698.146     87.31944     174.9185     350.4303      1.846     4.91     1075.828     61.79362     94.22998         8     1.281     0.534 -20.72   0
       311    134.2829    383.2560 307.8694920  +6.5101438     3111.698     6759.675     7663.675      87.8774     175.3372     350.6743      2.300     5.87      1098.42     61.79362     333.0767        43     1.990     1.338 -39.87   0
       312    347.5742    383.9095 307.7807965  +6.5170183     856.2049      1805.66     2007.982     88.01633     175.0582     350.3954      2.298     6.51      1088.33     61.79362     133.7214        12     1.439     0.825 -79.56   0
       313    239.7530    381.8030 307.8256937  +6.5142786     746.3092     1597.704     1771.297     87.17939     175.0582     350.1861      2.141     5.47     1092.695     61.79362       99.573         8     1.165     0.724 -46.81   0
       314    156.4061    379.0930 307.8604360  +6.5126048     1636.101     3639.733     4358.678     87.45926     174.9884     350.3954      2.399     7.22     1097.348     61.79362     188.4789        28     1.736     1.411 -38.37   0
       315    820.5892    379.2967 307.5842916  +6.5347122     657.6592     1218.291     979.5637     87.59886     174.9185     350.3606      1.818     5.25     1080.568     61.79362     87.60291         7     0.983     0.793 -33.96   0
       316    379.9056    373.9086 307.7676935  +6.5222302     1259.395     2775.844     3309.351      87.8774     175.8938     350.5698      2.404     6.63      1086.35     61.79362     131.4596        21     1.475     1.212 -29.20   0
       317    968.3486    372.5832 307.5230828  +6.5424014     878.1213     1476.021     1867.313     87.31944     175.4068     350.2559      1.938     6.69     1074.249     61.79362     112.3551        12     1.300     1.074 -24.28   0
       318     29.9579    368.2152 307.9133738  +6.5128554     1927.336      4494.57     5302.068     87.31944     175.0582     350.3257      2.497     7.49     1102.224     61.79362     230.4501        38     2.225     1.283 -43.57   0
       319    433.5153    367.2740 307.7456297  +6.5267630     4266.722      9906.23     11722.77     88.01633     175.6853     350.6395      2.450     6.07     1083.864     61.79362     413.6361        51     2.086     1.470 -41.62   0
       320    773.9973    364.5551 307.6041605  +6.5392488     8430.841     17440.76     19753.01     87.17939     174.9185     350.1861      2.240     5.17     1080.138     61.79362     914.6082        57     2.095     1.335 -42.79   2
       321    766.2330    366.0964 307.6073367  +6.5383535     1268.085      2446.46     2643.466     88.01633     175.1977     350.6743      2.142     6.07     1080.245     61.79362     142.5359        15     1.184     1.031 -55.82   3
       322   1017.8150    359.4241 307.5029583  +6.5494805     2704.372     5100.637     5581.273     87.59886      175.128     343.5636      2.035     5.00     1070.034     61.79362     353.9016        29     1.801     0.971 -43.78  16
       323    454.0936    351.9469 307.7375927  +6.5337810     1320.503     2832.188     3784.908     87.73824     175.2674     350.8485      2.321     7.71     1082.004     61.79362     138.9822        24     1.698     1.145 -21.21   0
       324    481.7721    350.9932 307.7261172  +6.5350998     1799.549      3847.62     4250.834     87.31944     175.1977     350.3606      2.220     5.97     1080.718     61.79362     206.2231        28     1.716     1.135 -36.12   0
       325    910.5003    351.1400 307.5478573  +6.5493337     547.3449     1138.414     659.1512     87.59886     175.3372     350.7091      1.644     3.44     1075.857     61.79362     81.56323         5     1.251     0.273 -35.48   0
       326    839.3113    347.4893 307.5775797  +6.5484723     22880.82     46666.75     52471.29     87.59886     175.8938     350.6743      2.183     5.15     1078.101     61.79362     2484.075        78     2.126     1.403 -45.56   0
       327    611.1498    340.0254 307.6726966  +6.5439499     1602.432     3388.436     4179.313     87.45926     175.3372     350.4652      2.363     5.37     1079.038     61.79362     189.5696        23     1.400     1.274 -64.14   0
       328     19.9880    340.1687 307.9184716  +6.5241035     764.2893     1315.473     1688.253     87.31944     175.0582     350.4652      1.858     5.22     1101.937     61.79362     95.02051         8     1.167     0.659 -71.13   0
       329    695.7978    333.4807 307.6377228  +6.5494764     50501.54     107616.2     123218.2     87.17939     174.8486     350.2908      2.265     5.34     1078.642     61.79362     5265.072       100     2.179     1.529 -39.94   0
       330    853.9003    335.2706 307.5719256  +6.5540044     854.7523     1964.217     2179.846     87.59886     175.4765     350.6046      2.359     6.66     1077.211     61.79362     104.0127         9     1.210     1.029 -57.48   0
       331     76.0701    333.3031 307.8953893  +6.5288211     760.3589     1661.993     2366.512     87.73824     175.5461     350.5698      2.552     7.19     1099.045     61.79362     94.98901        13     1.504     0.964 -67.89   0
       332     95.6333    329.2260 307.8873945  +6.5311613     3578.679      8212.61     9716.846     87.31944      175.128     350.3257      2.360     6.13      1097.98     61.79362     395.8684        50     2.164     1.438 -44.86   0
       333    558.6988    330.2582 307.6948346  +6.5462329     1527.121     3515.561     4186.055     87.59886     175.3372      350.744      2.418     7.18     1078.907     61.79362     180.3373        28     1.755     1.263 -25.01   0
       334    541.5737    326.5168 307.7020813  +6.5472063     4218.088     9664.163     10746.43     87.73824     175.0582        350.5      2.418     6.05     1078.886     61.79362     435.0645        52     2.168     1.408 -36.93   0
       335    270.9141    323.9256 307.8147008  +6.5392252      1718.68     3811.121     4066.206     88.01633     175.6853     350.6046      2.264     5.73     1088.831     61.79362     214.0912        32     1.561     1.435 -54.77   0
       336    404.4778    321.6287 307.7592475  +6.5446435     15023.58     34791.47     41394.24     87.73824     175.4068     350.5698      2.480     5.78     1082.532     61.79362     1539.819        85     2.323     1.605 -41.21   0
       337    511.8147    319.6163 307.7146877  +6.5490622     653.8616     1643.438     1872.616     87.59886     174.9884        350.5      2.606     6.99     1078.817     61.79362     88.46765         9     1.502     0.910 -55.68   0
       338    384.4224    318.8410 307.7676803  +6.5451240     703.4888     1734.181     2429.418     87.45926      175.128     350.3257      2.926     8.54     1083.319     61.79362     94.93372        10     1.575     1.292  59.75   0
       339    483.6691    317.1716 307.7264727  +6.5491315     607.3637     1382.627     1172.245     87.59886     175.3372        350.5      2.019     4.17     1079.093     61.79362     100.9167         5     0.955     0.520  39.61   0
       340    493.4851    312.1673 307.7225607  +6.5515263     4995.992     11565.54     13762.73      87.8774      175.128     350.5349      2.487     5.83     1078.687     61.79362     543.5172        57     2.192     1.459 -35.58   0
       341    762.6771    310.5540 307.6106889  +6.5611744     1949.847     4118.445     4652.848     87.73824     175.4068     350.5698      2.243     6.17     1076.789     61.79362     238.2716        32     1.852     1.300 -26.97   0
       342    320.4465    308.8812 307.7946169  +6.5470967     675.7952     938.3751     1183.006      87.8774     175.3372     350.6046      1.821     5.22     1085.825     61.79362      96.8064         7     1.166     0.761 -61.16   0
       343    383.4386    296.2762 307.7688534  +6.5544103     4250.903      10177.1     11938.48     87.73824     175.4068     350.5698      2.451     6.17     1082.311     61.79362     427.6879        54     2.121     1.494 -38.51   0
       344    239.5923    296.7745 307.8286439  +6.5493893     1199.119      2778.78     3022.031     87.45926      175.128     350.3954      2.426     8.34     1089.141     61.79362     156.5157        18     1.494     1.300 -19.62   0
       345    751.2892    292.0294 307.6160490  +6.5684457     35085.48     73258.78      83577.7     88.01633     175.0582     350.4652      2.251     5.23     1075.653     61.79362      3621.63        86     2.151     1.464 -40.96   0
       346    423.3347    291.6420 307.7524224  +6.5576585     1501.577     3269.766     3885.442      87.8774     175.2675     350.6743      2.418     7.12     1079.955     61.79362     170.6218        28     1.819     1.271 -44.83   0
       347    569.2180    289.5477 307.6918371  +6.5633976     682.5143     1518.533     1920.966     87.31944     175.4068     350.2908      2.419     6.54     1075.805     61.79362      94.4281         9     1.410     0.850 -75.37   0
       348    986.2872    289.0381 307.5184365  +6.5775028     1168.756     2114.255       2137.3      87.8774     175.2675     350.5698      1.862     5.08     1068.593     61.79362      164.593        16     1.420     0.939 -37.98   0
       349    927.1915    288.2042 307.5430371  +6.5758821     1695.695     3270.696     3743.944     87.17939     174.9884     350.3954      2.192     5.26     1071.049     61.79362     199.1345        25     1.642     1.019 -32.26   0
       350    409.8281    287.5261 307.7581775  +6.5589067     1257.214     2560.338      2360.88     87.73824     175.2675        350.5      1.993     6.82     1080.359     61.79362      151.953        20     1.547     1.095 -61.47   0
       351    830.7076    281.7177 307.5833744  +6.5753500     776.0893     1758.342     1727.075     87.59886     175.6853     350.6743      2.227     5.86     1074.731     61.79362     94.13147        10     1.232     0.785  -3.72   0
       352    440.4550    279.9142 307.7457010  +6.5630744     589.0597     1290.685     1490.211      87.8774     175.3372     350.7788      3.126     4.26     1078.776     61.79362     98.95374         5     0.794     0.651 -13.48   0
       353    749.7457    276.6530 307.6172096  +6.5747448     3992.793      8497.91     9628.008     88.15505     175.2675     350.5349      2.236     5.63     1074.943     61.79362     406.8499        43     1.950     1.278 -37.73   0
       354    186.5039    278.2003 307.8513464  +6.5552813     1368.187     2813.678     3329.464     87.31944     174.9185     350.1163      2.165     6.14     1091.666     61.79362     165.7823        21     1.287     1.282   2.32   0
       355     82.0391    277.6910 307.8947966  +6.5519884     648.4951     1335.807     1368.904      87.8774     175.2675     350.6046      2.244     4.38      1097.66     61.79362     98.86316         6     0.850     0.643 -33.83   0
       356    766.2083    274.5464 307.6104355  +6.5761634     1753.245     3664.669     4368.497     87.31944     175.1977     350.2559      2.255     6.03     1074.855     61.79362     211.9724        30     1.804     1.187 -30.54   0
       357    356.2341    269.6273 307.7810671  +6.5645061     1134.901     2590.596     3429.915     87.31944     175.0582     350.3257      2.637     6.42     1082.484     61.79362      133.243        20     1.513     1.132  20.47   0
       358     68.8464    270.4373 307.9005280  +6.5545414     694.2357     1203.446     1514.028     87.59886     175.2675     350.4303      1.746     4.14     1098.242     61.79362       91.224         5     0.908     0.539  49.22   0
       359   1004.2681    265.4678 307.5117532  +6.5878352     4536.232     8261.591     9160.602      87.8774     175.4765     350.6046      1.944     5.00     1066.626     61.79362     548.7517        38     1.933     1.034 -41.12   0
       360    482.9824    265.4597 307.7285077  +6.5704655     1163.719     2439.867     2719.796     87.45926     175.2674     350.2908      2.247     6.90     1075.978     61.79362     136.5745        17     1.617     0.827 -47.40   0
       361    245.0403    261.2336 307.8275840  +6.5642499     3514.507     8022.585     9833.649     87.59886     175.2675     350.3606      2.515     5.65     1088.419     61.79362      379.053        52     2.115     1.480 -38.75   0
       362    379.7740    252.3817 307.7718637  +6.5724159     873.8154      1641.22     1629.677     87.45926      175.128     350.4652      2.244     5.18     1080.382     61.79362     149.3671        10     1.349     0.644 -17.44   0
       363    965.7448    250.5560 307.5282740  +6.5927133     785.1855     1570.656     1581.251      87.8774     175.3372     350.5698      2.057     6.65     1067.565     61.79362      102.188        11     1.458     0.851 -39.51   0
       364    148.9557    247.7145 307.8679925  +6.5666128     964.6362     2419.963     2656.315      87.8774     175.1977     350.5349      2.427     7.06     1093.441     61.79362     135.2976        15     1.781     0.964 -18.19   0
       365    301.3330    247.9909 307.8046274  +6.5716042     627.4772     1445.415     1215.358     87.31944      175.128     350.4652      2.186     4.33     1084.826     61.79362     85.53528         6     0.947     0.564   0.30   0
       366    558.9234    243.0876 307.6976881  +6.5822419     1179.396     2608.364     2777.166      87.8774     175.6853     350.6743      2.309     6.83     1072.959     61.79362     142.4634        19     1.656     1.087 -52.21   0
       367    902.3517    242.4422 307.5549075  +6.5939558     1133.719     2548.352     3359.412      87.8774     175.2675        350.5      2.740     6.77     1069.958     61.79362     135.6648        15     1.625     0.791 -31.01   0
       368    722.1165    240.9101 307.6299044  +6.5885859      3071.59     6724.315     7489.902     87.59886     175.6157     350.6743      2.244     5.88     1073.369     61.79362     324.1335        40     1.960     1.253 -39.22   0
       369    663.3524    240.8695 307.6543406  +6.5866432     1331.982     2692.791     3152.312      87.8774     175.2675     350.6046      2.239     6.83     1073.367     61.79362     141.3165        20     1.531     1.021 -25.10   0
       370    917.5267    233.2085 307.5489085  +6.5982742     737.1821     1313.623     1375.082     87.45926     174.8486     350.3954      1.888     5.19     1068.779     61.79362     122.7439         8     1.425     0.533 -35.52   0
       371    221.5949    226.5372 307.8385090  +6.5777936     1435.279     3012.326     2597.994     87.17939      175.128     350.3257      2.114     6.43     1089.723     61.79362     173.3715        25     1.586     1.211 -21.73   0
       372    864.2148    225.1367 307.5713490  +6.5998339     1156.788     2151.842     3040.102     87.31944     175.1977     350.4303      2.723     6.24     1070.553     61.79362     163.9364        20     1.565     0.954 -46.71   0
       373    755.1153    224.6318 307.6167323  +6.5964087     1076.348     2280.655     2182.758      87.8774      175.128     350.4652      2.161     5.61     1072.659     61.79362     148.9537        14     1.329     1.037 -56.75   0
       374    781.4998    215.1349 307.6060814  +6.6012101     8706.711     18145.88     21097.36      87.8774     175.4765     350.5349      2.253     5.25     1072.033     61.79362     924.6448        61     2.090     1.414 -39.87   0
       375    455.8345    215.8733 307.7414738  +6.5900372     13130.24     30669.52     36630.41     87.73824     175.2675     350.5698      2.482     5.81     1074.402     61.79362     1448.305        88     2.487     1.582 -42.31   0
       376    144.2311    209.5143 307.8712537  +6.5822306     1506.848     2986.196     3346.224      87.8774      175.128     350.4652      2.169     7.31     1093.163     61.79362     168.0913        20     1.391     1.077 -49.58   0
       377    118.8887    209.0335 307.8818071  +6.5815791     728.9426     1312.854      1464.15     88.01633     175.2674     350.5698      2.026     3.71     1094.773     61.79362     109.7904         5     1.022     0.386 -59.05   0
       378    917.5696    205.7999 307.5498141  +6.6095956     837.6263     1762.499     2004.606     87.03912     175.0582     350.3606      2.280     6.19     1067.227     61.79362      110.417        11     1.773     0.607 -42.29   0
       379    579.8581    201.8734 307.6903765  +6.5999623     2937.039     6272.875     7316.521     88.01633     175.3372     350.5349      2.306     5.75     1071.375     61.79362     323.3933        41     1.946     1.281 -35.60   0
       380    542.3806    201.7666 307.7059640  +6.5987550      1213.08      2715.94     2743.133     87.31944      175.128     350.3606      2.258     8.48     1071.113     61.79362     139.5782        21     1.656     1.213 -22.85   0
       381    384.5282    200.8827 307.7716311  +6.5938437     1031.465     2217.451     2699.992     88.15505     175.6853     350.6046      2.325     7.22     1077.727     61.79362     117.5674        16     1.635     0.894 -40.66   0
       382    300.1997    203.0000 307.8066236  +6.5901471     572.5504     1170.725     752.5346     87.03912     174.7787      350.221      1.582     3.73      1085.17     61.79362     107.9751         5     1.385     0.289   0.00   0
       383    886.5946    198.2675 307.5629484  +6.6116759     7938.359     15704.22     17233.61     87.31944     174.9185     350.3606      2.081     5.18     1067.948     61.79362     873.4745        48     1.974     1.214 -38.42   0
       384    940.4921    198.6176 307.5405241  +6.6133245     1927.706     3830.254     3965.318     87.59886     175.0582     350.4303      2.078     6.62     1065.973     61.79362     227.6641        22     1.600     1.035 -42.47   0
       385     12.9528    195.0222 307.9263297  +6.5838102     15877.22     35533.67     41927.46     87.45926     175.3371     350.4303      2.369     5.47     1100.873     61.79362     1797.597        80     2.218     1.564 -44.94  16
       386    973.2986    195.9824 307.5269705  +6.6155038     7446.407     13877.38     14888.46      87.8774      175.128     350.3257      1.991     4.94      1064.62     61.79362     842.8188        45     1.894     1.139 -38.35   0
       387    684.6451    196.1294 307.6469977  +6.6058311     1902.032     3917.489     4566.386      87.8774     175.3372     350.5698      2.203     5.51     1071.506     61.79362     215.2234        28     1.627     1.215 -42.64   0
       388    259.0113    195.2090 307.8240140  +6.5919853     640.4703     1185.372     801.3043     87.59886      175.128        350.5      1.866     4.98     1087.992     61.79362     79.60681         5     1.137     0.617 -89.14   0
       389    493.4098    191.0931 307.7266880  +6.6015272     1303.384     2585.108     2742.715     87.45926     174.9185     350.3606      2.063     5.51     1071.721     61.79362     196.2991        21     1.504     1.068  -7.81   0
       390    877.8184    186.6016 307.5669911  +6.6162019     1429.296     3172.693     3358.273     87.45926     174.8486     350.2559      2.359     8.31     1067.606     61.79362     171.1866        24     1.926     1.002 -41.07   0
       391    825.5427    187.4171 307.5887018  +6.6141247     1223.721     2388.357     2430.842     87.31944     175.2675     350.2908      2.100     7.91     1069.199     61.79362     143.2102        22     1.795     0.975 -44.33   0
       392    736.8638    184.2490 307.6256846  +6.6124787     25917.21     54543.57     61938.16     87.73824     175.2675     350.6395      2.247     5.27     1070.989     61.79362     2857.408        78     2.144     1.437 -40.79   0
       393    505.5759    187.0594 307.7217655  +6.6035996     1367.984     3167.994     2911.851     87.45926     175.3372     350.3954      2.273     8.11     1071.369     61.79362     155.5272        23     1.704     1.080 -40.19   0
       394    340.1179    183.5015 307.7906861  +6.5995361     3904.629     10305.35     13299.96      87.8774     175.8243     350.6743      2.839     7.17     1081.171     61.79362      384.074        66     2.445     1.636 -56.62   0
       395    970.4386    183.0218 307.5285963  +6.6207615     2039.487     3631.042     3606.579     87.45926     175.0582     350.3257      1.867     5.80     1064.107     61.79362     239.3344        25     1.800     0.931 -42.79   0
       396    904.6734    181.3038 307.5560022  +6.6192836     5270.791     10386.02     10911.81     87.59886     175.4765     350.5698      2.076     5.06      1066.21     61.79362     621.3759        42     1.842     1.208 -42.36   0
       397   1008.7646    181.6620 307.5127043  +6.6225973     1382.194     2340.371     2131.281      87.8774     175.3372     350.5349      1.702     5.59      1062.82     61.79362     193.7623        17     1.552     0.743 -34.50   0
       398    448.2523    180.5570 307.7458219  +6.6043692     3044.852     6982.056     7786.381      87.8774     175.3372     350.6046      2.409     5.96     1072.752     61.79362     323.0315        46     2.020     1.428 -37.32   0
       399    105.6313    172.1295 307.8885727  +6.5963752     3047.957     6585.461     7517.587     87.73824     175.3372     350.5349      2.281     5.56     1094.083     61.79362     331.1394        41     1.856     1.367 -40.86   0
       400    276.0401    168.5636 307.8178368  +6.6035600     20108.82     46134.05     53538.76     87.59886     175.3372     350.4303      2.409     5.64     1087.976     61.79362     2115.916        80     2.181     1.609 -40.69   0
       401    251.4919    169.5919 307.8280093  +6.6023130     3872.795     8783.812     10110.07     87.45926     174.9884     350.3606      2.338     5.79     1088.752     61.79362     428.9333        48     1.980     1.448 -43.20   0
       402    705.7583    167.7220 307.6391773  +6.6182674     761.8666     1345.097     1756.665     87.73824     175.3372     350.6395      2.047     5.94     1070.431     61.79362     87.56763        10     1.139     0.873 -75.70   0
       403    400.0733    163.9794 307.7664170  +6.6096046     29048.12     67888.17     79871.91     87.45926     175.2674        350.5      2.442     5.71      1074.19     61.79362     3127.282        97     2.263     1.649 -40.14   0
       404    156.2204    165.1617 307.8677743  +6.6009495     2337.178     5590.678     6586.728     87.45926      175.128     350.2908      2.372     6.46     1091.449     61.79362     269.5548        38     1.892     1.385 -45.18   0
       405    418.0296    164.1645 307.7589441  +6.6101287     910.1818     1813.064     2297.043     87.45926     175.0582     350.3606      2.088     7.14     1072.237     61.79362     101.7051        12     1.478     0.966 -67.04   0
       406    304.1602    161.7635 307.8063746  +6.6073100     10905.79     24791.25     29460.44     87.59886     175.2675     350.4303      2.427     5.61     1085.883     61.79362     1210.737        74     2.232     1.570 -34.86   2
       407    311.5170    161.7434 307.8033162  +6.6075646     1224.101     3026.643     3613.378      87.8774     175.3372     350.6743      2.562     8.88     1084.845     61.79362     142.7374        21     2.212     0.996 -77.49   3
       408    739.2908    160.0484 307.6254922  +6.6225545        21261     44581.73     50783.36      87.8774      175.128      350.744      2.251     5.24     1069.932     61.79362     2281.667        76     2.115     1.495 -38.69   0
       409    688.0909    163.0909 307.6466805  +6.6195909     501.5819     881.8615     1046.831      87.8774     175.8938     350.6743      1.793     4.66     1070.304     61.79362     96.27905         5     1.237     0.499 -22.72   0
       410    787.7883    161.0801 307.6052900  +6.6237445     788.9361     1469.772     2204.805     87.45926     174.9884     350.3954      1.922     4.63     1068.429     61.79362     125.1182         7     1.078     0.565 -23.83   0
       411     56.2458    157.6618 307.9095986  +6.6006928     5882.264     12648.76     14314.68     87.73824     175.1977     350.6395      2.323     5.30     1097.527     61.79362     652.5804        54     2.117     1.380 -42.35   0
       412     90.0291    155.9303 307.8956103  +6.6025417     936.3194     2296.137     2959.388     87.59886     175.3371        350.5      2.698     6.70     1094.509     61.79362     144.1638        16     1.662     1.189 -48.46   0
       413    997.7089    154.7349 307.5182084  +6.6333509     937.1046     1325.849     1830.718     87.73824     175.5461     350.5698      1.627     5.19     1061.874     61.79362     151.5862         9     0.975     0.871 -66.70   0
       414    998.6429    140.3142 307.5183055  +6.6393378      1747.69     3173.341     4311.073      87.8774     175.1977     350.5698      2.057     5.40     1060.681     61.79362     200.8763        20     1.473     0.959 -44.05   0
       415    334.4518    138.2001 307.7945773  +6.6180555     696.9943     923.4338     1055.701     87.03912     174.7787     350.0465      1.530     5.67     1082.116     61.79362     100.9052         8     1.371     0.661 -34.08   0
       416    590.3699    136.6633 307.6882098  +6.6272449     1235.849      2691.54     3731.423     87.59886     175.4068        350.5      2.671     6.52     1069.531     61.79362     136.2712        16     1.494     0.971 -60.94   0
       417    274.8893    134.8250 307.8194593  +6.6174551     17733.69     41129.42     49120.82     88.01633      175.128     350.3954      2.484     5.82     1088.596     61.79362     1956.969        90     2.320     1.632 -39.37   0
       418     20.3949    133.3981 307.9253302  +6.6095096     2738.479     6051.867     6512.436     87.17939     174.9884     350.3257      2.315     6.17     1100.014     61.79362     346.2988        38     1.910     1.355 -44.53   0
       419    706.5710    131.2914 307.6400694  +6.6333404     5148.226     10827.03     11952.66     88.01633     175.0582     350.4652      2.201     5.49     1068.843     61.79362     592.1115        48     1.999     1.337 -38.90   0
       420    117.6092    128.6135 307.8850701  +6.6147484     3200.232     6817.177      8357.94     87.59886     175.0582     350.4652      2.288     5.52     1092.281     61.79362     339.2747        44     1.965     1.337 -43.29   0
       421    456.3932    125.4682 307.7443014  +6.6273927     933.7601     1689.398     2029.577     87.31944     174.9884     350.3954      1.940     6.57      1070.63     61.79362     102.5125        13     1.144     1.060 -70.97   0
       422    388.4362    124.5648 307.7725910  +6.6254932     2297.981     5493.957     6851.901     87.59886     175.0582     350.2908      2.577     6.13     1075.396     61.79362      254.537        40     1.912     1.383 -47.29   0
       423    352.7690    123.4675 307.7874597  +6.6247529      1938.58     4283.509     4738.822     87.73824     175.3372     350.5349      2.294     7.10     1079.519     61.79362     222.7732        30     1.851     1.206 -40.17   0
       424    107.3139    123.2333 307.8895338  +6.6166249      1121.74     2318.073     3065.934      87.8774     175.1977     350.5698      2.578     7.22     1092.594     61.79362     156.9996        16     1.468     1.206 -56.95   0
       425    999.0080    117.3649 307.5189263  +6.6488281     1059.632     2103.037     1961.736     87.31944      175.128     350.3257      2.042     7.08     1058.894     61.79362     139.4025        18     1.560     0.901 -36.27   0
       426    204.3973    112.3026 307.8495356  +6.6243947     3253.498     7342.241     8207.055     87.59886     175.0582      350.221      2.303     5.55     1089.752     61.79362     341.7996        45     1.912     1.427 -39.00   0
       427     13.0466    114.0358 307.9290438  +6.6172590      566.908     1271.011     1689.955     87.45926     175.3371     350.4652      3.727     6.79     1100.131     61.79362     90.31055         8     1.498     0.862  85.82   0
       428    666.0356    111.1022 307.6576080  +6.6403266     3999.649     8327.389     10194.29      87.8774     175.1977      350.744      2.303     5.52     1068.827     61.79362     413.0848        45     2.033     1.297 -41.26   0
       429     87.5519    112.0933 307.8981296  +6.6205624     1377.114     3056.146     3621.131     87.73824     175.1977     350.7091      2.465     6.64      1093.51     61.79362     163.1613        21     1.609     1.091 -34.51   0
       430    814.0637    111.4262 307.5960383  +6.6451269     660.5441     1229.359     1111.607     87.45926     175.3372        350.5      1.905     6.71      1064.31     61.79362     102.2897         8     1.755     0.720 -42.04   0
       431    618.3909    108.3430 307.6775145  +6.6398765      5783.42     12615.56     14608.04     87.17939     175.2675     350.2559      2.277     5.74     1068.978     61.79362     583.1743        48     2.060     1.352 -37.41   3
       432    621.7946     99.8635 307.6763856  +6.6434921     33057.55     72504.75     84242.41     87.17939      175.128     350.3257      2.336     5.36     1068.786     61.79362     3520.949        92     2.257     1.535 -42.32   3
       433    345.6111    104.1795 307.7910899  +6.6324791     2306.359     5664.224     6742.683     87.45926     174.9884     350.4303      2.568     7.03      1080.54     61.79362     236.1086        43     2.030     1.487 -41.06   0
       434    991.4708    103.4324 307.5225299  +6.6543317     632.5835     1177.981      1053.95     87.73824     175.3372     350.5698      2.028     5.02     1058.218     61.79362     86.30518         6     0.950     0.750 -80.43   0
       435    527.6897    103.4775 307.7153973  +6.6388574     1040.564     1991.455     2205.308     87.59886     175.6157     350.6743      2.016     6.54      1068.66     61.79362     109.6041        14     1.237     0.971 -27.09   0
       436    301.1285     93.8589 307.8099372  +6.6352523     2214.632     5143.577     5996.016     88.01633     175.3372     350.5698      2.507     6.29     1087.205     61.79362     244.7081        37     1.972     1.260 -46.83   0
       437    671.6176     87.6684 307.6560783  +6.6501910     896.6066     1750.536     1491.164     87.31944     175.2675     350.4652      1.984     6.21     1068.112     61.79362     108.5729        11     1.317     0.823 -27.54   0
       438      1.7007     75.8217 307.9350610  +6.6326595     325881.8     429318.7     454666.2     81.22983     145.2242      270.224      1.355     7.54     1100.018     61.79362     62861.74       183     1.971     1.235 -87.59  28
       439    686.1599     83.6987 307.6501648  +6.6523155     1918.898     4090.134      4332.15      87.8774     175.1977     350.8137      2.280     6.23     1067.552     61.79362     257.9962        31     1.946     1.159 -23.20   0
       440    428.1083     74.9311 307.7577745  +6.6473184     2505.305     5563.413     6067.137      87.8774     175.4765     350.5698      2.318     5.96      1071.44     61.79362     268.3599        42     2.011     1.369 -42.80   0
       441    900.5378     70.0611 307.5614710  +6.6650897     2794.069     5180.018     5994.908      87.8774     175.3372     350.6046      2.032     5.35     1060.133     61.79362     329.5354        31     1.857     1.063 -38.84   0
       442    882.4335     71.1610 307.5689631  +6.6640329     1583.247     2844.343     2742.651     87.59886      175.128     350.3257      1.872     4.65     1060.458     61.79362     197.3472        18     1.433     0.874 -34.19   0
       443    592.7841     68.3660 307.6895147  +6.6555321     1036.127     2238.556      2303.21     87.45926     175.0582     350.4303      2.183     6.56     1067.898     61.79362      153.809        15     1.525     1.302  15.86   0
       444    563.7204     68.6125 307.7015929  +6.6544599      1018.57     990.7823     1031.406     87.45926     174.9884     350.3954      0.674     0.34     1067.992     61.79362     708.5869         5     0.754     0.333  47.25   0
       445    391.3247     66.8434 307.7733450  +6.6494282     1238.402     2840.374     3192.455     87.73824     175.4068     350.6046      2.357     7.86     1075.151     61.79362     155.4973        22     1.846     1.047 -38.04   0
       446    139.5768     63.6051 307.8781431  +6.6423325     1860.226     4064.761     5029.086     87.45926     175.0582     350.3954      2.463     6.40     1089.782     61.79362     199.1486        31     1.838     1.218 -43.75   0
       447     21.0578     61.6416 307.9274939  +6.6391657     7935.756      17675.6     22205.49      87.8774     175.3372     350.6395      2.562     5.74     1097.778     61.79362      864.824        66     2.234     1.517 -39.11   0
       448    288.0848     63.3903 307.8163944  +6.6473986      683.738     1712.609     2703.969     87.45926     174.9884     350.3954      2.927     5.26      1088.98     61.79362     108.6135         9     1.221     0.639 -25.94   2
       449    558.7117     61.3753 307.7039205  +6.6572815     3039.351       3669.3     4053.501     88.01633      175.128     350.4303      0.949     3.79     1067.869     61.79362     762.1735         8     0.923     0.456  59.34   3
       450    556.3837     58.0341 307.7050017  +6.6585837      2474.07     2552.964     3406.104     87.45926     175.0582     350.3954      0.991     2.94     1067.837     61.79362     802.2924         5     1.017     0.249  63.65   3
       451    822.8359     55.9030 307.5942631  +6.6683502     4302.214     8790.966     9890.254      87.8774     175.1977      350.744      2.197     5.57     1061.159     61.79362     458.9681        41     1.924     1.206 -40.59   0
       452    767.9306     56.3891 307.6170807  +6.6663204     2196.914     4587.213     5211.598     87.31944      175.128     350.3954      2.172     6.25     1063.318     61.79362     234.2968        32     1.900     1.141 -35.60   0
       453    529.8734     55.3453 307.7161174  +6.6588086     553.1301      1107.06     1664.458     87.73824     175.1977     350.4652      1.509     4.32     1067.955     61.79362     97.15381         5     1.140     0.466  -5.18   0
       454     61.8033     53.5600 307.9108253  +6.6438712     1995.814     4203.731     5263.854     87.03912     175.0582     350.2559      2.385     6.26     1093.509     61.79362     218.9893        28     1.822     1.051 -48.47   0
       455      3.9671     49.0246 307.9350297  +6.6438022     1701.861     4008.985     5029.554     87.17939     172.5271     306.8549      2.513     6.83     1099.004     61.79362     193.8938        31     1.809     1.250 -33.89  24
       456    585.4918     50.4738 307.6931522  +6.6626780     804.2039     1633.333     1069.863      87.8774     175.4765     350.6046      1.898     4.61     1067.466     61.79362      97.2428         7     0.892     0.676 -18.10   0
       457    762.6051     43.7481 307.6197221  +6.6713636     1412.419     2638.383     2661.547     87.17939     175.0582     350.1861      2.009     7.00     1063.012     61.79362     166.8639        18     1.640     0.838 -47.13   0
       458    403.7962     43.7010 307.7689425  +6.6594030     681.0516     1528.594     2054.964     87.59886     174.9884      350.221      2.651     6.36     1073.688     61.79362      97.1814         8     1.199     0.946 -26.89   0
       459    101.4226     43.6620 307.8946865  +6.6492886     582.7197     1010.515     1498.478     87.45926     175.3372     350.4652      1.882     4.34     1089.556     61.79362     81.76062         5     1.021     0.526  46.01   0
       460     89.0995     37.8566 307.9000081  +6.6512726     5992.574     13100.79     15406.52     87.59886     175.3372     350.8137      2.360     5.66     1090.082     61.79362     691.3838        59     2.243     1.432 -41.27   0
       461    418.4767     37.7235 307.7630399  +6.6623627     1585.909     3628.858      4451.18     88.15505     175.6157     350.6743      2.501     7.63     1072.095     61.79362     159.9086        27     1.659     1.281 -40.70   0
       462    631.8952     29.6612 307.6745577  +6.6728224     11877.08     25464.72     29464.91     87.73824     175.4068     350.6395      2.295     5.37     1066.514     61.79362     1303.213        65     2.101     1.445 -40.53   0
       463    256.1019     31.9176 307.8307620  +6.6593251     801.1977     1619.987     2888.947      87.8774     175.7548     350.6743      2.487     5.44     1088.992     61.79362     111.3656         8     1.193     0.699 -17.87   0
       464    531.7883     25.6574 307.7163253  +6.6711335     3115.779     7012.748     8190.599     87.17939     175.2675     350.2559      2.341     6.05     1067.582     61.79362     335.5549        43     2.032     1.318 -33.65   0
       465    249.8987     26.0735 307.8335398  +6.6615308     866.4886     2209.619     3859.677     87.45926     175.4068     350.5349      2.635     5.98     1088.962     61.79362     135.3597        11     1.369     0.735 -54.87   3
       466    961.1904   1020.6403 307.5042519  +6.2745065     765.2632     1324.152     1239.516     87.17939     174.7787     312.2627      2.084     5.58     1109.165     61.79362     128.6776         8     1.357     0.736 -40.79  16
       467    790.0309   1017.7969 307.5754750  +6.2699870     5820.533     10134.95     10996.78     87.31944      175.128     343.6703      1.775     5.13     1112.676     61.79362     849.7787        33     1.778     0.904 -42.02  16
       468    887.9828   1014.4414 307.5348829  +6.2746326     1417.974     2404.198     2157.283     87.31944      175.128     350.3606      1.750     5.41     1110.972     61.79362     226.1414        13     1.458     0.567 -37.15  16
       469    914.9005     21.0380 307.5571500  +6.6858143     1314.318     2373.517      2535.07      87.8774     175.1977     350.8137      1.815     6.28     1057.228     61.79362     186.8018        18     1.611     0.926 -47.10   0
       470    210.8649   1013.1265 307.8163020  +6.2525779     1686.574     3345.831     3449.667     88.01633     175.3372     350.5698      2.128     6.02     1118.846     61.79362     220.3975        20     1.619     0.894 -41.74   0
       471    975.0664   1013.6858 307.4987194  +6.2778400     513.7806     1094.128     1591.593      87.8774     175.6157     350.6395      2.570     3.87     1108.026     61.79362     100.1023         5     0.859     0.500 -50.18   0
       472    713.8442   1010.1160 307.6073938  +6.2706217     6132.167     10743.81     12161.54      87.8774     175.3372     350.6046      1.863     4.97     1114.006     61.79362     852.5581        36     1.860     0.935 -42.35   0
       473    428.7406   1010.3470 307.7258610  +6.2610134     3340.563     6107.196      7474.39      87.8774     175.2675     350.5698      2.058     5.27     1116.857     61.79362     437.0265        28     1.693     1.029 -39.22   2
       474    570.0217   1009.2919 307.6671877  +6.2661666     3325.899     5954.909     6311.294      87.8774      175.128     350.3954      1.876     4.79     1117.251     61.79362     400.7565        28     1.746     0.943 -37.19   0
       475    706.6252   1008.9757 307.6104322  +6.2708522     1018.641     1934.916     2726.988     87.31944      175.128        350.5      2.023     4.47     1114.131     61.79362     149.4349        10     1.314     0.590 -43.65   0
       476    745.3864   1005.7846 307.5944322  +6.2734614     1105.371     2068.838     3374.015     87.59886     174.9884        350.5      2.111     6.80     1113.089     61.79362     171.1577        16     1.959     0.663 -44.13   0
       477    953.3657    999.6019 307.5082112  +6.2829356      6505.17     10718.87     10770.88     86.89862      175.128     350.3606      1.766     4.74     1108.544     61.79362      978.114        34     1.734     0.919 -41.42   0
