#   1 NUMBER                 Running object number                                     
#   2 X_IMAGE                Object position along x                                    [pixel]
#   3 Y_IMAGE                Object position along y                                    [pixel]
#   4 ALPHA_J2000            Right ascension of barycenter (J2000)                      [deg]
#   5 DELTA_J2000            Declination of barycenter (J2000)                          [deg]
#   6 FLUX_APER              Flux vector within fixed circular aperture(s)              [count]
#   9 FLUXERR_APER           RMS error vector for aperture flux(es)                     [count]
#  12 FLUX_RADIUS            Fraction-of-light radii                                    [pixel]
#  13 FWHM_IMAGE             FWHM assuming a gaussian core                              [pixel]
#  14 BACKGROUND             Background at centroid position                            [count]
#  15 THRESHOLD              Detection threshold above background                       [count]
#  16 FLUX_MAX               Peak flux above background                                 [count]
#  17 ISOAREA_IMAGE          Isophotal area above Analysis threshold                    [pixel**2]
#  18 A_IMAGE                Profile RMS along major axis                               [pixel]
#  19 B_IMAGE                Profile RMS along minor axis                               [pixel]
#  20 THETA_IMAGE            Position angle (CCW/x)                                     [deg]
#  21 FLAGS                  Extraction flags                                          
         1    250.2818     12.3710 307.8329408  +6.6700060     674.8377     1345.555     1612.238     78.05976     155.8094     311.8361      2.150     7.41     835.0239     54.97711       96.362        11     1.685     0.913 -39.52   0
         2    196.2856     12.8699 307.8553586  +6.6679823     698.3242     1146.698     559.8274     78.30717     156.2434     311.9291      1.600     4.21     835.0522     54.97711     144.3292         7     1.117     0.452 -62.14   0
         3    173.3220     10.1600 307.8649915  +6.6683278     9752.929     16198.97     17143.55     78.05976     155.9956     311.9291      1.774     3.90     835.1158     54.97711     1294.487        44     1.673     1.123 -37.69  16
         4    919.0197      8.0948 307.5552186  +6.6941998     3806.115     6113.559     6368.286     78.05976     155.8094     310.6241      1.671     4.20     825.2281     54.97711     572.2157        31     1.611     0.972 -35.00  16
         5    517.6760      8.3780 307.7219740  +6.6806413     2683.248     4455.054     4744.277     77.81155     155.8094     311.6499      1.783     4.32     827.3884     54.97711     377.8011        25     1.550     0.949 -36.41  16
         6    719.5526      6.8406 307.6381437  +6.6880442     1806.256     2900.298     2918.579     78.05976     155.9956     303.1229      1.634     3.75     825.7156     54.97711     261.6647        17     1.360     0.802 -41.76  16
         7    455.8771      6.8932 307.7477020  +6.6791796     1682.903     2764.631     2966.819     77.93575     156.2434     303.6648      1.767     4.45     828.9311     54.97711     248.4808        20     1.483     0.850 -30.18  16
         8    983.6033      4.4680 307.5285044  +6.6978551     1924.288     3085.305      3217.16     77.56256     155.6231     279.0672      1.773     4.94     819.8796     54.97711     251.0459        20     1.559     0.828 -44.92  16
         9    702.7374      1.6519 307.6453057  +6.6896235     5515.542     7013.926     7153.461     71.86668     128.7545     240.0127      1.257     3.18     825.9594     54.97711     1049.585        20     1.365     0.675  -8.04  24
        10    622.6193      1.2937 307.6786082  +6.6870865     1788.989     2144.534     2264.083     67.27905     123.2272     233.9313      1.121     3.16     826.6146     54.97711     426.9733         9     1.097     0.446  -5.22  24
        11    710.6876   1004.6224 307.6082029  +6.2757487     2594.988     4444.504     6125.713     78.18356     155.8094     311.8051      2.264     4.88     859.6763     54.97711     331.4996        27     1.742     0.933 -39.48   2
        12    788.1857   1023.4026 307.5753950  +6.2705871     3615.773     5016.965     5476.438     70.91835     127.6227     238.7602      1.410     3.42     858.9062     54.97711     762.1642        21     1.513     0.740  -4.93  24
        13    578.6464   1020.5878 307.6624855  +6.2647338     67325.85     113502.6     124786.3     77.56256     155.8094     278.5121      1.844     3.87     860.8547     54.97711     9107.559       104     1.980     1.365 -34.96  24
        14    434.1388   1005.3516 307.7229949  +6.2661783     826.8588     1327.198      1102.57     78.18356     155.9335     311.9601      1.859     5.08     860.5261     54.97711     124.7827        10     1.119     0.651 -41.50   0
        15    726.1803   1003.8715 307.6017959  +6.2765773     851.4595     1504.092     1846.126     77.81155     155.8715     311.8361      2.026     5.51     859.4899     54.97711     120.2829        11     1.320     0.649 -46.66   0
        16    357.4268   1002.0899 307.7549535  +6.2649495     1748.226     2765.011     2825.837     78.30717     155.7474      311.774      1.698     4.18     859.8833     54.97711     239.5525        15     1.327     0.749 -47.61   0
        17    205.2359   1000.7578 307.8181824  +6.2603840     458.5764     550.9335     1005.354     77.93576     155.9956      311.743      1.305     3.77     858.1031     54.97711     74.85529         5     0.945     0.432 -45.13   0
        18    235.2985   1006.5992 307.8055040  +6.2589831     1300.692     2158.055     2306.587     77.68716     155.6231     311.5879      1.764     5.92     859.0508     54.97711     182.2648        14     1.517     0.650 -40.64   0
        19    539.8463    992.1570 307.6795532  +6.2751726      3891.83     6243.332     7675.413     78.18356     155.9956     311.8361      1.777     4.00     860.4064     54.97711     583.8781        28     1.607     0.965 -44.66   0
        20    509.9842    993.8934 307.6918927  +6.2734542     950.4524     1493.488     765.4408     77.93575     155.8094      311.743      1.695     4.13      860.483     54.97711     177.4873        13     1.315     0.704 -41.04   0
        21    290.2181    990.7827 307.7832385  +6.2673602     13566.24      23031.6     26494.04     77.93575     155.6852     311.8361      1.881     4.41     858.6454     54.97711     2082.888        64     2.173     1.125 -35.93   0
        22    744.4743    991.5612 307.5946149  +6.2822727     7151.427     11628.54     12597.41     78.05976     155.9956     311.9601      1.809     4.16      858.744     54.97711     977.2014        43     1.809     1.099 -36.92   0
        23    414.5774    991.3729 307.7315883  +6.2712937     1053.424     1559.693     1683.653     77.68716     155.8094     311.8361      1.641     5.65     859.8857     54.97711     124.5861        14     1.265     0.871 -60.84   0
        24    805.3737    991.3182 307.5693382  +6.2844102     953.4645     1358.276     1478.976     78.05976     155.8094     311.8981      1.449     3.38     857.5609     54.97711     190.8794         9     1.088     0.574 -31.92   0
        25    905.7208    985.1392 307.5278824  +6.2903158     7746.579     13607.06      14918.2     78.30717     155.9956     311.8981      1.893     4.02     855.6923     54.97711      903.202        48     1.762     1.251 -36.53   0
        26    261.2480    988.3954 307.7953466  +6.2673720     803.1629     1337.121     1467.599     77.56256     155.8094     311.5879      1.681     4.19     858.5464     54.97711     140.0837         6     0.742     0.675  84.41   0
        27    537.0867    984.4033 307.6809604  +6.2782816     7976.453      12595.2     14295.66     77.68716     155.6231     311.6499      1.691     3.85     860.1003     54.97711     1111.142        39     1.702     0.955 -37.88   0
        28    879.3943    981.2916 307.5389424  +6.2910249     10954.98     18916.96     20647.61     77.81155     155.6852      311.681      1.913     4.06     856.5049     54.97711     1326.705        58     1.914     1.250 -32.53   0
        29   1001.0750    980.8197 307.4884365  +6.2952835     4169.307     7372.933     8210.647     77.81155     155.8715     311.8361      1.937     3.91      852.414     54.97711     551.9012        35     1.662     1.130 -35.92   0
        30    591.6926    981.8491 307.6583750  +6.2811668     1400.679     2234.683     2653.488     78.05976     155.8715     312.0221      1.730     4.92     859.4972     54.97711     213.7256        18     1.540     0.883 -43.96   0
        31    523.4839    980.2984 307.6867465  +6.2795205     3888.442     6441.653     7660.193     78.18356     156.3671     311.9601      1.864     4.16     859.9473     54.97711     532.1599        32     1.646     1.023 -27.99   0
        32    632.9517    979.5630 307.6413219  +6.2834931     1464.802     2228.832     1996.087     77.93575     155.9956     311.8051      1.638     4.54     859.1886     54.97711      205.923        14     1.353     0.666 -38.44   0
        33     58.2866    979.2555 307.8799175  +6.2643156     892.1158     1234.281     1483.583     78.18356     155.9335     312.0531      1.584     3.98     855.7231     54.97711     121.9351         9     0.909     0.862  80.26   0
        34    476.5709    976.9139 307.7063381  +6.2793444     2140.383     3390.674     3227.458     78.30717     155.6852      311.743      1.710     4.11     859.8054     54.97711      284.137        19     1.453     0.817 -48.38   0
        35    911.1608    968.8572 307.5261709  +6.2972206     38549.85     66516.38     72882.82     78.18356     156.0576     311.8981      1.890     4.18     854.9011     54.97711      4886.25        88     1.940     1.350 -33.42   0
        36    218.1927    967.2201 307.8139381  +6.2746676     1506.219     2454.356     2353.159     77.81155     155.7474      311.712      1.561     4.13     857.5408     54.97711     246.1021        18     1.514     0.757 -49.28   0
        37    616.7922    965.5534 307.6485033  +6.2887365     814.1252     1406.173     1373.585     77.68716     155.8715     311.5258      1.599     6.36     858.8635     54.97711     121.5334        11     1.452     0.939 -54.53   0
        38    808.9722    962.9588 307.5687981  +6.2962406     2157.397     3708.592     3851.268     77.81155     155.8715      311.743      1.887     4.55     856.6158     54.97711     285.6514        25     1.545     0.989 -46.62   0
        39    757.1815    960.6906 307.5903780  +6.2954449     6262.376     10149.05     12065.72     77.93575     155.7474      311.774      1.810     3.87     857.2903     54.97711     824.0172        44     1.896     1.138 -42.14   0
        40    724.3615    961.6505 307.6039725  +6.2939502     489.6989     785.8852     800.5959     77.93576     155.9335     311.8671      1.585     4.18     857.7885     54.97711     66.39709         5     1.247     0.400 -36.87   0
        41    543.4072    960.2726 307.6791502  +6.2884574     978.0778     1379.047     1546.277     77.81155     155.5609     311.8051      1.504     4.62     859.1821     54.97711     141.7185        10     1.159     0.649 -57.51   0
        42    226.6207    959.7273 307.8106926  +6.2780448     1258.545     2279.843     2880.645     77.81155     155.8715     311.8671      2.456     5.06     857.5016     54.97711     218.3787        17     1.555     0.809 -44.90   0
        43    191.0837    959.2696 307.8254620  +6.2770384     780.7697     1293.565     1447.341     78.43059     156.2434     311.9291      1.672     4.33     856.7147     54.97711     121.0798         8     0.862     0.662 -45.66   0
        44     51.5566    957.6309 307.8834444  +6.2730177     2762.305     4276.506     3998.393     77.81155     155.9335      311.774      1.677     4.06     855.5911     54.97711     365.6975        23     1.497     0.871 -39.44   0
        45    945.4221    955.5824 307.5123914  +6.3038465     6134.068     10645.92     11316.09     77.93576     155.8715     311.8361      1.900     4.17     853.2965     54.97711     752.4567        43     1.745     1.168 -40.93   0
        46    201.3848    951.8007 307.8214381  +6.2804689     661.2501      1168.64     1268.092     77.81155     155.6852      311.681      2.009     6.42     856.7567     54.97711     95.55219        12     1.776     0.653 -44.20   0
        47    627.6622    949.6622 307.6445257  +6.2956624     697.4736     1059.364     801.5412     78.18356     155.9956     311.9291      1.685     3.74     858.3354     54.97711     150.6942         7     1.095     0.643 -36.79   0
        48    919.3099    947.4576 307.5235065  +6.3063292     2007.773      3484.19     3353.243     78.05976     155.9335     312.0221      1.854     4.67      853.824     54.97711      241.004        22     1.495     0.976 -38.07   0
        49    639.8730    943.3338 307.6396691  +6.2986845     4278.731     6666.065     6780.281     78.30717     156.0576     311.8981      1.633     3.59     858.0009     54.97711     635.3961        28     1.545     0.926 -32.75   0
        50    252.0064    943.3389 307.8007075  +6.2856653     4111.538     6576.908     6926.005     77.56255     155.8094      311.681      1.701     3.91     857.5476     54.97711     614.4163        31     1.588     0.999 -38.81   0
        51    778.2652    943.8412 307.5821911  +6.3031076     1035.718     1799.198     1903.371     78.18356     155.9335     311.9911      1.807     4.64     856.3682     54.97711     191.4878        11     1.273     0.666 -45.17   0
        52    461.9552    941.7147 307.7135945  +6.2933881     1046.034     1836.317     1715.211     78.18356     155.8715     311.8981      1.926     5.93     858.3937     54.97711     147.3107        14     1.561     0.742 -40.29   0
        53     20.7024    940.7925 307.8968247  +6.2789306     2000.161     3107.323     3288.392     77.93575     155.6231      311.681      1.698     4.75     855.4794     54.97711     315.6768        19     1.635     0.710 -44.30   0
        54    871.4990    940.0378 307.5436075  +6.3077955     972.6309     1407.947     1243.919     78.18356     155.8715     312.1151      1.427     4.67     854.9523     54.97711     152.4556        12     1.084     0.936 -18.61   0
        55    963.3482    938.0376 307.5055377  +6.3116897      453.754       755.78     941.1882     77.93575     155.9956     311.8981      1.565     4.74     852.0106     54.97711     87.91229         5     1.336     0.476  89.42   0
        56    943.5217    937.1108 307.5138011  +6.3114103     665.8582     1148.256     1262.432     77.93575     156.2434     312.0221      2.015     5.11     852.6442     54.97711     86.33636         8     0.987     0.749 -18.85   0
        57    564.2979    935.7365 307.6713040  +6.2992891     1436.477     2472.039     2087.651     78.05976     156.1195     311.9291      1.768     4.47     858.2357     54.97711     263.8282        17     1.546     0.736 -36.98   0
        58    288.1100    936.7070 307.7859422  +6.2896174     871.7503     1347.026     1778.213     78.18356     156.4908     311.9291      1.500     3.68     858.4269     54.97711     151.2726         8     1.035     0.514 -54.56   0
        59    995.4592    935.7923 307.4922801  +6.3136889     776.7751     1639.844     2122.247     77.56256     155.8715     311.6189      2.782     7.11     850.8027     54.97711     102.0252        12     1.438     0.986 -60.41   0
        60    603.5350    932.1647 307.6551331  +6.3020790     1174.398     1966.819     2774.599     78.05976     155.9956     311.9291      2.009     3.55     858.0734     54.97711     236.4526        13     1.300     0.617 -47.25   0
        61     53.6189    932.6490 307.8834350  +6.2834021     714.2036     1167.849     1416.927     77.68716     156.0576      311.681      1.712     4.62     855.4479     54.97711     114.7101         8     1.382     0.439 -45.18   0
        62    283.7342    929.6498 307.7879977  +6.2923843     1364.073     2095.779     2150.577     78.05976     155.8715     311.8671      1.664     3.97     858.2747     54.97711     194.4543        13     1.248     0.663 -37.76   0
        63    750.1721    926.5203 307.5944386  +6.3093198      922.619     1301.679     973.1856     78.05976     155.9335     311.8981      1.548     5.52     856.0804     54.97711     130.1307        12     1.332     0.645 -33.53   0
        64    552.8475    927.3959 307.6763395  +6.3023491     491.7615     784.4725     687.1151     77.56256     155.7474     311.5879      1.612     3.49     857.9466     54.97711     94.11127         5     0.847     0.416 -20.41   0
        65    888.0507    922.5340 307.5373234  +6.3155763      6546.33     10619.21     10890.42     78.05976     155.9335     311.8981      1.751     3.83     853.8625     54.97711     826.0034        38     1.630     1.086 -34.42   0
        66    127.1333    923.2679 307.8532316  +6.2897513     499.7212     787.5971     860.9811     78.18356     156.0576     311.9291      1.324     3.50     855.5675     54.97711     79.17407         5     1.020     0.346 -44.02   0
        67    424.0307    919.6033 307.7300872  +6.3012453     2119.698     3256.076     3395.163     77.68716     155.8094      311.712      1.604     4.17     857.6065     54.97711     275.9387        19     1.370     0.886 -46.13   0
        68    325.7021    917.9127 307.7709699  +6.2986410     9061.896      14482.2     15367.41     78.18356      156.429     311.9291      1.666     3.91     858.1946     54.97711     1377.851        43     1.690     1.052 -36.09   0
        69    245.7763    916.8773 307.8041893  +6.2963820     6797.809     10903.07     11707.87     77.81155     155.8715     311.8671      1.686     3.81     856.9786     54.97711     1034.732        36     1.718     0.974 -38.91   0
        70    757.7939    911.8950 307.5917662  +6.3156139     632.5391     895.1024     999.6624     77.93575     155.6852      311.712      1.610     4.40     855.6013     54.97711     92.86658         7     1.062     0.519 -67.64   0
        71    574.1943    911.2191 307.6680218  +6.3097444     1140.195     1827.842     2122.522     77.81155     155.6231      311.712      1.701     5.49     857.4982     54.97711     194.0536        14     1.499     0.833 -45.06   0
        72    903.7502    907.9781 307.5312940  +6.3221113     965.3666     1389.907     1705.397     77.68716     156.0576      311.774      1.712     6.07     853.1455     54.97711     126.7861        13     1.369     0.757 -43.94   0
        73    859.7843    906.9081 307.5495856  +6.3210838     717.7787      1379.04     1289.073     77.93575     155.8094      311.743      1.907     6.14     854.1027     54.97711      113.673        10     1.146     0.926  62.79   0
        74    136.2472    907.0620 307.8499965  +6.2967496     647.7603     945.0649     605.9932     78.05976     155.8715     311.9601      1.520     5.28     855.4359     54.97711     107.6367         8     1.258     0.646 -44.83   0
        75    402.8915    905.7896 307.7393308  +6.3062394     641.2227     884.8682     777.2176     77.93575     155.6231      311.681      1.447     5.08     857.5034     54.97711      97.9845         7     1.027     0.710 -66.13   0
        76    740.1276    900.7639 307.5994763  +6.3196190     1377.858      2182.27     2498.997     78.05976     155.9956     311.8981      1.642     4.30      855.514     54.97711     215.3887        14     1.360     0.655 -42.26   0
        77    563.7612    901.2390 307.6726903  +6.3135155     721.1798     1013.161     769.2916     77.93576     155.9956      311.774      1.438     6.11     857.2612     54.97711     116.5643        10     1.252     0.877 -49.38   0
        78    833.1288    901.0249 307.5608514  +6.3226221     571.6487     935.9554     857.9543     77.81155     155.8715     311.8361      1.708     3.86     854.3469     54.97711     77.97974         5     0.823     0.519 -33.50   0
        79    971.0927    896.7553 307.5037087  +6.3289946     1202.543     2185.627      2929.94     78.18356     155.9335     312.0221      1.861     5.22     850.5338     54.97711     149.5097        17     1.519     0.870 -43.20   0
        80    604.1523    897.3378 307.6560509  +6.3164802     714.4835     1190.906     1072.859     78.05976     155.9335     311.9601      1.702     4.42     856.9757     54.97711     108.4188         7     1.202     0.473 -46.11   0
        81    616.1353    896.5398 307.6511023  +6.3172112     648.4897     890.5056     1002.781     78.18356     155.9335     311.9291      1.431     4.68     856.8818     54.97711     86.51959         8     0.933     0.666 -54.54   0
        82    525.3388    896.4144 307.6888064  +6.3142194     1151.411     1590.122     1878.864     77.68716     155.9335      311.681      1.395     3.18     857.2773     54.97711     199.1322        10     1.010     0.696 -40.23   0
        83    658.7451    894.0937 307.6334925  +6.3196486     2321.856     3719.008     4134.838     78.05976     155.9956     312.0841      1.649     4.18     856.3644     54.97711     337.8891        21     1.529     0.801 -38.60   0
        84     55.3352    889.9709 307.8841690  +6.3010816      2726.69     4512.063     4620.618     77.93575     155.9956     311.8361      1.727     4.18     854.1818     54.97711     412.3518        25     1.544     0.966 -47.25   0
        85    819.4984    890.5893 307.5668622  +6.3264753     813.2892     1364.861     639.3842     77.93576     155.6231      311.712      1.735     4.03     854.2841     54.97711     149.9005         8     1.084     0.544 -52.96   0
        86    198.9854    888.9284 307.8245623  +6.3063483     2012.867     3453.391     3275.298     77.68716     155.8715     311.8051      1.733     4.19     856.0127     54.97711     307.6419        26     1.757     0.961 -47.09   0
        87    936.7393    889.7379 307.5182091  +6.3307451      686.188     1230.635     992.0714     78.18356     155.9956     311.9291      1.926     4.61     851.9111     54.97711     108.5676         6     0.980     0.615 -55.42   0
        88     72.8319    889.3598 307.8769254  +6.3019234     1903.784     3108.669     3694.185     77.81155     155.8094      311.774      1.757     4.21     854.4231     54.97711     262.3804        19     1.342     1.006 -37.50   0
        89    232.8843    885.6564 307.8105983  +6.3088396     897.1979     1446.546     1391.456     78.18356     155.9956     311.9911      1.698     6.49     856.5354     54.97711     131.7155        11     1.282     0.921 -37.69   0
        90    653.4188    883.0729 307.6360754  +6.3240209     6674.938     10712.98     11767.83     77.81155     155.9335     311.8361      1.705     4.06      856.124     54.97711     1007.283        40     1.785     1.090 -27.43   0
        91    338.0915    884.5052 307.7669552  +6.3128515     713.2939     1398.383     1967.021     78.18356     156.4908     311.8981      2.436     4.19     857.4532     54.97711     147.4739         8     1.300     0.438 -62.23   0
        92    790.4881    883.8684 307.5791341  +6.3282803     667.7717     864.2225     1261.003     78.30717     156.2434     311.9291      1.571     4.15     854.4897     54.97711     91.49548         6     1.040     0.472 -32.34   0
        93    946.6906    881.8295 307.5143427  +6.3343430     7497.366     7429.192     7724.975     78.30717     155.7474     311.8361      0.643     0.92      851.288     54.97711     4077.348         6     0.486     0.394   8.10   0
        94     13.1623    881.2508 307.9019742  +6.3032610     1217.159     1891.347     1781.292     77.93575     155.8715     311.8671      1.603     5.36       853.13     54.97711     162.6887        15     1.456     0.700 -42.87   0
        95    891.1337    879.4841 307.5374906  +6.3334555     2675.974     4377.617      3946.22     78.30717     156.2434     311.9601      1.702     3.99      852.798     54.97711     370.1989        24     1.521     0.893 -34.65   0
        96     26.1500    879.8661 307.8966288  +6.3042705     1132.364     1824.597      1504.68     78.05976     155.8715     311.8671      1.577     3.52     853.3239     54.97711     159.5165        12     1.057     0.770 -34.22   0
        97    336.4684    876.1968 307.7679099  +6.3162276     15538.77     24677.66     27037.77     77.56256     155.6231      311.681      1.715     3.98     857.2612     54.97711     2182.412        53     1.816     1.074 -32.21   0
        98     70.6530    877.4093 307.8782350  +6.3067843     1179.645     1953.843     2417.634     77.56256     155.8715     311.6189      1.913     4.49     854.0832     54.97711     180.4523        12     1.260     0.692 -46.40   0
        99    207.3764    875.7474 307.8215245  +6.3120731     1095.972     1546.182     1386.174     77.68716     155.9956      311.712      1.378     4.30     856.0867     54.97711     181.3894        11     1.307     0.577 -33.21   0
       100    665.6340    868.4749 307.6314953  +6.3304578     683.3889     907.9803     1341.035     78.05976     155.9956     311.8671      1.688     4.14     855.6295     54.97711      110.991         7     0.938     0.550 -55.65   0
       101    414.2243    867.2253 307.7359280  +6.3225435     950.3141     1399.391     1454.113     77.68716     155.8094     311.8361      1.641     4.78     856.8848     54.97711     141.1575        11     1.244     0.626 -33.90   0
       102     99.4481    866.8038 307.8666389  +6.3121332     1545.628     2552.464     2630.072     77.56256     155.7474     311.5258      1.721     4.21      854.462     54.97711      218.923        19     1.500     0.804 -40.93   0
       103    667.6485    863.5592 307.6308244  +6.3325550     818.3724     1506.783      1132.95     78.05976     155.9335     311.8361      1.972     5.45     855.5086     54.97711     131.9501        11     1.376     0.608 -37.84   0
       104    495.0418    863.8495 307.7024852  +6.3266497     661.9907     1075.547     1284.697     78.30717     155.9956     311.8671      1.577     3.96     856.7362     54.97711     106.5892         6     0.909     0.495 -37.37   0
       105    881.5507    861.0696 307.5420889  +6.3407390      1730.99     2850.907     2607.085     78.18356     155.9335     311.9291      1.676     5.04     852.5473     54.97711     224.9942        18     1.477     0.873 -35.56   0
       106    852.2915    860.6925 307.5542511  +6.3399167     2179.391     3268.547     3085.925     78.18356     156.4908     311.8981      1.624     3.91     853.0342     54.97711     283.1649        21     1.410     0.890 -34.71   0
       107    815.6093    860.1909 307.5694997  +6.3388974     2949.802     4814.144     5190.935     77.68716     155.8094      311.774      1.758     4.03     853.5427     54.97711     410.9628        26     1.510     0.967 -34.48   0
       108     83.0276    860.4613 307.8736715  +6.3141989     2305.261     3772.784      4129.68     77.81155     156.0576     311.8671      1.821     4.15     853.9512     54.97711     319.7291        23     1.478     0.944 -38.89   0
       109    551.5987    851.4442 307.6794200  +6.3336688     315219.5     499082.4     539709.2     77.56256     155.6852     311.4947      1.740     4.06      855.972     54.97711     46574.98       177     1.950     1.302 -34.93   0
       110    331.2328    858.5616 307.7706799  +6.3233334     585.5037     711.8391     1195.439     77.81155     155.8094      311.681      1.406     3.34     856.9708     54.97711     125.3929         5     1.062     0.603 -32.96   0
       111    395.7228    853.9871 307.7440573  +6.3273885     7201.964     11243.49     11637.18     77.81155     155.6231      311.712      1.650     3.75     856.5597     54.97711     1126.188        37     1.694     0.955 -40.65   0
       112    339.0493    852.4454 307.7676412  +6.3261214     11712.97     18712.15     20355.52     78.18356     155.8715     311.9291      1.750     3.97     856.8579     54.97711     1651.934        49     1.814     1.066 -34.20   0
       113    639.1822    854.7225 307.6429422  +6.3352504     1161.978     2008.173     2259.111     77.68716     155.8094     311.8361      1.927     5.07     855.4221     54.97711     165.0911        13     1.448     0.691 -32.87   0
       114    889.9238    847.6427 307.5390634  +6.3465630     5004.552     8363.586     9449.156     78.05976     155.9956     311.9291      1.846     4.31     852.1057     54.97711     623.9656        36     1.729     1.094 -33.17   0
       115    657.3790    848.8035 307.6355859  +6.3383039      3236.44     5116.217     5052.422     77.81155     155.6852      311.681      1.628     3.94     855.1145     54.97711     480.1682        22     1.519     0.818 -37.52   0
       116    728.7949    845.8681 307.6060303  +6.3419071     653.0342     937.7175     1387.841     77.68716     155.6852      311.712      1.674     5.50     854.3385     54.97711     123.3682         9     1.220     0.721 -45.51   0
       117   1022.8020    842.0220 307.4840751  +6.3533213     4023.995     5786.938     6025.143     76.55847     135.9169     248.1363      1.553     3.98     847.0168     54.97711     578.3652        22     1.399     0.885 -67.39  24
       118    632.2133    842.7283 307.6462402  +6.3399694     3062.619     4863.321     5399.767     77.68716     155.8094      311.774      1.669     4.00     855.1138     54.97711     458.4764        22     1.504     0.838 -43.28   0
       119    820.7233    842.0858 307.5679853  +6.3465444     1676.997     2566.559     2608.064     78.18356     156.3053     311.9911      1.645     4.13     853.2067     54.97711     228.7137        15     1.210     0.860 -20.93   0
       120    947.2007    841.3198 307.5154920  +6.3510873     721.2454     1309.428     1208.387     77.43776     155.3743     311.6499      1.949     5.02     850.1723     54.97711     119.1922         9     1.299     0.549 -39.03   0
       121    624.4258    838.6049 307.6496129  +6.3414112     1889.407     3837.888     5149.638     77.68716     155.8094      311.743      2.398     8.22      855.056     54.97711     290.5109        34     2.492     0.979 -53.13   0
       122    908.5749    835.4666 307.5317280  +6.3522140      3033.45     4920.884      4643.38     77.81155     155.8715     311.8051      1.778     3.79     851.2554     54.97711     398.1602        27     1.460     1.057 -32.28   0
       123    318.6925    836.9757 307.7766167  +6.3318249     912.9221     1390.766     1534.739     78.30717     155.8094      311.743      1.552     3.50     856.7444     54.97711     144.8401         9     1.074     0.570 -28.43   0
       124    366.7986    831.3288 307.7568329  +6.3357728     2557.672      3859.38     4162.794     77.68716     155.5609      311.743      1.594     3.50      856.358     54.97711     399.7625        22     1.612     0.791 -33.10   0
       125    503.1587    821.2087 307.7005540  +6.3445288     2907.667     4477.485     4552.522     77.56256     155.8094     311.6499      1.605     3.98     855.1187     54.97711     425.3514        26     1.571     0.895 -36.56   0
       126    847.3444    820.5855 307.5576543  +6.3563123     909.4959     1295.677     1528.742     77.56256     155.9335     311.6189      1.502     3.62     852.5774     54.97711     154.6077        12     1.107     0.830 -27.68   0
       127    568.1552    819.0095 307.6736392  +6.3476165     809.9605     1052.539      1235.36     77.68716     155.8715     311.6189      1.391     4.36     854.8423     54.97711     115.4011         9     0.966     0.694 -76.17   0
       128    549.9858    817.2939 307.6812417  +6.3477158      5814.41     9175.559     9952.491     77.93575     155.7474      311.743      1.666     3.71     854.8837     54.97711     950.0631        32     1.661     0.964 -33.03   2
       129    556.8471    816.8010 307.6784093  +6.3481493     1205.051     2043.576     2911.214     77.56255     155.6231     311.4637      2.139     4.83     854.8433     54.97711     168.8522        16     1.330     0.896 -26.96   3
       130    261.1323    817.6419 307.8011708  +6.3378731      640.799     802.9639     1014.023     78.18356     155.9335     311.9601      1.436     5.15     856.3914     54.97711      97.9668         8     1.176     0.636 -46.07   0
       131    467.4779    816.3757 307.7155330  +6.3453273     1452.961     2184.861     2303.327     77.81155     155.8715     311.8671      1.605     4.14     854.9653     54.97711     225.2379        14     1.290     0.745 -29.65   0
       132    109.0825    815.7127 307.8643698  +6.3335531     1190.681     1856.551     1713.778     77.93575     156.1815     311.9601      1.797     6.06     853.4741     54.97711     169.8349        14     1.613     0.639 -42.37   0
       133    885.6644    815.3880 307.5419166  +6.3597393     1298.939     2061.802     2032.831     77.68716     155.8094      311.743      1.656     5.18      851.491     54.97711     161.6113        14     1.308     0.709 -52.21   0
       134    685.4601    814.4210 307.6250839  +6.3534414     727.2924     1325.371     1184.143     77.81155     155.9335     311.8361      1.960     5.49     853.8448     54.97711     114.8596         7     1.222     0.694 -70.93   0
       135    361.9778    812.6788 307.7594649  +6.3433117     687.3023     1013.694     592.3634     77.81155     155.6852     311.8671      1.444     5.09     856.1805     54.97711     105.7396         8     1.114     0.663 -70.46   0
       136    520.7120    811.1274 307.6936054  +6.3492803     18407.12      29082.8     31234.21     78.30717     156.2434     311.8981      1.696     3.91      854.737     54.97711     2757.588        55     1.770     1.095 -34.76   0
       137    934.3167    809.5259 307.5219105  +6.3637854     3648.633     5473.164     5885.852     78.30717     156.3053     311.9601      1.633     3.89     849.5352     54.97711     521.4991        22     1.431     0.870 -37.53   0
       138    167.9676    810.8607 307.8400841  +6.3375389     600.0276     657.3035    -68.86639     77.93575     156.0576     311.8361      1.308     3.91     854.7098     54.97711     99.00085         6     0.944     0.464 -32.43   0
       139     53.3416    808.0449 307.8877740  +6.3348416     503.1754     795.3193     517.6937     78.05976     155.9956     311.9911      1.773     3.91     852.2239     54.97711     80.85626         5     1.292     0.338 -42.09   0
       140    406.5357    806.7701 307.7411627  +6.3472479     538.9553     1049.883     1068.995     77.93576     156.0576     311.8361      1.496     4.14     854.8868     54.97711     90.92828         6     1.055     0.465 -29.20   0
       141     30.9856    801.5493 307.8972767  +6.3367702     1325.952     2273.198     2616.417     77.56256     155.9956     311.6499      1.841     5.03     851.7225     54.97711      222.356        19     1.605     0.903 -38.51   0
       142    575.7568    801.3764 307.6710775  +6.3551523     547.0714     884.2805     961.2092     77.68716     155.8715      311.712      2.291     5.11     854.2421     54.97711     69.86676         5     1.032     0.716 -77.29   0
       143    313.1729    799.8160 307.7801651  +6.3469829     3035.843     4581.997     4721.694     77.81155     155.8094     311.8051      1.584     3.71     856.2522     54.97711       433.28        24     1.475     0.838 -45.54   0
       144    778.8673    795.7010 307.5869269  +6.3642975     51704.08     82154.94     88188.37     78.18356     156.1195     311.8981      1.720     4.11     852.8754     54.97711     7320.891        76     1.834     1.156 -33.34   0
       145     13.0766    798.0379 307.9048318  +6.3376164     2075.741     3200.634     3350.868     78.05976     156.0576     311.8981      1.579     4.17     851.4093     54.97711     288.1598        19     1.404     0.781 -43.43   0
       146    421.8537    794.5844 307.7352138  +6.3527938     817.9076     1235.351     1236.156     77.56256     155.9956     311.6189      1.606     4.10     854.2623     54.97711     148.8362         8     1.143     0.551 -32.41   0
       147    235.8133    771.9748 307.8132292  +6.3558778       746692      1837328      2144689     77.93575     155.8094     311.8361      2.465    11.45     854.7655     54.97711     63320.07       623     2.873     2.262 -61.24   4
       148    904.1490    790.9851 307.5350612  +6.3704335      7876.74     12916.22     14519.05     77.56256     155.9956     311.6499      1.754     3.91      850.163     54.97711      1186.15        44     1.771     1.091 -32.15   0
       149    706.9357    790.3983 307.6169755  +6.3640798     20133.98     32138.52     35841.68     77.56255     155.7474      311.681      1.735     3.85     853.1027     54.97711     2855.786        57     1.849     1.118 -34.96   3
       150    700.7999    786.8254 307.6196438  +6.3653497      82675.2     131427.1     142756.3     77.68716     155.6852      311.712      1.706     4.03     852.9926     54.97711     12278.44        90     1.881     1.182 -34.59   3
       151    345.7149    787.6112 307.7670652  +6.3531159     19349.36      31025.7     33082.45     77.81155     155.7474      311.743      1.750     3.98     855.6592     54.97711     2702.294        61     1.849     1.122 -33.68   0
       152    394.3555    787.9830 307.7468552  +6.3545962     1321.314     2191.624     2550.958     77.81155     155.8715      311.681      1.813     5.31     854.6801     54.97711     201.6217        15     1.398     0.961 -26.92   0
       153    407.5567    785.4711 307.7414584  +6.3560767     21094.23     33179.41     35931.67     78.05976     155.9956     311.9291      1.735     4.00     854.2819     54.97711     3099.507        56     1.796     1.062 -35.56   0
       154    944.4916    784.4750 307.5185272  +6.3744693     2013.025     3437.708     4171.395     78.18357     156.1815     311.9291      1.864     4.40     848.7076     54.97711      245.998        23     1.476     1.007 -47.91   0
       155    901.0902    782.3843 307.5366206  +6.3738827     6160.993     9947.126     11234.92     77.93575     155.8094      311.743      1.755     4.39     850.0491     54.97711     817.2194        41     1.815     1.031 -32.98   0
       156    873.7570    783.4298 307.5479359  +6.3725376     677.9937     875.3238     761.5511     77.81155     155.9335      311.743      1.409     5.06     851.0101     54.97711     100.2552         7     0.924     0.783 -54.33   0
       157    641.4802    781.5099 307.6444557  +6.3655579     6185.708     9554.557     10482.67     77.93576     156.1815     311.9911      1.722     3.81     852.9102     54.97711     846.3441        34     1.614     0.969 -37.83   0
       158    131.4007    781.7325 307.8562541  +6.3483351     519.6815     834.5529     839.5231     77.43776     155.5609     311.6499      1.847     4.69     853.1912     54.97711     78.99365         7     1.497     0.416 -41.00   0
       159    430.1467    779.4962 307.7322799  +6.3593023     1530.405     2412.774     2262.488     78.05976     155.9956     312.1461      1.651     4.69     853.8651     54.97711     237.4301        17     1.561     0.726 -28.42   0
       160    155.4157    778.7448 307.8463837  +6.3503772     599.9463      955.998     809.4735     77.56256     155.9335     311.6189      1.644     3.43     853.5703     54.97711     98.02094         5     0.753     0.453 -71.09   0
       161   1023.5905    774.4910 307.4860153  +6.3812327     678.4412     824.2456     1014.443     68.98259     125.0195     235.9485      1.138     4.10     846.1951     54.97711     123.8557         7     1.024     0.470 -80.77  24
       162    869.4008    773.6138 307.5500750  +6.3764452     670.2159     1033.513     1310.058     77.81155     155.6852      311.681      1.691     4.72     850.8079     54.97711     112.6491         8     1.350     0.469 -41.57   0
       163    594.3406    773.9843 307.6642843  +6.3670858     981.9011     1459.977     1479.433     77.68716     155.9335     311.6499      1.558     4.22     852.7526     54.97711      153.769         9     1.126     0.623 -39.53   0
       164    676.6649    771.5395 307.6301810  +6.3708534     2241.204     3642.257      3785.47     78.18356     155.9335     311.9291      1.740     3.95     852.3164     54.97711     334.6619        22     1.592     0.785 -39.99   0
       165    145.6352    771.9611 307.8506746  +6.3528489     904.2623     1561.232     1757.518     77.93575     155.8715      311.712      1.788     6.12     853.1953     54.97711     128.2837        12     1.477     0.714 -32.65   0
       166    120.7706    772.1197 307.8609937  +6.3519463      1047.08      1521.77     1530.289     78.05976     155.9956     311.8671      1.454     3.38     852.7628     54.97711     188.9661        10     1.010     0.692 -46.01   0
       167    410.5348    768.1218 307.7408079  +6.3633404     50937.65     80756.38     87680.36     78.43059     156.0576     311.8671      1.723     4.02     853.8452     54.97711     7240.164        86     1.899     1.190 -32.74   0
       168    952.8937    770.2788 307.5155151  +6.3806119      743.601     1110.239     1041.408     77.93575     156.1815     311.9291      1.486     4.50     848.2246     54.97711     119.7352         8     1.097     0.525 -49.49   0
       169    528.1353    767.2144 307.6920048  +6.3676615      6557.95     10306.88     10508.12     77.68716     155.8715     311.8051      1.630     3.72     852.5967     54.97711     1007.657        34     1.617     0.966 -36.30   0
       170    445.1675    765.8148 307.7265046  +6.3654557     4185.066     6659.153     7736.476     77.81155     155.7474     311.8051      1.669     3.90     853.3659     54.97711     678.3786        32     1.742     1.002 -25.61   0
       171    773.4302    763.8214 307.5902579  +6.3772794     10793.23     17346.96     18497.67     77.68716     155.8094      311.774      1.708     4.04     852.0125     54.97711     1585.646        45     1.755     1.029 -34.45   0
       172    441.4282    759.2401 307.7282794  +6.3680450     2094.656     3629.357     3984.193     77.81155     155.7474      311.774      1.855     4.59     853.2225     54.97711     309.2141        24     1.626     1.056 -49.36   0
       173      2.5598    760.4165 307.9104746  +6.3527957     1119.533     1715.952     1582.136     77.68716     140.4663     253.6489      1.691     5.82      851.553     54.97711     167.6794        13     1.469     0.728 -42.92  24
       174    794.8586    758.2918 307.5815455  +6.3802795     1098.131     1801.784     1991.115     78.05976     155.9335     311.9911      1.881     5.59     851.4282     54.97711     142.1414        15     1.322     0.810 -36.98   0
       175    139.1319    756.1926 307.8539091  +6.3591408     2615.647     4563.005      5271.11     77.68716     155.7474      311.774      1.909     3.96     852.6348     54.97711     388.7831        27     1.665     0.960 -33.91   3
       176    131.1548    755.7270 307.8572372  +6.3590645     10750.47     17450.54     19568.89     78.05976     156.0576     311.9291      1.767     3.78     852.5272     54.97711     1644.839        51     1.800     1.130 -33.87   3
       177    963.1828    757.5978 307.5116684  +6.3861917     543.8063     674.2481     1563.513     77.81155     155.5609      311.681      1.253     3.34     847.6879     54.97711     102.9828         5     0.771     0.420 -23.05   0
       178    918.9400    752.4993 307.5302128  +6.3868193     5950.013     9245.333     9665.594     77.93575     155.9335     312.0221      1.634     3.58     848.9404     54.97711     847.3919        33     1.668     0.957 -34.63   0
       179    123.1956    753.3298 307.8606234  +6.3597863     2816.314     4361.715     5206.947     77.68716     155.6231      311.743      1.768     3.61     852.3487     54.97711     381.7332        23     1.434     1.010 -57.83   3
       180    123.4502    746.8275 307.8607380  +6.3624797     1919.881     3186.333     3695.654     77.81155     156.1195     311.8361      1.833     4.15      852.207     54.97711     262.6584        21     1.466     0.877 -42.56   2
       181    968.1461    752.4896 307.5097790  +6.3884667     1336.899     2169.716     2705.008     78.18356     155.8094     312.0221      1.826     4.64     847.3986     54.97711     206.9603        13     1.372     0.628 -36.01   0
       182    674.1580    750.3434 307.6319363  +6.3795216     1577.248      2456.59     2647.646     78.05976     155.9335     311.9291      1.640     4.48     851.3933     54.97711     239.8824        15     1.477     0.628 -29.98   0
       183    561.3889    749.2661 307.6788016  +6.3761877     2246.767     3644.933     3694.728     77.68716     155.8094      311.774      1.709     3.81     851.4524     54.97711       335.61        21     1.503     0.868 -30.62   0
       184    409.5789    748.8568 307.7418557  +6.3712630     1113.609     1888.881     1935.442     77.81155     155.9335      311.712      1.696     4.47     853.4368     54.97711     184.7599        10     1.155     0.595 -45.62   0
       185    913.0892    744.5596 307.5329094  +6.3899022     2730.622     4261.074     4826.554     78.18356     155.9335     311.9291      1.712     3.99     848.9178     54.97711     385.4341        25     1.480     0.970 -31.46   0
       186    973.2975    743.9686 307.5079259  +6.3921572     1872.556     3020.427     3075.552     78.30717     155.8094     311.9911      1.686     4.28     847.0521     54.97711     266.3973        18     1.487     0.727 -42.60   0
       187    942.6007    743.9155 307.5206755  +6.3911540     2854.079     4736.609     5061.542     77.43776     155.4988     311.5879      1.766     4.30     848.1477     54.97711     423.3881        26     1.534     0.932 -40.01   0
       188    665.5255    743.5016 307.6357516  +6.3820576     1435.145     2639.849     2627.513     77.68716     156.1195     311.8671      1.935     5.10     851.1384     54.97711      210.055        19     1.654     0.830 -27.92   0
       189    812.7280    741.9229 307.5746757  +6.3876362     943.4453     1405.473     1217.187     78.43059     156.2434     311.8981      1.525     3.93     850.5225     54.97711     190.1565        11     1.180     0.641 -39.30   0
       190    887.7898    739.9350 307.5435711  +6.3909665      721.592     1173.887     1244.337     77.68716     155.8094      311.774      1.655     5.57     849.1437     54.97711     97.76062        10     1.401     0.625 -17.73   0
       191    237.8682    738.8647 307.8134965  +6.3696182     1801.038     3027.461     4117.631     78.18356     156.0576     311.9291      2.006     3.88     853.2209     54.97711     283.2219        19     1.402     0.820 -40.60   0
       192    930.6047    734.3467 307.5259788  +6.3947045     916.0045     1371.622     1227.734     77.56256     155.7474     311.5568      1.681     3.92     848.4166     54.97711     176.6215         9     1.194     0.561 -37.42   0
       193    904.4508    732.9690 307.5368864  +6.3943996     1163.745     1910.781     1838.211     78.05976     156.1195     311.8361      1.749     4.61     848.7687     54.97711     163.3341        14     1.345     0.707 -44.73   0
       194    153.5984    733.6236 307.8486665  +6.3689466     690.4017     949.9025     1087.674     77.81155     155.6852      311.681      1.481     4.91     852.1443     54.97711     131.1211         8     1.145     0.595 -39.80   0
       195    957.3507    731.8522 307.5149555  +6.3966279     2218.801     3362.186     3560.008     78.30717     155.8715     311.8671      1.674     4.65     847.4131     54.97711      346.178        19     1.486     0.759 -33.45   0
       196    676.8331    731.2635 307.6314684  +6.3874896     964.3691     1449.356     1854.278     78.05976     156.0576     311.8671      1.692     4.16      850.799     54.97711     140.0406        10     1.175     0.621 -35.36   0
       197    397.1271    726.8113 307.7477713  +6.3799477     530.4955     695.9246     819.1989     77.68716     155.6231      311.743      1.377     4.47     852.8152     54.97711     97.30957         6     1.165     0.487 -44.79   0
       198    999.2836    725.2546 307.4977631  +6.4007523     1571.934     2674.188     2494.319     78.18356     155.9956     312.0531      1.689     4.54     845.8522     54.97711     214.0136        17     1.486     0.803 -34.92   0
       199    625.4169    724.4365 307.6530502  +6.3885862     756.1024     1081.722     1245.707     77.68716     155.8715      311.681      1.602     4.19     850.6503     54.97711     112.2148         9     1.002     0.686 -58.35   0
       200    800.3087    723.6862 307.5804469  +6.3947511     1121.721     1820.976     2068.381     77.93576      156.429     312.0221      1.670     4.30     850.1372     54.97711     161.8737        14     1.248     0.801 -35.08   0
       201    886.5950    721.1022 307.5447006  +6.3987030     1408.789      2303.06     3294.539     77.93575     155.6852     311.5879      2.033     4.88     848.7352     54.97711     230.1943        17     1.427     0.960 -12.68   0
       202    861.2507    716.3815 307.5553845  +6.3998051      786.533      1008.11     973.1031     77.68716     156.0576     311.6499      1.351     4.01     849.0402     54.97711     140.7021         6     0.870     0.530 -40.82   0
       203    843.7831    712.3853 307.5627730  +6.4008713     1404.238     2215.736     2322.319     77.93576     155.6852     311.8361      1.660     4.51     849.1785     54.97711     234.2698        16     1.490     0.761 -35.96   0
       204     42.8018    710.9872 307.8954412  +6.3745613     2340.339     3947.625     4112.054     77.81155     155.6852      311.681      1.773     4.17     851.3634     54.97711     352.1826        22     1.448     0.924 -48.95   0
       205    106.5520    710.0039 307.8690026  +6.3771151     826.6577     1876.048     2412.866     77.56256     155.7474     311.5879      2.413     7.47     851.2144     54.97711     113.8763        13     1.420     1.101  57.27   0
       206    655.4581    699.8115 307.6414049  +6.3997608     5872.235     9485.036      10477.2     77.56256     155.9335     311.6189      1.747     3.96     850.2299     54.97711     871.8912        35     1.773     0.910 -39.87   0
       207    513.1887    699.6844 307.7004908  +6.3950442     732.5955     1231.157     1176.412     77.81155     155.7474      311.743      1.785     5.33     850.6237     54.97711     100.0018         9     1.134     0.768 -60.31   0
       208    602.0786    699.2136 307.6635926  +6.3982191     1386.043     2201.974     2259.911     77.81155     155.7474      311.712      1.816     3.80     850.3126     54.97711     222.6323        16     1.322     0.812 -46.57   0
       209    523.8359    699.8575 307.6960634  +6.3953298     589.3844     1028.215     1258.432     78.05976     155.9956     311.9291      1.864     3.90     850.5128     54.97711     82.23297         7     0.925     0.700 -44.97   0
       210    629.4120    695.5891 307.6523638  +6.4006317     2103.963     3416.409     4212.587     77.93576     155.8094     311.8671      1.861     4.57      850.226     54.97711     290.7981        23     1.635     0.908 -45.25   0
       211    118.5731    695.4352 307.8645045  +6.3835354     3474.499     5840.539     5899.322     77.68716     155.7474      311.681      1.818     3.78     850.8599     54.97711     497.3171        29     1.589     1.004 -50.39   0
       212    992.4426    695.0073 307.5016202  +6.4130137     2344.825     3807.569     3607.331     77.68716     155.7474     311.6189      1.684     3.59     845.8742     54.97711     378.2274        23     1.481     0.913 -36.52   0
       213    304.7792    695.9465 307.7871634  +6.3895893     700.2668     1026.183     1257.938     77.68716     155.9956      311.712      1.549     4.27      851.507     54.97711     99.73975         7     0.757     0.686 -87.94   0
       214    902.3486    691.8225 307.5391429  +6.4113196     3425.338     5602.727     5648.331     77.68716     155.9956      311.774      1.694     4.00      847.829     54.97711     483.9281        32     1.774     0.978 -47.80   0
       215    772.4912    691.8714 307.5930701  +6.4069574      18873.4     29470.42     31838.99     78.05976     156.1815     311.8981      1.687     3.98      849.196     54.97711     2849.699        59     1.778     1.115 -32.89   0
       216    471.3823    692.2275 307.7181037  +6.3967205     1085.037     1723.535      1630.82     77.81155     155.8094     311.8051      1.758     3.69     850.8958     54.97711     171.5212        12     1.256     0.634 -47.09   0
       217    499.6189    691.9253 307.7063879  +6.3977928     779.3145     1150.393     1183.034     77.68716     155.8715     311.8361      1.591     4.72     850.6121     54.97711     153.1301         7     1.104     0.572 -37.89   0
       218    317.7447    691.6230 307.7819255  +6.3918103     508.2937     837.5623     589.4465     77.81155     155.9956      311.712      1.816     3.46     851.4279     54.97711     91.09595         5     0.753     0.460  14.78   0
       219    635.3269    685.7193 307.6502402  +6.4049053     931.0955     1544.073     1772.091      78.4306     156.2434     311.9291      1.906     4.51     850.0577     54.97711     159.6168        11     1.399     0.594 -53.87   0
       220    246.0094    685.3260 307.8119278  +6.3919984     5689.253     9388.896     9943.683     77.81155     155.5609      311.774      1.759     3.99     850.6307     54.97711     857.6791        38     1.752     1.033 -34.11   0
       221    653.0249    684.6544 307.6429263  +6.4059379     6447.555      10393.9     11617.67     77.81155     156.0576      311.712      1.714     4.16     849.9876     54.97711     993.1887        36     1.658     1.057 -31.30   0
       222    347.6370    685.1124 307.7697323  +6.3955031     565.4611     928.2916     1004.478     78.18356     155.8715     311.8981      1.860     4.35     851.4896     54.97711     88.17261         5     1.222     0.441 -33.07   0
       223    912.5678    677.4601 307.5353818  +6.4175916     1137.112     1702.789     1860.453     77.93576     156.0576     311.8361      1.641     5.51     847.2054     54.97711     156.9805        14     1.365     0.779 -29.75   0
       224    724.7521    673.0490 307.6135297  +6.4131319     3327.708     5721.972     6655.558     78.18356     155.8715     311.9291      1.902     4.12     848.5862     54.97711     460.9838        33     1.867     1.064 -28.09   0
       225    680.0619    673.3973 307.6320775  +6.4114917     891.2973     1354.216     1505.976     77.56255     155.8094     311.6189      1.647     4.85     849.5634     54.97711     169.8749        10     1.270     0.662 -29.27   0
       226    991.0811    669.6725 307.5030367  +6.4234296     8497.762     13617.94     14648.89     78.43059     156.3053     311.9291      1.746     4.12     845.6643     54.97711     1212.001        43     1.782     1.037 -30.92   0
       227    929.5154    670.3135 307.5285837  +6.4211088     2162.546     3418.153     3613.922     77.93576     156.1815     311.9601      1.673     4.44     846.6234     54.97711     333.6501        23     1.648     0.820 -34.86   0
       228     10.2101    669.3987 307.9103854  +6.3906346      1837.15     2967.993     3622.109     77.68716     155.6852      311.712      1.825     4.09     851.0505     54.97711     252.4159        20     1.413     0.903 -44.28   0
       229    529.6551    665.6444 307.6948015  +6.4096521     1957.548     2889.572     3068.002     78.18356     155.9956     311.9291      1.632     3.67     849.9839     54.97711     320.4344        20     1.426     0.840 -34.81   0
       230     68.4058    664.3844 307.8863893  +6.3946663     23763.33     38145.68      41384.2     77.81155     155.6852      311.743      1.751     3.98      850.455     54.97711     3427.161        64     1.831     1.142 -33.68   0
       231    498.1721    662.7463 307.7079738  +6.4097926      1405.72     2073.986     1835.195     77.93575     156.1195     311.8051      1.542     4.37     850.1421     54.97711     231.2671        13     1.370     0.635 -37.46   0
       232    919.0492    661.9287 307.5332122  +6.4242214     943.5382     1376.601     1428.865     78.18356     155.9956     311.9291      1.385     3.98     846.7365     54.97711     167.7663         7     0.928     0.490 -46.97   0
       233    538.5573    659.3844 307.6913158  +6.4125355     890.1555     1386.993     1194.535     77.68716     155.7474      311.681      1.481     4.14     849.8569     54.97711     150.2026        10     1.232     0.539 -45.82   0
       234    714.2856    656.7791 307.6184245  +6.4194996     3221.034     4906.713     5471.819     77.93576     155.7474     311.8051      1.629     4.46     848.6037     54.97711     482.3162        24     1.534     0.871 -37.49   0
       235    736.2604    655.0165 307.6093577  +6.4209630     3771.399     5822.846     5966.423     77.68716     155.9335     311.6499      1.615     4.24     848.2487     54.97711     584.2444        25     1.565     0.847 -41.00   0
       236    403.7896    653.6617 307.7474765  +6.4103756     1214.767     1874.392      2182.12     77.56256     155.8094      311.681      1.754     3.61     850.1816     54.97711     191.3751        13     1.223     0.722 -35.94   0
       237   1009.1754    651.2657 307.4961403  +6.4316342     4560.414     7356.811     7812.154     77.81155     155.9956     311.8051      1.722     3.93     844.9297     54.97711     642.5352        30     1.539     1.026 -36.61   0
       238    311.6856    651.6987 307.7857920  +6.4080916     1469.596     2383.814     2437.557     78.18356      156.429     311.9601      1.709     4.14      849.816     54.97711     238.5608        19     1.538     0.787 -53.91   0
       239    228.3222    652.3589 307.8203886  +6.4050157     1820.759     2881.272     3220.199     78.05976     155.9956     311.9291      1.742     3.60     849.5076     54.97711     309.3409        16     1.321     0.789 -38.38   0
       240    974.6634    650.0302 307.5105151  +6.4309921     7589.829     12130.36      12437.5     77.93575     156.0576     311.8361      1.664     3.91     845.4879     54.97711     1027.593        36     1.670     0.995 -33.31   0
       241   1023.0735    649.7281 307.4904199  +6.4327330     660.5649      807.575     882.0722     74.76888      132.749     244.1281      1.311     3.83     844.6663     54.97711     109.1278         6     0.916     0.460 -35.34  24
       242    694.1730    649.1169 307.6270354  +6.4219900     909.3907     1285.549     1668.771     78.05976     155.7474     311.8361      1.508     5.00     848.7452     54.97711      128.762        10     1.169     0.604 -33.37   0
       243     85.9433    646.5842 307.8797101  +6.4026069     797.9319     1293.422     1626.957     77.56255     155.9335     311.6499      1.704     4.53     849.8045     54.97711     111.1607         8     1.023     0.571 -44.34   0
       244    133.1401    643.3235 307.8602212  +6.4055429     22369.14     36362.31     38898.29     78.30717     156.0576     311.8671      1.750     3.95      849.372     54.97711     3166.841        59     1.835     1.121 -34.23   0
       245    800.9322    644.1718 307.5828644  +6.4276050     1097.385     1659.279     1715.219     77.93575     155.9335     311.8361      1.410     4.72     848.1776     54.97711     186.3735        11     1.315     0.631 -39.61   0
       246    419.8710    644.2103 307.7411174  +6.4148182     2615.888     4242.206     5050.529     77.68716     155.6231      311.743      1.743     4.46     849.8195     54.97711      373.387        27     1.636     0.933 -39.49   0
       247    567.8622    652.9848 307.6793616  +6.4161606     3118.097     4885.868     5028.877     77.68716     155.9335      311.712      1.613     3.85     849.6492     54.97711     485.6013        26     1.595     0.876 -30.86   0
       248    352.8678    638.6541 307.7691308  +6.4148619     705.3438     1285.147      1367.43     78.18356     155.9335     311.8051      1.971     3.64     849.6516     54.97711     125.6764         6     0.798     0.662  21.09   0
       249    969.5713    632.9785 307.5132029  +6.4378631     6194.692     11054.71     12355.11     77.56256     155.7474      311.774      1.929     3.89     845.2157     54.97711     824.6727        48     1.820     1.299 -21.05   0
       250     14.0624    632.3134 307.9100438  +6.4060768     1135.914     1499.645     1499.156     78.30717     156.1815     311.8981      1.494     3.58     851.0264     54.97711     211.3547        12     1.230     0.625 -35.03   0
       251   1023.3745    628.6895 307.4910015  +6.4414303     49646.93     59706.17     61663.61     71.86668     128.2276      239.569      1.178     2.89     844.1466     54.97711     10870.83        41     1.379     0.808 -83.71  24
       252    563.1354    628.2197 307.6821602  +6.4262280     44252.99     70858.58     76135.16     77.81155     155.9956      311.743      1.706     4.04     849.3249     54.97711     6558.502        76     1.839     1.155 -34.73   0
       253    927.7940    629.6702 307.5306650  +6.4378338     740.1024     1090.667     1370.663     77.68716     155.6231      311.774      1.482     5.30     845.9323     54.97711      109.923        10     1.280     0.706 -48.10   0
       254    206.8587    629.0092 307.8300925  +6.4139348     544.6685     533.4474      889.535     77.56256     155.9335     311.6189      1.262     3.66     848.9265     54.97711     85.67633         5     0.809     0.495 -29.34   0
       255    787.6138    628.0699 307.5889377  +6.4338082      494.076     892.0745     812.8356     77.68716     155.8715      311.774      1.762     4.63     848.0959     54.97711     74.30566         6     1.143     0.532 -38.30   0
       256    522.1942    628.2347 307.6991627  +6.4248487     527.4837     837.9221     843.2208     77.43776     155.7474      311.681      1.455     3.48     849.5815     54.97711     81.46844         5     1.001     0.349 -43.13   0
       257    974.1801    625.2809 307.5115475  +6.4411955     687.1545     1040.575      1153.01     77.93575     155.6852     311.8361      1.644     4.60     844.9719     54.97711     113.4843         6     0.960     0.626  59.77   0
       258    170.4052    624.8897 307.8453705  +6.4144088      2462.48     4274.061     4534.215     77.68716     155.6852     311.6189      1.853     4.52     848.8261     54.97711     330.3113        22     1.654     0.802 -39.34   0
       259    493.4469    624.7859 307.7112179  +6.4253084     629.3066     761.9738     541.4464     77.56256     155.8094      311.681      1.246     4.00     849.5972     54.97711     123.6978         6     1.032     0.445 -34.47   0
       260     63.3633    619.1750 307.8900162  +6.4131633      1304.83     2027.949     1578.248     77.81155     155.8094     311.6499      1.641     4.35     849.6772     54.97711     196.1238        14     1.310     0.740 -33.19   0
       261    460.4375    612.0110 307.7253581  +6.4294755     57011.35     92064.07     99451.48     77.68716     155.8094     311.5879      1.736     4.03     849.1917     54.97711     8246.859        85     1.883     1.191 -32.96   0
       262      3.8553    613.5966 307.9149175  +6.4134608     1474.859     2597.338     2850.574     77.56256     152.7375     271.3709      1.852     4.13     851.3264     54.97711     276.4122        18     1.363     0.890 -34.38  24
       263    134.5379    607.1913 307.8608651  +6.4205089     1503.778     2326.172     2020.659     77.56256     155.8715      311.712      1.637     3.75     848.4134     54.97711     239.1489        15     1.307     0.777 -36.46   0
       264    414.1903    604.6199 307.7448144  +6.4309747     862.2753     1355.352     1128.328     77.81155     155.6852      311.743      1.503     3.73     848.4943     54.97711     167.2624         8     1.321     0.524 -42.23   0
       265    606.1359    603.4686 307.6651368  +6.4378896     937.5218     1506.561     1310.231     78.18356     156.0576     311.9291      1.520     3.73     848.1546     54.97711     166.1562        12     1.227     0.731 -49.83   0
       266    488.0380    603.4225 307.7141856  +6.4339481     524.8546     895.8385      863.127     77.81155     155.7474      311.712      1.927     4.85     849.2051     54.97711     81.84747         5     1.293     0.516 -51.59   0
       267    314.2430    602.9509 307.7863789  +6.4283059     416.9131     639.9174     992.6557     78.18356     155.9335     311.8361      1.491     3.88     848.3755     54.97711     75.36072         5     0.849     0.508 -33.27   0
       268    305.7004    601.2850 307.7899829  +6.4287066     1951.736     3075.287     3487.237     78.18356     156.4908     311.9911      1.737     3.91     848.3667     54.97711     284.3094        19     1.406     0.823 -35.11   0
       269    646.1701    609.6935 307.6483002  +6.4366608     691.2482     1202.024       1463.8     78.30717     155.7474     311.8051      1.612     3.85     848.0593     54.97711     121.0554         6     0.783     0.543 -38.06   0
       270    457.8179    599.9001 307.7268551  +6.4343883     723.3064     1092.816     1297.112     78.18356     155.8715      311.681      1.608     5.35      848.856     54.97711     129.7883         9     1.261     0.641 -33.27   0
       271    732.4195    595.6522 307.6129526  +6.4453470     4963.555     7836.379     8647.402     77.68716     156.0576      311.712      1.699     3.95     847.5818     54.97711     819.4826        31     1.664     0.911 -33.23   0
       272    785.9669    590.8898 307.5908735  +6.4491055     12971.06     20239.48     21798.84     78.30717     155.8715     311.8981      1.640     4.08     847.3508     54.97711     2000.099        46     1.745     0.995 -34.14   0
       273   1003.5153    591.0872 307.5005127  +6.4562943     874.5468     1274.062     1154.152     77.93575     156.1815     311.9601      1.572     4.60     842.9263     54.97711     153.5002         9     1.242     0.521 -30.03   0
       274    528.2249    591.0646 307.6979128  +6.4403990     1107.703     1840.871     2069.376     77.81155     155.9956     311.8671      1.615     3.87     848.6089     54.97711     173.3654        11     1.163     0.596 -28.51   0
       275    609.6741    588.9604 307.6641567  +6.4439988      2684.12     4327.546     4093.798     78.05976     155.9956     311.9291      1.672     4.08     847.6557     54.97711     425.5905        22     1.558     0.801 -46.89   0
       276     31.1172    590.1281 307.9043924  +6.4240700     565.8375     833.8536     859.2036     78.43059     156.3053     311.9291      1.768     2.74     849.8308     54.97711     147.8738         6     1.009     0.512 -23.16   0
       277    926.7867    585.2028 307.5325783  +6.4561617     977.5626     1412.283     1567.328     77.81155     155.6852      311.743      1.634     4.60     845.0835     54.97711     149.0587        11     1.227     0.634 -41.24   0
       278    185.5230    583.8705 307.8404816  +6.4318546     597.4414     1255.952     2374.918     78.43059     156.2434     311.8981      3.788     5.55     848.1373     54.97711     96.06921         8     1.480     0.588 -46.53   0
       279    368.1096    582.7059 307.7646926  +6.4384754     921.7276     1433.887     1339.958     78.18356     156.4908     311.8981      1.687     4.05      847.752     54.97711     155.9122         9     1.122     0.556 -62.27   0
       280    222.1078    582.6757 307.8253285  +6.4335791     1134.018     1736.698     2365.432     78.05976     156.1195     311.8981      1.690     5.40     847.9011     54.97711     155.3451        15     1.366     0.765 -36.57   0
       281    861.9542    574.1367 307.5598776  +6.4585644      2675.04     4458.864      4792.58     78.05976     155.9335     311.9291      1.795     4.06     845.8859     54.97711     388.8391        24     1.501     0.964 -39.60   0
       282    820.7244    571.7490 307.5770820  +6.4581717     2395.523     3814.831     4298.441     78.18356     156.0576     311.8981      1.665     4.31     846.3582     54.97711     318.3092        19     1.531     0.734 -34.84   0
       283    791.5674    567.6517 307.5893299  +6.4588883     2583.781     4040.022     4762.005     78.05976     155.9956     311.8051      1.739     4.34      846.499     54.97711     348.1661        22     1.574     0.810 -37.53   3
       284    801.4178    562.7272 307.5854044  +6.4612512     146796.6       232463     251333.3     77.68716     155.9335     311.8361      1.726     4.10     846.2762     54.97711     22926.53       131     1.927     1.252 -34.84   2
       285    248.7402    566.3780 307.8148198  +6.4412045     7169.374     11698.68     12293.13     77.81155     155.9335     311.8051      1.752     3.88     847.5327     54.97711     988.7355        40     1.694     1.055 -38.24   0
       286    183.0269    560.9530 307.8422945  +6.4412333     52633.04     87712.57     95754.32     77.81155     156.0576     311.8051      1.787     4.02     847.9077     54.97711     7852.737        88     1.906     1.243 -34.31   0
       287    730.8138    562.8624 307.6147241  +6.4588328     623.6038     952.9749     1602.823     77.68716     155.8094      311.712      1.494     4.98     846.5548     54.97711     112.0963         8     0.948     0.741 -79.57   0
       288    106.9599    557.1931 307.8740125  +6.4402245      5656.33     9529.339     10310.19     77.56256     155.6852     311.5879      1.777     3.93     848.1392     54.97711     828.3304        42     1.727     1.096 -41.96   0
       289    972.2235    554.5458 307.5147373  +6.4703383     1404.295     2189.587     2134.067     77.68716     155.9956      311.712      1.636     3.71     842.3097     54.97711     213.6274        16     1.102     1.029 -57.72   0
       290    993.1215    553.5997 307.5060892  +6.4714267      800.015     880.9223     937.7939     77.43776     155.3743     311.6499      1.288     4.62     841.2087     54.97711     128.1802        11     1.174     0.683 -30.91   0
       291    221.4763    553.2800 307.8265861  +6.4456955     756.2566     1417.263     2129.767      78.4306     156.2434     312.0221      2.557     6.80     847.3107     54.97711     105.9139        12     1.502     0.862 -58.78   0
       292    356.4536    548.1058 307.7707034  +6.4523704     15640.64     25255.25     27551.11     78.05976     155.9335     312.1151      1.763     3.97     847.0253     54.97711     2093.985        62     1.892     1.165 -34.32   0
       293    837.8589    550.1581 307.5706922  +6.4676600     4147.455     6526.271     7580.496     78.18356     155.9956     311.9601      1.677     3.83     845.4801     54.97711      620.095        26     1.631     0.830 -33.35   0
       294    158.0686    547.1910 307.8531259  +6.4460755     1832.753     2916.608     2543.279     77.68716     155.7474      311.774      1.621     4.25     848.0844     54.97711     263.8051        18     1.397     0.854 -49.34   0
       295    447.0524    548.0433 307.7330780  +6.4554391     629.1491     952.5865     702.2387     78.18356     155.9956     311.9291      1.507     3.89     847.1442     54.97711     122.0849         6     1.005     0.432 -50.96   0
       296    791.8420    543.3772 307.5900331  +6.4689209     5388.452     8460.601     8783.971     77.81155     155.8715      311.681      1.649     4.01     845.6196     54.97711     827.0912        32     1.620     0.933 -36.93   0
       297    232.9934    545.3192 307.8220725  +6.4493700     838.4744     1182.352     1232.087     77.81155     155.5609      311.712      1.531     5.02     847.0783     54.97711     137.9083        10     1.384     0.516 -31.56   0
       298    522.7554    543.0682 307.7018046  +6.4600339     5707.968      9316.23     9917.802     78.18356     155.9335     311.9291      1.717     3.99     846.7266     54.97711     840.2946        36     1.647     1.030 -39.53   0
       299    163.3167    544.4198 307.8510403  +6.4473964     643.7247     1202.756     1588.483     77.81155     155.6852     311.8671      2.484     4.68     848.0129     54.97711     90.76343         8     1.279     0.487 -45.64   1
       300     95.6020    544.1450 307.8791717  +6.4452294     803.1184     1194.937      589.342     77.56256     155.7474     311.5879      1.637     5.34     848.0609     54.97711     100.3225         9     1.333     0.604 -54.75   0
       301    381.0594    539.6151 307.7607712  +6.4567030     1190.061     1915.956     1775.545     77.68716     155.9335     311.6499      1.706     5.44     846.4384     54.97711      182.442        18     1.577     0.880 -39.02   0
       302    169.9351    536.1046 307.8485733  +6.4510526     5978.712     10059.63     10416.83     78.18356     156.1195     311.9291      1.785     4.28     847.6464     54.97711     870.7206        38     1.813     1.049 -29.88   0
       303    808.3209    535.8237 307.5834430  +6.4725911     1229.802      1822.54     2096.404     77.81155     155.7474     311.8671      1.607     4.43     845.3785     54.97711     211.3235        13     1.367     0.675 -50.18   0
       304    567.6761    536.1057 307.6833826  +6.4644154     2299.152       3835.4     3949.806     77.93575     156.1815     311.8981      1.747     4.86     845.8782     54.97711     324.9232        21     1.678     0.716 -35.00   0
       305    265.0353    532.5866 307.8091960  +6.4557052     78285.83     129620.7     140706.6     77.68716     155.8094      311.743      1.812     4.14     846.4261     54.97711     11262.32       100     1.931     1.256 -34.82   0
       306     41.3839    534.7731 307.9020064  +6.4472719     4435.476     7462.643     8113.511     77.81155     155.8094     311.8051      1.802     4.10     848.1412     54.97711     610.7631        34     1.622     1.097 -46.97   0
       307    554.1647    530.3808 307.6891876  +6.4663262     960.9475     1435.713     1858.429     77.68716     155.8094      311.681      1.614     5.23     845.6046     54.97711     133.0919        10     1.321     0.585 -50.98   0
       308    491.7986    523.4644 307.7153239  +6.4670899     36786.12     63972.82     70991.45     77.56256     155.7474      311.681      1.916     3.91     846.1946     54.97711     4991.853        85     2.012     1.307 -29.74   0
       309    248.6773    527.7137 307.8161547  +6.4571670     1396.186     2268.446     1812.591     78.18356     156.3053     311.9911      1.611     5.00     846.2028     54.97711     191.2145        15     1.424     0.764 -30.56   0
       310    964.3316    526.5270 307.5189569  +6.4816443      1423.68     2045.759     2264.268     78.30717     156.1195     311.8981      1.500     4.16     841.6981     54.97711     206.7806        14     1.308     0.757 -46.26   0
       311    788.1447    525.1738 307.5921817  +6.4763137     14689.19     23437.97      25386.1     77.81155     156.0576      311.743      1.676     4.05     845.2945     54.97711     2270.769        53     1.818     1.052 -32.35   0
       312    642.2938    522.1021 307.6528635  +6.4726987     944.4695     1590.802     1626.045     78.18356     156.5526     311.8051      1.806     6.58     845.4194     54.97711     147.1076        14     1.608     0.756 -40.11   0
       313    204.0785    519.7546 307.8349469  +6.4589528     1638.627     2542.061     2807.234     78.18356     155.9956     311.8671      1.592     4.64      846.339     54.97711     230.5317        16     1.440     0.743 -50.75   0
       314     39.7951    520.0612 307.9031653  +6.4532929     1139.385     1904.755     1824.194     77.68716     155.8715      311.681      1.568     5.81      848.024     54.97711     159.7062        12     1.530     0.658 -40.84   0
       315    651.5145    518.5803 307.6491525  +6.4744619     2724.662     3961.084      4564.68     77.81155     155.7474     311.8361      1.635     3.93     845.3411     54.97711     400.9838        21     1.465     0.820 -40.93   0
       316     90.1370    519.5291 307.8822760  +6.4552091     558.9842     1068.914     1597.801     78.18356     155.9956     311.9291      2.211     4.49     847.7305     54.97711     83.51727         6     0.992     0.578 -65.02   0
       317    661.7188    518.5406 307.6449156  +6.4748201     1369.417     2168.252     2661.458     78.30717     156.0576     311.8981      1.755     4.13     845.3543     54.97711      197.841        17     1.292     1.024 -38.54   0
       318    713.8082    517.5884 307.6233126  +6.4769578     1287.854      2058.73     2378.942     77.81155     155.8094     311.8361      1.699     3.77     845.3302     54.97711     193.9269        13     1.236     0.662 -40.82   0
       319     70.1645    516.7756 307.8906641  +6.4556731      741.185     1214.247     1451.954     77.68716     155.8094      311.681      1.974     4.86     847.8121     54.97711     98.77002         9     1.073     0.624 -27.98   0
       320    389.2294    514.3802 307.7582311  +6.4673971     1622.021     2585.471      2663.46     77.81155     155.8094      311.774      1.664     3.93     845.0941     54.97711     195.4522        16     1.182     0.891 -48.00   0
       321    320.8358    512.5412 307.7866991  +6.4658582     3564.294      5625.56     5764.694     78.18356     155.9956     311.8981      1.688     3.98     845.4108     54.97711     495.1726        27     1.472     0.957 -37.23   0
       322    136.1383    510.9280 307.8634626  +6.4603100     23458.04     38270.64      41127.1     78.30717     155.9956     311.9601      1.752     3.98     847.2642     54.97711     3478.153        65     1.855     1.157 -34.31   0
       323    500.6385    511.9968 307.7120396  +6.4721216     1939.162     3104.145     3501.733     77.31276     155.7474     311.6499      1.652     3.91     845.3529     54.97711     277.6998        22     1.520     0.920 -37.43   0
       324    864.1429    511.2086 307.5610858  +6.4846218     1545.244     2446.748     2595.542     77.56256     155.9335     311.6499      1.650     4.37     844.1735     54.97711     244.1703        15     1.394     0.704 -50.86   0
       325    101.2164    509.3102 307.8780210  +6.4598018     2387.292     3784.963     3981.614     77.93576     155.7474      311.774      1.632     3.82     847.4892     54.97711      319.713        20     1.458     0.805 -51.01   0
       326    337.2078    507.7822 307.7800604  +6.4683736     824.1828     1301.128     1108.547     77.81155     155.7474      311.743      1.942     4.47     845.1879     54.97711     149.2607         9     1.202     0.595 -35.83   0
       327    961.6752    505.6345 307.5207625  +6.4901825     4938.429      7651.44     8387.812     78.05976     155.9956     311.8671      1.696     3.93     841.0419     54.97711     737.7029        34     1.703     0.981 -36.50   0
       328    534.7648    498.0955 307.6983349  +6.4790065     1316.356     2007.257      1667.56     78.30717     155.8715     311.9911      1.642     5.60     844.2417     54.97711     218.8425        14     1.544     0.649 -24.63   0
       329      1.8473    494.6694 307.9197869  +6.4624976      13184.2     17498.97      18333.7     73.85782     131.5045      243.056      1.376     3.93     848.1671     54.97711     2833.677        32     1.360     1.042 -64.39  24
       330    433.1283    492.1360 307.7407502  +6.4780563     38417.41     62354.12     67575.77     78.18356     155.9956     311.9291      1.736     3.98     843.8352     54.97711     5532.563        81     1.862     1.217 -36.41   0
       331    641.1117    491.8180 307.6543757  +6.4851639      11122.3     17812.78     19191.83     77.93575     155.7474     311.8051      1.705     3.88     844.4972     54.97711      1706.62        45     1.672     1.080 -36.95   0
       332    281.1959    492.4430 307.8038428  +6.4728241       841.29     1584.238     1986.342     77.56256     155.6852     311.6189      2.116     5.73     844.3198     54.97711     124.7592        10     1.520     0.608 -36.90   0
       333    198.3051    489.6549 307.8383642  +6.4711867     17331.16     29795.91     31880.62     78.05976     155.9956     312.1151      1.876     4.05     845.2481     54.97711     2150.127        63     1.848     1.295 -29.23   0
       334    974.8697    490.4346 307.5157930  +6.4968995     1173.284     1983.242     2244.914     78.05976     155.9956     311.9911      1.834     4.99     840.1849     54.97711     173.2784        14     1.429     0.639 -46.34   0
       335    163.8876    490.8023 307.8526198  +6.4695544     1503.785     2299.352     2562.347     77.56256     155.6231     311.6189      1.582     4.68     846.3983     54.97711     218.6674        14     1.251     0.727 -36.85   0
       336    903.2243    490.2925 307.5455567  +6.4945648      711.205     880.3519     1507.859     78.30717     155.7474      311.743      1.501     4.92     842.1644     54.97711     86.83533         9     1.196     0.574 -18.56   0
       337    815.3464    489.8785 307.5820717  +6.4917977     1092.833     1564.813     1174.437     78.30717     155.9956     311.9291      1.489     4.55      844.384     54.97711     157.0122        10     1.114     0.626 -37.88   0
       338    562.8400    488.6141 307.6869940  +6.4838631     2550.419     4185.128     4286.044     77.68716     155.8094     311.6499      1.732     4.11     843.8831     54.97711     380.4353        26     1.611     0.891 -40.31   0
       339    936.7516    485.9003 307.5317783  +6.4974987     4390.762     6849.991     7515.012     78.18356     155.8715     312.0841      1.682     4.02     840.8287     54.97711     655.3141        29     1.592     0.905 -35.07   0
       340    609.8141    484.2180 307.6676316  +6.4872532     6002.868     9285.614      10174.4     77.93575     155.6852     311.8051      1.677     4.06     843.9863     54.97711     878.4032        34     1.643     0.928 -40.35   0
       341     97.1774    484.7254 307.8805320  +6.4698167     1006.718     1600.936     1526.763     77.81155     155.8715     311.8361      1.688     5.41     847.1516     54.97711     113.2631        16     1.371     0.839 -25.20   0
       342    959.4255    478.0838 307.5226231  +6.5014837     3149.674     4905.291     5451.009     78.18356     155.7474     311.8361      1.698     4.48     840.1432     54.97711     456.4454        23     1.597     0.806 -37.32   0
       343    397.3754    477.6184 307.7560905  +6.4828500     692.3635      1101.09     1544.657     77.81155     155.8094     311.8051      1.818     4.79     843.2472     54.97711     84.45416         8     0.960     0.678  -0.17   0
       344    522.0761    475.4394 307.7043700  +6.4879358     6718.799     10871.91     12060.14     78.05976     155.9956     311.9601      1.749     3.92     843.1256     54.97711     957.3344        35     1.647     1.015 -38.64   0
       345    368.1145    475.4891 307.7683158  +6.4827462     2338.723     3753.131     3890.289     77.93575     156.2434     312.0221      1.763     4.00     843.3815     54.97711     338.0377        20     1.396     0.906 -55.42   0
       346    737.6282    475.6487 307.6148320  +6.4950729     501.9767     633.4388     544.0903     77.81155     156.0576     311.8361      1.330     3.44     844.2247     54.97711     99.99542         5     0.987     0.347 -68.67   0
       347    530.9824    472.8542 307.7007581  +6.4893021     702.3818     1323.503     1638.402     77.68716     155.9956     311.6499      1.992     3.81     843.0312     54.97711     140.7269         6     0.966     0.432 -49.94   0
       348    878.4615    471.4239 307.5564771  +6.5015284     2948.342     4574.397     5240.959     77.81155     155.9335     311.8051      1.640     3.97      842.402     54.97711     436.8502        21     1.437     0.797 -40.58   0
       349    885.7117    465.9914 307.5536483  +6.5040139     1936.841     3043.466     3537.697     77.81155     155.6852      311.681      1.770     3.78     841.9389     54.97711     324.4092        21     1.455     0.898 -43.80   0
       350    925.2806    465.1778 307.5372398  +6.5056722     1050.469     1745.133     1992.792     77.81155     155.6852     311.8361      1.750     5.28     840.5775     54.97711     152.2369        12     1.436     0.574 -35.17   0
       351    104.5444    465.6501 307.8781190  +6.4779411      675.708     1157.933     813.8115     78.18356     155.9956     311.9291      1.598     4.31     846.6411     54.97711      104.413         7     1.027     0.517 -32.30   0
       352    709.7149    461.7055 307.6268960  +6.4998957     2802.753     4365.987     4993.472     78.18356     156.3671     311.9911      1.725     4.37     843.7037     54.97711     371.7256        22     1.484     0.875 -39.26   0
       353    380.8313    460.0269 307.7635568  +6.4895579     3232.605     5317.938     5803.541     77.68716     155.7474      311.712      1.755     3.99     842.3829     54.97711     507.7623        23     1.575     0.821 -41.53   0
       354     71.8906    460.4514 307.8918574  +6.4789874     1760.526     2776.422     3202.407     78.18356     155.8094     312.0531      1.739     4.77     846.8921     54.97711     236.9038        20     1.511     0.837 -40.71   0
       355    421.1405    460.6053 307.7467948  +6.4906730     824.0733     1358.005      1299.32     77.68716     155.8715      311.681      1.801     6.08     842.1746     54.97711     138.4252        11     1.299     0.800 -29.89   0
       356    608.6725    456.4348 307.6690430  +6.4986870     9111.869     14826.46     16474.42     78.05976     155.9335     311.8981      1.790     3.95     842.7567     54.97711      1342.18        47     1.771     1.115 -34.88   0
       357    771.5895    452.6972 307.6014988  +6.5056866     14687.87      24031.8     27364.99     77.93576     155.6231      311.743      1.855     4.99     843.4365     54.97711     2314.851        62     2.251     1.068 -42.49   0
       358    290.7637    453.2114 307.8011966  +6.4893448     2367.371     3877.355     3846.776     77.68716     155.8094     311.5879      1.703     3.75     842.0652     54.97711     377.5677        22     1.420     0.915 -50.64   0
       359    414.7230    452.6541 307.7497291  +6.4937407     648.8065     1101.282     1455.131     78.30717     155.9956     311.8981      1.972     4.01     841.7621     54.97711     84.52948         6     0.906     0.506 -43.74   0
       360    799.9592    450.2748 307.5897964  +6.5076361     1221.042     1980.916     1689.172     78.05976     155.9956     311.9291      1.567     4.94     843.3425     54.97711     174.8738        13     1.433     0.609 -43.20   0
       361    374.1071    450.0806 307.7666860  +6.4934389     1500.711     2348.742     2931.809     77.93575     156.2434     311.9601      1.677     3.78     841.8475     54.97711     219.8041        15     1.250     0.831 -29.04   0
       362    956.4451    448.2846 307.5248629  +6.5136888     2125.694      3002.25     2581.583     78.18356     155.9335     311.8981      1.539     3.79     839.5841     54.97711     304.3197        19     1.450     0.758 -38.82   0
       363    843.8541    447.9284 307.5716426  +6.5100731     403.7296     343.0822     784.6661     78.05976     155.8715     311.8361      1.108     3.95     842.3442     54.97711     80.68011         5     0.831     0.537 -36.45   0
       364    362.0363    446.5942 307.7718175  +6.4944729     620.5359     934.6144      817.691     77.31276     155.7474      311.681      1.607     4.02     841.7349     54.97711     104.5697         6     0.844     0.646 -37.16   0
       365    108.5967    444.8732 307.8771404  +6.4866564     3834.249     6424.992     7405.002     77.68716     155.5609      311.743      1.794     3.88     846.0662     54.97711     561.5779        33     1.750     1.041 -36.91   0
       366    746.8162    444.0233 307.6120811  +6.5084391     2097.129     3374.782     3304.798     77.93575     155.8094     311.8051      1.624     4.07     843.1088     54.97711     281.2538        21     1.402     0.894 -51.70   0
       367   1010.3864    442.7670 307.5026422  +6.5177683     3834.256      6609.61      7375.73     77.81155     155.7474     311.8051      1.875     4.43     838.3055     54.97711     456.1298        30     1.594     1.085 -22.72   0
       368    266.5737    442.1270 307.8116190  +6.4931080     1346.601     2274.403     2752.775     77.81155     155.8715     311.8051      2.016     4.27     842.1183     54.97711     241.8999        18     1.587     0.796 -29.69   0
       369    344.5956    439.6651 307.7792959  +6.4967479     2888.307     4441.874     4520.098     77.43776     155.6852      311.681      1.683     3.85     841.3368     54.97711     382.3592        23     1.489     0.840 -45.87   0
       370    700.4011    437.4247 307.6315830  +6.5096098     1483.524     2279.962      2342.96     77.81155     155.6852      311.681      1.621     4.84     842.7217     54.97711      210.071        16     1.316     0.845 -34.29   0
       371    404.2939    436.1579 307.7546185  +6.5002018     489.7767     684.6362     702.1501     78.30717     155.9335     312.0221      1.266     3.42     840.9219     54.97711     101.9901         5     0.966     0.350 -42.59   0
       372    231.8785    435.9474 307.8262388  +6.4944925     656.2285     1210.191     1190.626     78.18356     155.9956     311.8981      1.994     4.96     843.1586     54.97711     130.9094         6     1.281     0.543 -41.06   0
       373    542.0404    430.3902 307.6975986  +6.5072069     954.8722     1474.137     1934.833     77.56255     155.8094     311.6189      1.679     3.61     840.9749     54.97711     153.3607        10     1.014     0.656 -66.54   0
       374    826.8196    427.7942 307.5793961  +6.5178172     1379.339     2134.447     2244.112     77.81155     155.6852      311.712      1.694     4.46     841.9377     54.97711     209.0258        17     1.495     0.719 -46.92   0
       375    464.3133    428.5563 307.7299457  +6.5053559      1064.91     1612.697     1782.173     78.18356     155.8715     311.8981      1.784     4.99     840.7131     54.97711     166.4929        12     1.378     0.673 -35.50   0
       376    812.3747    426.7024 307.5854330  +6.5177848     1769.852     2753.249     2605.418     78.30717     155.7474     311.8051      1.620     4.11      842.257     54.97711     309.6832        17     1.455     0.747 -46.20   0
       377    611.6578    426.7148 307.6688057  +6.5110588       708.68     1011.877     1196.479     78.18356     155.9956     312.0221      1.688     4.60     841.5046     54.97711     104.1913         8     1.012     0.594 -25.18   0
       378    709.8392    424.6261 307.6280941  +6.5152106     13696.51     21685.51     23454.73     77.81155     155.8094      311.743      1.698     4.15     842.3059     54.97711     1967.152        46     1.706     1.054 -34.98   0
       379    630.7811    420.7390 307.6610640  +6.5141672     2544.793     4125.418     4714.508     77.81155     155.9335      311.774      1.662     3.82     841.4619     54.97711      411.304        21     1.419     0.822 -37.96   0
       380    624.7436    420.4402 307.6635819  +6.5140883     459.8358     962.6736     602.5947     78.18356     156.0576     311.9291      1.788     4.59     841.3478     54.97711     79.93951         5     1.352     0.442 -29.77   0
       381    605.8749    417.9106 307.6715048  +6.5145003     4768.597     7371.861     8492.767     78.18356     156.3053     311.9911      1.695     4.01     841.0399     54.97711     691.9419        29     1.823     0.857 -39.39   3
       382    602.2181    415.2312 307.6731141  +6.5154841     13507.37      21946.2     23849.14     77.81155     155.8094      311.774      1.733     3.91     840.8848     54.97711     1875.468        46     1.728     1.093 -34.15   3
       383    934.9628    414.6646 307.5349168  +6.5268536     3793.535     5877.614     5573.202     78.05976     155.9956     311.9601      1.649     3.89     839.3917     54.97711     529.2053        30     1.648     0.935 -36.70   0
       384    411.2511    412.2608 307.7525366  +6.5103028     517.9471     726.5126     699.3395     78.18356     155.9335     311.8981      1.546     4.47     839.6089     54.97711     91.64264         5     1.168     0.486 -58.19   0
       385    374.2598    410.4815 307.7679617  +6.5097948     26123.17     42254.69     45698.57     78.30717     155.9956     311.8981      1.778     4.18     839.4907     54.97711     3677.591        63     1.850     1.157 -33.89   0
       386    890.7888    410.4099 307.5534093  +6.5271343     1224.622     2091.715     3639.473     77.93576     155.8094     311.8671      2.354     4.31     839.9339     54.97711     172.2465        14     1.259     0.744 -41.44   0
       387     53.6394    405.5823 307.9012989  +6.5010275     1454.371     2762.094     3229.268     77.81155     155.8094      311.681      2.031     5.25     845.5214     54.97711     180.0927        19     1.556     0.919 -47.44   0
       388    120.2512    409.9790 307.8734828  +6.5014567     2123.225     3504.461     3547.908     77.68716     156.0576      311.743      1.714     3.81     844.7639     54.97711     318.2069        20     1.401     0.844 -43.81   0
       389    586.0086    406.3525 307.6801468  +6.5186068     614.2408     845.6882     679.9655     77.68716     155.8715     311.5568      1.376     4.94     840.3848     54.97711      87.3623         7     1.095     0.632 -42.02   0
       390    903.6923    405.1006 307.5482280  +6.5297578     4671.019     7259.899     7611.472     78.18356     156.4908     311.8671      1.658     3.75     839.5239     54.97711     699.0657        27     1.509     0.899 -34.41   0
       391    959.8002    403.2708 307.5249827  +6.5323880     723.6897     1102.648     1391.682     77.68716     155.4988      311.681      1.648     5.51     838.2806     54.97711     100.5837        11     1.425     0.600 -34.77   0
       392    231.7374    401.0640 307.8274787  +6.5088912     12483.48     20509.51     22139.61     78.18356     155.9956     311.9291      1.787     3.88     841.9889     54.97711     1740.622        58     1.822     1.205 -34.54   0
       393    726.4415    395.1639 307.6221907  +6.5279318     636.0576     992.4502     1233.713     77.93575     155.9956      311.774      1.723     4.09     841.2933     54.97711     109.2194         7     1.396     0.343 -43.07   0
       394     66.7873    396.0262 307.8961621  +6.5054164     699.8937     1232.969     1200.977     77.81155     155.8094     311.8361      1.764     4.80     845.0361     54.97711     102.4103         7     1.034     0.631 -26.77   0
       395   1003.6363    394.0902 307.5070819  +6.5376426     492.8161     920.2867     857.8874     78.30717     155.9335     311.9291      1.798     3.84     836.9722     54.97711     85.91516         5     0.880     0.481 -89.51   0
       396    954.9291    393.4338 307.5273368  +6.5362872     988.4545     1577.601     1874.257     78.05976     155.9956     311.9601      1.662     5.01     837.9785     54.97711     152.3406        11     1.315     0.574 -42.32   0
       397    695.0330    393.9760 307.6352774  +6.5273706     691.4362     874.2456     940.2022     77.68716     155.8094      311.712      1.419     4.57     840.9559     54.97711     100.5851         7     1.122     0.529 -50.18   0
       398    177.1620    390.8125 307.8504943  +6.5112871     687.2396     1168.484     1016.755     77.81155     155.8094     311.6189      1.695     5.92     842.5623     54.97711     94.73029         9     1.190     0.828 -64.70   0
       399    132.0074    389.5582 307.8692921  +6.5102845      4631.88     7790.467     8455.698     77.56255     155.8094     311.6189      1.804     3.77     843.6663     54.97711     679.6056        37     1.768     1.070 -38.38   0
       400    344.5647    390.8465 307.7809601  +6.5169043     1146.454     2056.293      2395.17     77.81155     155.9335      311.774      1.930     5.37     838.4387     54.97711     162.7664        14     1.338     0.754 -39.63   0
       401    429.0048    388.9685 307.7459496  +6.5205166     687.3399     1124.226     1626.663     77.56256     155.8715      311.681      1.931     4.13     838.3117     54.97711      95.6441         7     0.947     0.514 -46.20   0
       402    237.0540    388.3394 307.8257013  +6.5143241     1203.007     2111.051     1943.831     78.30717     155.9335     311.8671      1.912     4.31     841.0739     54.97711     181.7776        15     1.322     0.767 -38.58   0
       403    817.8793    386.6181 307.5844961  +6.5345205     704.2629     874.1452      1142.32     77.81155     155.6852     311.8361      1.538     3.48     840.7404     54.97711     159.0071         7     1.180     0.462 -26.68   0
       404    153.9805    385.4713 307.8603039  +6.5127120     2255.767     3899.996     4055.912     77.81155     155.8715     311.8361      1.857     4.83      842.851     54.97711     328.6875        29     1.713     1.152 -52.24   0
       405    549.3469    384.8231 307.6961020  +6.5262671     897.6896     1436.389     1443.479     77.68716     155.9956      311.712      1.769     6.02     839.0745     54.97711     123.0641        13     1.411     0.731 -36.87   0
       406    965.6288    380.2007 307.5233371  +6.5421088     852.5208     1721.852     2458.886     77.68716     155.8094      311.712      2.416     6.05     837.2271     54.97711     132.9985        11     1.811     0.567 -41.94   0
       407    377.3495    380.2982 307.7676990  +6.5223615     2026.982     3178.245     3618.866     78.18356     155.9956     312.0531      1.733     4.15     837.7181     54.97711      263.083        21     1.396     0.896 -38.73   0
       408    265.1664    380.8670 307.8142774  +6.5183552     818.6174     989.4047     716.8648     78.05976     156.0576     311.9291      1.463     5.67     839.5514     54.97711       115.53        11     1.211     0.748 -38.92   0
       409    311.0920    378.2353 307.7952903  +6.5209863     553.2928     1054.875     1117.991     78.30717     155.8715     311.9291      1.741     5.24     838.1566     54.97711      84.4248         9     1.274     0.608 -55.63   0
       410    431.2664    373.9211 307.7455187  +6.5268057     6618.207     11165.25     12340.38     78.30717     156.1195     311.8671      1.816     4.24     837.4426     54.97711     909.6949        41     1.777     1.078 -39.06   0
       411     27.8757    374.5456 307.9130528  +6.5129739     2880.027     5181.043     6105.235     78.05976     155.9956     311.9291      2.033     5.02     844.1356     54.97711     415.8144        33     1.902     0.984 -41.55   0
       412    764.0018    372.8680 307.6073397  +6.5383954     1901.567     2797.626     3478.717     77.68716     155.5609      311.712      1.672     4.23     840.6351     54.97711     309.0692        19     1.487     0.816 -41.20   0
       413    191.8196    373.5135 307.8449922  +6.5189233     418.3682     626.6539     527.8283     77.93576     155.7474     311.8361      1.523     3.93     841.5866     54.97711     69.93054         6     1.376     0.321 -41.16   0
       414    771.9273    371.3185 307.6040996  +6.5393005     11761.58     18602.63     19760.88     78.43059     156.3053     311.9291      1.671     3.98     840.5657     54.97711      1741.63        42     1.682     1.013 -35.91   0
       415    335.4420    369.5360 307.7854703  +6.5253969     964.9545     1623.113     1928.303     78.18356     155.9335     311.9291      1.864     5.62     837.4147     54.97711     131.3926        14     1.411     0.752 -38.10   0
       416   1015.7882    366.5665 307.5029589  +6.5494134     3249.403      5063.09     4877.452     77.68716     155.7474      311.774      1.672     4.31     835.8625     54.97711     475.9308        26     1.570     0.894 -39.43  16
       417    946.5319    363.2240 307.5318409  +6.5484809     678.0307     986.0403     1436.506     77.81155     155.8715     311.8671      1.426     3.40     836.8591     54.97711     120.5102         5     0.740     0.452 -68.89   0
       418    897.1694    361.4350 307.5524065  +6.5475702     495.2802     657.9427     703.1019     77.81155     155.7474      311.681      1.233     3.39     837.9952     54.97711     80.82123         5     1.162     0.287 -54.89   0
       419    180.4687    362.1073 307.8500935  +6.5232508     853.1179     1330.193     1510.557     78.05976     156.1195     311.8981      1.802     4.84      841.413     54.97711     135.0463         9     1.239     0.581 -26.66   0
       420    479.3846    357.7112 307.7260790  +6.5351144     2938.577     4878.357     5240.553     77.93576     155.8094      311.743      1.802     4.11     836.8011     54.97711     429.4764        27     1.580     0.953 -34.81   0
       421    451.7409    358.0596 307.7375500  +6.5340426     2119.565     3361.771     3567.861     78.18356     155.9956     311.9291      1.711     3.86     836.6343     54.97711     317.5292        21     1.422     0.867 -45.35   0
       422    907.9719    357.8871 307.5480385  +6.5493962      666.637     791.2607     675.3862     78.30717     155.7474      311.774      1.424     4.13     837.5525     54.97711     104.3171         7     0.950     0.513 -45.80   0
       423    837.3662    354.2250 307.5774918  +6.5485479     30142.84     49950.07     54063.04     77.56256     155.8094      311.681      1.779     4.21     839.2729     54.97711     4294.682        67     1.835     1.182 -38.50   0
       424    329.3600    350.1756 307.7886517  +6.5331864     903.4555     1418.837     1590.737     77.81155     155.8094      311.681      1.712     3.89     836.5914     54.97711     135.8089         9     0.982     0.686 -49.23   0
       425     54.8876    350.7547 307.9026404  +6.5237077     639.8776     999.2695     815.8747     78.18356     155.8715     311.8981      1.904     4.52     843.1009     54.97711     122.5773         7     1.192     0.616 -45.53   0
       426    609.0406    346.8642 307.6725869  +6.5439424      2487.25     3945.181       4058.6     78.18356     155.9335     311.9911      1.661     4.05     838.4387     54.97711     322.8803        20     1.375     0.829 -48.05   0
       427     17.3326    346.7478 307.9183753  +6.5240959     1025.896      1720.09     1714.951     78.05976     155.9335     311.8361      1.697     5.48     843.0078     54.97711     153.9659        10     1.317     0.643 -56.84   0
       428    693.8472    340.1715 307.6375839  +6.5495475     71604.22     116325.8     125490.5     77.81155     156.0576     311.8361      1.732     3.96     838.4313     54.97711      10742.9        93     1.886     1.216 -33.56   0
       429    851.9154    341.5836 307.5718735  +6.5542543     1053.738     1767.976     2511.145     77.81155     155.7474     311.8051      1.936     5.28     838.5254     54.97711      181.519        14     1.458     0.676 -42.59   0
       430     73.0152    339.5534 307.8954909  +6.5289437     1291.597     2064.188     1853.356     77.56256     155.8094     311.6499      1.693     3.40     842.9114     54.97711     210.3962        12     1.106     0.722 -38.35   0
       431    556.4769    336.8701 307.6947591  +6.5463066     2271.383     3880.595     4230.732     78.43059     156.2434     311.8981      1.938     4.87     836.8025     54.97711      317.379        24     1.656     0.903 -36.54   0
       432     93.4642    335.6758 307.8871285  +6.5312338     5805.882     9328.468      10094.2      78.4306     155.9956     311.8671      1.766     3.90     842.8076     54.97711     781.1856        34     1.617     1.035 -39.23   0
       433    539.5575    333.0699 307.7019158  +6.5473082     6642.891     10820.17     11734.69     78.05976     155.9956     311.9601      1.753     3.98       836.29     54.97711     885.1652        40     1.732     1.060 -36.37   0
       434    268.4338    330.7820 307.8146158  +6.5391453     2315.189     3752.451     4082.844     77.68716     155.8094      311.712      1.737     4.26     837.6514     54.97711     356.3385        25     1.689     0.946 -32.20   0
       435    402.4274    328.1661 307.7590448  +6.5447297      23067.8     38670.97     42284.01     77.68716     155.7474      311.681      1.823     4.08     835.3121     54.97711     3202.605        68     1.885     1.202 -36.57   0
       436    668.5427    327.3941 307.6485263  +6.5539759     480.8604     773.7768     842.5196     77.68716     155.8715     311.6189      1.773     5.50     837.1849     54.97711     75.58167         7     1.160     0.735 -55.28   0
       437    934.8526    337.4778 307.5375585  +6.5587218     927.1232     1297.774     812.6547     78.30717     155.9956     311.8981      1.405     4.21     836.3356     54.97711     156.7103         9     1.157     0.610 -50.90   0
       438    509.9992    327.2814 307.7143897  +6.5487066     1131.965     1713.134     1352.397     77.43776     155.4988     311.6189      1.497     3.88     835.5844     54.97711     207.5782        11     1.266     0.591 -37.40   0
       439    382.0192    326.5042 307.7675785  +6.5447303      1081.82     1574.855     2435.797     78.05976     155.8094      311.712      1.767     4.01     835.4611     54.97711      166.018        14     1.119     0.953 -26.96   0
       440    481.7703    323.6439 307.7262389  +6.5492612     1075.159     1867.568      1815.44     77.81155     155.9956      311.774      1.875     4.76     835.1423     54.97711     148.8291        13     1.309     0.694 -34.08   0
       441    491.4785    318.6777 307.7223739  +6.5516376     8080.186     13093.48     14535.17      78.4306     156.2434     312.0221      1.784     3.87     834.9755     54.97711     1093.745        44     1.733     1.169 -44.60   0
       442    797.1967    321.1663 307.5952918  +6.5608547      769.572     1317.955     1668.708     77.43776     155.8094     311.6499      1.909     4.61     838.2525     54.97711     130.7772         7     1.224     0.574 -54.87   0
       443    379.7365    321.1462 307.7687079  +6.5468659     781.3862      1413.61       2277.4     78.18356     155.9335     311.8671      2.113     5.74     835.3307     54.97711     110.1293         8     1.242     0.748  -8.00   0
       444    633.1561    319.8393 307.6634811  +6.5559096     568.6766      928.059     1096.299     77.93575     155.9956      311.743      1.777     4.59     836.5648     54.97711     93.63782         6     1.235     0.486 -60.81   0
       445    760.6044    317.4621 307.6106176  +6.5611597     2848.104     4711.304      5051.38     77.56256     155.7474     311.6499      1.845     4.19      838.006     54.97711     401.5554        28     1.700     0.981 -33.04   0
       446    915.7377    317.5445 307.5461696  +6.5663139      890.228     1249.496     1242.071     78.30717     155.9956     311.8981      1.582     5.10     836.4432     54.97711     122.4436         9     1.128     0.653 -48.27   0
       447    707.8310    317.2834 307.6325465  +6.5594667     543.3036      921.213     884.9667     78.18356     155.8094      311.774      1.666     4.51     837.3347     54.97711     84.18323         7     1.336     0.433 -46.46   0
       448    317.9620    316.0591 307.7945407  +6.5468901     919.3232     1881.518     2100.224     78.18356     156.0576     311.9291      2.063     6.42     836.1868     54.97711     129.7761        14     1.288     1.134 -38.15   0
       449    253.4656    309.6151 307.8215501  +6.5473816     620.4249     1012.699     945.8391     77.68716     155.8715     311.8361      1.637     3.79     837.4982     54.97711     101.3458         5     0.927     0.531 -48.68   0
       450    153.5073    309.3670 307.8630799  +6.5441194     994.2825     1433.916      1721.65     78.30717     155.8715     311.9601      1.662     4.05     840.2388     54.97711     145.1761        13     1.166     0.837 -32.30   0
       451    381.4406    302.7517 307.7686221  +6.5545183     6826.244     11354.88     12379.71     78.05976     155.9335      311.774      1.800     4.10     834.8677     54.97711     950.4945        38     1.648     1.091 -38.41   0
       452    237.1770    303.4956 307.8285235  +6.5493603      2034.48      3080.27     3590.155     78.18356     155.7474      311.743      1.651     3.98      837.689     54.97711     273.2083        19     1.432     0.797 -46.21   0
       453    749.3467    298.7311 307.6159254  +6.5685171      49537.9     78761.08      84898.2     78.05976     155.9335     311.8051      1.738     4.10     837.0206     54.97711     7712.831        87     1.862     1.198 -32.71   0
       454    734.6905    302.8073 307.6218766  +6.5663434       858.83      1407.14     1159.934     77.81155     155.6852      311.681      1.699     5.18     837.1714     54.97711     140.4688        10     1.097     0.690 -48.71   0
       455    670.1959    303.3254 307.6486513  +6.5639695     591.1215      618.563     424.4149     77.81155     155.4988     311.8051      1.295     3.60     835.6277     54.97711     83.14539         6     0.739     0.631 -55.95   0
       456    420.7179    298.1939 307.7524603  +6.5577197      2158.25     3486.982     3880.523     77.81155     155.6231      311.681      1.693     3.82      834.041     54.97711     292.3418        20     1.362     0.910 -43.87   0
       457    983.7468    296.1438 307.5186366  +6.5774225     1738.557     2439.268     1899.816     78.30717     155.9956     311.8981      1.580     4.07     833.9018     54.97711      243.142        17     1.369     0.835 -50.13   0
       458    566.9692    295.7997 307.6917871  +6.5636169     1069.758     1618.066     1675.084     77.56256     155.8094      311.712      1.666     4.77     834.1789     54.97711     159.1624        12     1.416     0.588 -51.48   0
       459    925.0681    294.9912 307.5430522  +6.5759383     2198.109     3406.183     3618.965     77.68716     155.7474     311.8051      1.557     3.80     835.8959     54.97711     355.5867        21     1.523     0.799 -32.26   0
       460    492.2542    296.6211 307.7227968  +6.5607710      410.189     602.8015     833.0894     77.68716     155.9956      311.712      1.602     3.86     833.8574     54.97711     86.21918         5     1.042     0.409 -15.80   0
       461    457.9185    294.3958 307.7371353  +6.5605372     1049.464     1768.476     2339.126     77.68716     155.5609     311.6189      1.854     6.22     833.7648     54.97711      133.468        14     1.455     0.747 -45.45   0
       462    407.4933    293.8000 307.7581024  +6.5590898     1752.311     3053.174     3630.354     77.68716     155.6231     311.5568      1.964     4.88     834.1068     54.97711     232.6121        20     1.540     0.870 -27.24   0
       463    287.6816    293.3693 307.8078870  +6.5552405     617.4771     1065.369     1109.764     78.05976     155.8715     311.8981      2.032     4.45     836.2321     54.97711     90.50031         6     1.037     0.543 -35.07   0
       464    828.4396    288.3970 307.5834164  +6.5754308     1095.083     1684.719     1905.685     77.31276     155.7474     311.6189      1.767     4.86     836.4829     54.97711     144.7657        13     1.323     0.695 -47.65   0
       465    457.7216    288.7697 307.7374072  +6.5628537     784.8119     1334.208     1931.791     78.05976     156.0576     311.8671      1.862     4.26      833.543     54.97711     126.6254         8     1.053     0.551 -34.80   0
       466    437.6446    285.7403 307.7458498  +6.5634304     1029.009     1563.659     1748.104     78.05976     155.9335     311.9911      1.701     5.55     833.5575     54.97711     153.6614        12     1.175     0.738 -33.23   0
       467    183.9389    285.0966 307.8512615  +6.5551653      2092.75     3404.346     3469.947     77.93575     155.9956     311.9911      1.688     4.41      838.532     54.97711     270.5537        21     1.496     0.898 -36.99   0
       468    747.7514    283.2864 307.6171086  +6.5748411     5727.738     9083.688     10230.34     78.18356     155.9335     311.9291      1.747     3.95     836.2601     54.97711     831.5348        31     1.683     0.926 -34.76   0
       469    219.4277    283.0018 307.8365906  +6.5572249     673.8843     1238.647     1552.474     77.68716     155.7474      311.681      2.015     5.37     837.6007     54.97711     101.5334         8     1.402     0.580 -58.94   0
       470    338.6777    282.8739 307.7870584  +6.5612888     652.5414     1199.688     1032.857     78.43059     156.2434     311.9291      2.019     4.28     835.2612     54.97711     94.50446         7     0.894     0.584 -54.17   0
       471     79.9347    282.5594 307.8945499  +6.5527094     934.5644     1488.562     1665.515     78.18356     155.9335     311.9911      1.728     5.29     841.6375     54.97711     139.1169        14     1.401     0.663 -38.37   0
       472    763.9534    281.2248 307.6104473  +6.5762347     2529.279     3705.826     3713.975     77.81155     155.9956      311.774      1.561     3.91     836.2072     54.97711      373.932        20     1.395     0.822 -45.81   0
       473    466.0206    280.9692 307.7342234  +6.5663532     569.0441     866.1616     1081.913     77.68716     155.8094      311.774      1.585     3.82     833.2554     54.97711       88.302         5     1.040     0.404 -59.13   0
       474    353.8284    275.8710 307.7810016  +6.5646896     1624.822     3377.908     3792.502     77.93575     155.9956     311.8671      2.223     7.28     834.8608     54.97711     200.4407        27     1.739     1.089 -18.15   0
       475     67.2711    276.3333 307.9000214  +6.5548533     1008.564      1802.77     1598.454     78.18356     156.0576     311.8981      1.972     4.98     841.5535     54.97711     174.7493        12     1.375     0.664 -52.93   0
       476   1002.3635    272.3223 307.5117033  +6.5878805     5581.596     8685.154     9397.715     78.05976     156.0576     311.8981      1.675     3.81     832.6103     54.97711       800.82        33     1.631     0.946 -35.11   0
       477    480.3222    272.0818 307.7285826  +6.5705030     1870.236     3050.964     3224.624     78.30717     156.2434     312.0221      1.761     4.24     832.8344     54.97711      234.618        19     1.383     0.855 -33.10   0
       478    243.0257    267.5279 307.8273121  +6.5644082     5373.653     8965.693     9957.816     77.81155     155.8715     311.8051      1.856     4.20      836.951     54.97711     791.9736        37     1.820     1.040 -36.53   0
       479    910.0847    266.7551 307.5502268  +6.5870968     608.5796     775.0641     920.6267     78.18356     155.9335     311.8981      1.363     4.20     835.1025     54.97711     98.37225         6     1.236     0.407 -54.03   0
       480    762.3251    261.2275 307.6117976  +6.5844373     738.0649     1099.343     1488.606     78.05976     155.9335     311.8671      1.657     4.52     835.4603     54.97711     114.6913         9     1.137     0.723 -39.39   0
       481    219.9493    260.3256 307.8371421  +6.5666054     552.8398      977.155     863.4243     78.18356     156.0576     311.9291      1.931     3.35     837.2905     54.97711     94.50031         5     0.789     0.413 -19.26   0
       482    377.1637    258.4395 307.7718975  +6.5726714     1594.465     2608.865     3125.984     77.93575     155.8715      311.774      1.831     4.41     834.0337     54.97711     228.1495        17     1.472     0.753 -37.32   0
       483    964.0109    257.2000 307.5281450  +6.5928440     929.6193     1449.917     1374.285     77.68716     155.6231      311.712      1.591     5.44     833.4598     54.97711     171.7591        12     1.590     0.535 -35.06   0
       484    299.4623    254.2011 307.8043191  +6.5718093     1150.997     1727.039      1841.59     77.56256     155.8094     311.5879      1.598     3.54     835.8279     54.97711     162.8753        14     1.145     0.856 -55.43   0
       485    146.9293    254.0109 307.8676889  +6.5667542     1547.326     2534.497     2770.262     77.68716     155.6852      311.712      1.703     5.10     838.6981     54.97711     226.9386        18     1.503     0.831 -37.88   0
       486    556.4146    250.0308 307.6977169  +6.5821613     2081.555     3228.252     3302.598     77.81155     155.7474     311.8361      1.604     4.26      833.263     54.97711     309.1019        17     1.364     0.751 -45.63   0
       487    900.3431    249.2130 307.5548641  +6.5940147     1389.519     2241.585     2552.499     77.56256     155.8715     311.5879      1.627     4.28     834.4844     54.97711     221.0649        16     1.511     0.680 -33.59   0
       488    720.0892    247.5177 307.6298059  +6.5886843     4525.447     7281.916     7749.745     77.93575     156.1815     311.9601      1.716     3.98     834.7971     54.97711        720.9        32     1.618     0.975 -39.73   0
       489    958.5576    247.3703 307.5307411  +6.5967207     712.7813     963.8601     814.7686     77.81155     155.9335      311.743      1.464     5.16     833.3015     54.97711      104.857        10     1.063     0.863 -46.37   0
       490    660.8912    247.4831 307.6544000  +6.5867157     2114.153     3126.678     3577.992     77.93575     156.3053     312.0221      1.625     4.49     834.1146     54.97711     291.4149        15     1.321     0.688 -38.74   0
       491    375.9943    241.8641 307.7729439  +6.5794761      769.905     1243.652     1092.385     77.56256     155.7474      311.681      1.540     6.41     833.7579     54.97711     134.8983        11     1.524     0.757 -27.78   0
       492    915.9113    239.7014 307.5487164  +6.5984624     976.7728     1380.655     1110.343     78.18356      156.429     311.8981      1.507     4.15     833.9943     54.97711      165.162        10     1.202     0.598 -55.03   0
       493    219.3306    232.8999 307.8383282  +6.5779087     2249.666     3596.676     4097.938     78.18356     156.1195     311.9291      1.803     5.09     836.9672     54.97711     269.3695        23     1.687     0.847 -33.38   0
       494    862.3326    231.5922 307.5712484  +6.6000198     1565.873     2500.476     2920.198     77.68716     155.7474      311.774      1.686     5.53     834.0928     54.97711     226.4716        17     1.492     0.741 -41.70   0
       495    752.6234    231.1946 307.6168401  +6.5965136     1644.634     2734.643     2709.425     77.68716     155.7474      311.743      1.828     4.27     834.3612     54.97711     257.4227        20     1.511     0.896 -36.83   0
       496    241.1086    227.1299 307.8294768  +6.5810240     621.5836     888.7017     747.8729     78.18356     156.1195     311.8981      1.569     4.78     836.6392     54.97711     88.10657         6     1.094     0.591  25.07   0
       497    779.6827    221.7969 307.6059151  +6.6012997     12020.48     19632.03     21556.94     77.56256     155.6231     311.5879      1.771     4.34       833.96     54.97711     1664.447        52     1.862     1.081 -32.80   0
       498    453.9096    222.3048 307.7412372  +6.5901695     20043.39      34399.1     38147.42     78.18356     156.4908     311.9291      1.910     5.03     831.6964     54.97711     2745.332        76     2.419     1.158 -40.74   0
       499    315.1087    224.8484 307.7988129  +6.5844553     609.9032     843.8967     671.0704     78.18356     155.8715     312.0531      1.522     2.07      835.164     54.97711      136.486         5     0.878     0.716  82.43   0
       500    718.3556    217.7776 307.6315287  +6.6009063     544.5602     912.1906     1237.966     77.68716     155.8715      311.712      1.769     4.50     833.8431     54.97711     75.56012         6     1.009     0.571 -26.38   0
       501    141.8875    216.0238 307.8710711  +6.5822692     2186.109     3645.503     3856.102     78.18356     155.8094      311.774      1.714     4.76     837.8182     54.97711     310.2244        22     1.383     1.164 -39.57   0
       502    116.5771    214.5627 307.8816349  +6.5820197     1086.507     1817.205     2251.433     77.81155     155.7474      311.681      1.928     5.24     838.5165     54.97711     139.5231        16     1.239     1.004 -88.30   0
       503    168.0518    214.9240 307.8602394  +6.5836045     498.9111     596.5181     945.7742     78.18356     156.0576     311.8981      1.498     3.67     837.2077     54.97711     82.58069         5     0.992     0.390 -59.71   0
       504    915.8184    212.2363 307.5496791  +6.6098001     1374.223     2235.053     2173.445     77.68716     155.8094      311.681      1.627     3.94     832.6944     54.97711     220.5012        16     1.321     0.757 -44.58   0
       505    540.0737    208.5081 307.7059077  +6.5987582     1865.219     2939.548     2751.312     78.18356     156.1195     311.9291      1.680     4.88      832.217     54.97711     266.3549        18     1.602     0.781 -53.45   0
       506    577.6913    208.3739 307.6902842  +6.6000753     4330.266      6962.44      7477.75     78.30717     155.7474      311.743      1.745     4.01     832.5165     54.97711     587.9915        33     1.669     1.013 -39.66   0
       507    298.0958    209.2329 307.8064090  +6.5903308     1010.196     1477.775     1400.822     78.30717     155.8715     311.9911      1.518     4.95     835.7448     54.97711     146.5253        10     1.295     0.740 -51.97   0
       508    381.9954    207.5685 307.7716110  +6.5938385     1382.683      2227.61     2536.754     77.56256     155.8715      311.681      1.848     4.35     833.0461     54.97711     193.0303        16     1.370     0.812 -45.59   0
       509    938.3983    205.5869 307.5405217  +6.6133003     2467.997     3950.055     4375.566     77.81155     155.6852      311.681      1.705     4.35     832.0254     54.97711     349.5579        21     1.450     0.848 -43.07   0
       510    884.6804    204.8879 307.5628628  +6.6117936      10483.1      16733.4     17797.14     77.93575     156.2434     312.0221      1.690     4.22     832.6863     54.97711     1468.905        46     1.725     1.081 -33.65   0
       511    311.7893    205.7647 307.8008378  +6.5922233     855.6328     1225.614     1778.412     77.68716     155.8094      311.681      1.497     4.65     835.2665     54.97711     142.0215         9     0.969     0.680 -28.92   0
       512    971.3311    202.8170 307.5269326  +6.6155441     9271.103     14553.13      15679.3     77.68716     155.8715     311.8051      1.677     3.91     831.2004     54.97711      1473.12        42     1.726     0.990 -35.10   0
       513    559.3052    204.9190 307.6980393  +6.6008853     753.9402     1188.708     1062.933     77.93575     156.2434     311.9911      1.678     4.35      832.265     54.97711     131.9741         7     1.209     0.447 -41.76   0
       514    203.9523    205.0265 307.8456610  +6.5888999     751.6396     1228.998     1272.233     77.81155     156.0576     311.8361      1.780     4.98     836.8729     54.97711     115.7212         8     1.197     0.585 -29.55   0
       515    682.6796    202.8197 307.6468546  +6.6058877     2601.959      4352.63     5001.145     77.93575     155.6852     311.8981      1.797     4.35     833.2385     54.97711     367.0499        26     1.557     0.987 -43.81   0
       516     10.8809    201.3671 307.9259901  +6.5839049     23297.33     38594.86     41883.18     78.05976     155.9335     311.8671      1.807     3.87     841.7195     54.97711     3100.894        66     1.871     1.197 -35.13  16
       517    257.1646    202.3308 307.8236467  +6.5918038     1084.579     1935.529     1659.265     78.05976     155.9956     311.9911      1.858     4.91     836.3929     54.97711     162.3303        16     1.450     0.820 -40.01   0
       518    491.2255    197.8171 307.7265624  +6.6015333      1847.82     2733.039     2608.268     77.81155     155.8094     311.8361      1.515     4.16     830.8439     54.97711     245.6462        17     1.341     0.772 -47.53   0
       519    875.5901    193.5342 307.5670216  +6.6161778     1839.951      2979.82     2670.411     77.68716     155.8094      311.774      1.762     4.66     832.2941     54.97711     274.3417        19     1.664     0.749 -32.78   0
       520    823.1375    194.3209 307.5887871  +6.6140988     1820.254      2823.63     2741.883     78.43059     156.0576     311.8981      1.670     4.27     832.7023     54.97711     264.2323        18     1.468     0.840 -43.36   0
       521    503.0572    193.5718 307.7217904  +6.6036834     2533.369     4017.919     4356.091     77.81155     156.0576     311.8051      1.728     3.87     830.9702     54.97711     366.6022        23     1.378     0.987 -45.90   0
       522    734.9232    190.8360 307.6255539  +6.6125856      36614.7     58895.57      63523.3     78.05976     156.0576     311.9291      1.713     4.11     832.7864     54.97711      5475.08        72     1.849     1.175 -32.71   0
       523    337.9415    190.2615 307.7904980  +6.5995039     5705.849     11566.94     13039.97     78.30717     155.9335     311.9291      2.227     5.84     834.3782     54.97711     631.5091        52     2.121     1.234 -57.85   0
       524    968.5240    189.8168 307.5285360  +6.6208183     2599.794     4169.371     4369.499     77.68716     155.7474     311.8051      1.653     4.19     830.5652     54.97711     354.5138        22     1.493     0.862 -39.45   0
       525    902.7600    188.0248 307.5559190  +6.6193610     7001.825     11114.65     11865.65     77.81155     155.8094      311.681      1.654     3.87     831.5822     54.97711     974.0254        37     1.647     1.003 -34.46   0
       526   1006.7751    188.3455 307.5126934  +6.6227033     1605.369     2668.158     2650.859     77.81155     156.0576      311.712      1.720     5.01     829.7976     54.97711     251.9889        18     1.581     0.757 -41.41   0
       527    446.2159    186.9599 307.7456283  +6.6045052     4572.895     7543.354     8235.456     77.68716     155.8094      311.681      1.760     4.06     830.9107     54.97711     576.7838        33     1.627     1.045 -41.58   0
       528    220.9181    183.5782 307.8393397  +6.5983270     670.0126     1216.704     1622.419     77.93575     155.6852     311.8361      2.244     5.56      836.685     54.97711     85.56219         9     1.025     0.851  16.82   0
       529    103.6067    178.2595 307.8882544  +6.5965720     4597.451     7641.041     7894.236     77.56256     155.8715      311.681      1.810     3.90     838.1019     54.97711     600.0522        33     1.599     1.067 -45.99   0
       530    922.9606    177.6347 307.5478759  +6.6243263     853.8759     1062.856     1227.158     77.93575     155.8715      311.712      1.310     2.97     830.6895     54.97711     160.9163         7     0.926     0.527 -56.20   0
       531    274.0390    174.9583 307.8175635  +6.6036736     30550.32     50933.64     55398.98     77.93575     155.9956      311.774      1.780     4.08     836.1904     54.97711      4320.64        73     1.904     1.216 -34.91   0
       532    249.3459    176.1061 307.8277830  +6.6023689     5839.913     9822.374     10555.55     78.05976     155.9335     312.1151      1.813     4.07     836.4226     54.97711     747.4686        42     1.785     1.081 -35.96   0
       533    702.9858    174.3269 307.6393792  +6.6183329     769.8805     1132.909     1369.296     77.68716     155.7474      311.774      1.769     6.10     832.1854     54.97711     130.7581         9     1.450     0.721 -47.95   0
       534    398.0670    170.4993 307.7661880  +6.6096845     45294.69     75007.14     81124.11     78.18356     156.1195     311.8671      1.800     4.11     831.5988     54.97711     6392.518        78     1.893     1.198 -36.42   0
       535    154.0013    171.7219 307.8675408  +6.6009692     3713.688     6252.698      6424.61     77.43776     155.4366      311.712      1.780     3.97     836.8823     54.97711     569.3195        29     1.663     0.931 -34.36   0
       536    415.2906    171.0160 307.7590151  +6.6100498     1394.533     2275.364     2168.417     77.93575     155.8094      311.774      1.641     4.40     830.7784     54.97711     205.0244        16     1.474     0.746 -42.32   0
       537    302.0380    168.1832 307.8061610  +6.6074128     16331.61     27545.58     30663.41     77.81155     155.8715     311.6499      1.845     4.08     835.6082     54.97711     2172.927        65     2.299     1.165 -29.71   2
       538    309.1103    168.4875 307.8032126  +6.6075250     2133.304      3600.71      4821.16     77.93575      156.429     312.0221      2.119     4.39      835.369     54.97711     288.3786        19     1.527     0.814 -41.41   3
       539    684.8827    169.0001 307.6470799  +6.6199260     858.2346         1443     1387.659     77.43776     155.4988     311.5568      1.829     5.45     832.0641     54.97711     142.9238        11     1.324     0.711 -38.35   0
       540    737.3597    166.7341 307.6253540  +6.6226191     30329.88      48431.4     51131.91     78.18356     155.9335     311.9911      1.740     4.11      831.801     54.97711     4448.193        63     1.824     1.109 -34.16   0
       541    785.7277    167.2142 307.6052426  +6.6240399     1033.999     1663.926     1955.309     77.68716     155.7474      311.774      1.766     4.82     831.7902     54.97711     145.7239        11     1.151     0.741 -55.26   0
       542     24.4366    167.0450 307.9215240  +6.5985334     705.1599     808.6331     576.8727     77.93575     155.9956     311.8051      1.561     4.95     841.9642     54.97711     112.4727         6     1.260     0.550 -23.91   0
       543     54.1451    163.9123 307.9092887  +6.6008287     8390.899     14117.75     15037.51     78.18356     155.8715     312.0531      1.786     4.10     840.3499     54.97711     1182.266        44     1.747     1.110 -39.20   0
       544     87.8158    162.1537 307.8953607  +6.6026898     1376.246      2313.12     2447.919     77.68716     155.8715     311.6499      1.794     5.40     838.4172     54.97711     207.0308        20     1.587     0.880 -28.81   0
       545    996.0441    160.9838 307.5180718  +6.6336431     1058.474      1707.48     1697.342     77.68716     155.8715      311.681      1.611     4.96     828.7033     54.97711     154.5231        13     1.222     0.808 -27.22   0
       546    963.9112    160.4665 307.5314396  +6.6327835     681.8947     915.1682     1140.323     78.30717     156.1815     311.8671      1.499     5.18     829.0834     54.97711     95.62061         8     1.238     0.672 -44.56   0
       547    570.6454    151.3774 307.6951358  +6.6233733     817.8317     1341.796     1443.556     77.81155     155.9956      311.743      1.715     5.96     830.4288     54.97711     131.0549        11     1.343     0.807 -51.30   0
       548    996.4449    147.4523 307.5183602  +6.6392438     2076.917     3271.344     4164.729     78.18356     155.9956     311.8981      1.807     4.51     828.0281     54.97711     320.1914        19     1.521     0.760 -43.91   0
       549    579.5756    145.4651 307.6916253  +6.6261141     1001.104     1644.016     2173.758     77.81155     155.9956     311.8361      1.835     3.91     830.4001     54.97711     189.0119        12     1.299     0.645 -34.16   0
       550    588.0874    143.1755 307.6881662  +6.6273449     1683.777     2717.245     2988.734     78.18356     155.8094      311.774      1.761     4.59     830.4327     54.97711     244.5975        17     1.450     0.756 -40.93   0
       551    272.9103    141.2309 307.8191745  +6.6175616     27978.47     46531.26     50953.52     78.30717     155.8094     311.8361      1.814     3.95     836.0018     54.97711     3761.918        74     1.873     1.263 -35.09   0
       552    331.9735    143.0506 307.7945751  +6.6187967     921.8209     1370.358     1348.607     77.81155     156.0576     311.8051      1.497     4.89     834.5259     54.97711     144.7914        10     1.120     0.673 -21.77   0
       553     18.0941    139.6586 307.9250885  +6.6096270      4246.23     6880.581     6746.383     78.05976     155.9956     312.0221      1.744     3.86     841.5996     54.97711     591.6096        30     1.534     1.012 -45.95   0
       554    704.5744    137.9691 307.6399451  +6.6333986     7537.521     12024.16     13173.62     77.68716     155.8094      311.743      1.704     3.96     830.7164     54.97711     1018.222        38     1.677     1.008 -38.59   0
       555    182.1348    139.2773 307.8569530  +6.6153129     828.2817     1550.662     1629.447     78.30717     155.9956     311.8671      1.997     4.71     836.2568     54.97711     117.1544        10     1.193     0.665 -12.84   0
       556    258.2037    136.8358 307.8254332  +6.6188816     726.1215     937.6277     917.3896     77.31276     155.8715      311.712      1.614     5.02     836.1008     54.97711     112.4359        10     1.408     0.507 -34.88   0
       557    115.2095    134.9179 307.8849043  +6.6148585     4272.218     7167.561     7493.146     77.81155     155.6231      311.743      1.772     4.10     837.0693     54.97711     555.8543        30     1.582     0.997 -41.49   0
       558    577.5571    132.7477 307.6928933  +6.6312975     595.1304      843.595     1413.868     78.18356     155.9956     311.9291      1.807     4.33     830.1395     54.97711     88.40302         5     0.915     0.583 -39.90   0
       559    454.2402    132.5655 307.7441333  +6.6272343     1370.153     2091.673     2251.223     77.93576     155.9335      311.712      1.687     5.00     829.9598     54.97711     179.2474        14     1.218     0.788 -41.74   0
       560    385.9750    130.9934 307.7725480  +6.6255903     3395.356     6501.642      7124.49     77.68716     155.8715      311.712      2.038     4.32     831.9659     54.97711     460.9793        40     1.821     1.230 -42.27   0
       561    643.0456    132.4543 307.6656947  +6.6336142     679.6899     1152.844     1113.266     78.18356     155.9956     311.8981      1.703     4.56     830.5429     54.97711     86.63013         7     1.096     0.539 -26.27   0
       562    563.4126    129.4090 307.6988826  +6.6322016     541.1277      1187.84     1432.258     77.93576     155.8094     311.8051      2.237     5.29     829.9543     54.97711     97.19232         8     1.804     0.438 -46.05   0
       563    350.4985    130.0608 307.7873185  +6.6247830     2916.552     4772.807     5210.168     77.93575     155.9335     312.0221      1.767     4.13      833.954     54.97711     406.0471        25     1.517     0.919 -36.33   0
       564    104.8161    129.8025 307.8893956  +6.6166204     1552.043     2474.186     2222.014     77.81155     155.6231      311.712      1.663     4.90     837.1944     54.97711     216.8475        18     1.535     0.840 -41.44   0
       565    666.3560    127.8884 307.6561639  +6.6362807     861.2645     1260.361     1258.931     78.18356     155.8715     311.9291      1.544     3.26     830.5237     54.97711     171.2625         8     0.939     0.714 -54.10   0
       566    997.1899    124.0732 307.5188367  +6.6489223     1441.552      2316.18     2551.303     77.68716     155.6231      311.774      1.641     3.93     826.8989     54.97711     244.9713        16     1.336     0.764 -45.85   0
       567    723.0998    124.2969 307.6327093  +6.6396644     471.2703     859.7143     875.9031     78.18356     156.4908      311.743      2.068     6.22     829.9598     54.97711     68.52954         7     1.756     0.620 -48.47   0
       568    202.2096    118.7867 307.8493074  +6.6244493     5139.598     8537.903     8797.103     77.93575     155.7474     311.8361      1.765     3.91     836.0922     54.97711     689.7108        33     1.602     1.052 -41.06   0
       569     85.0712    118.7166 307.8979746  +6.6205321     1912.642     3146.938     3368.558     78.43059     156.3053     311.9291      1.819     4.40     837.7249     54.97711     254.2596        21     1.473     0.900 -33.94   0
       570    664.0884    117.6939 307.6574499  +6.6404141     5783.974     9140.214     9784.037     78.18356      156.429     311.9601      1.711     4.27     830.1445     54.97711     847.5891        33     1.671     0.980 -34.80   0
       571    812.3994    117.7259 307.5958284  +6.6453666     927.2659     1557.309     1443.955     77.43776     155.3743      311.712      1.746     4.82     828.9203     54.97711     174.3619        13     1.439     0.769 -26.62   0
       572    616.2246    114.9495 307.6774288  +6.6399430     8577.295     14225.97     15334.67     77.81155     155.9956     311.8051      1.773     4.06     829.9385     54.97711     1272.862        44     1.692     1.114 -39.23   3
       573    619.8324    106.4516 307.6762167  +6.6435728     48556.27     79189.23     84896.62     78.05976     156.0576     311.8361      1.777     4.17     829.6996     54.97711     6478.162        79     1.848     1.210 -34.74   3
       574    250.3072    116.0713 307.8294172  +6.6271895     603.5707     903.8045     1008.949     78.05976     156.0576     311.9291      1.379     4.15     835.9906     54.97711     140.5588         7     1.507     0.326 -40.89   0
       575     14.8426    113.8402 307.9273159  +6.6201775     948.1186     1665.673     1979.365     77.93575     155.9956      311.774      1.941     6.24     840.7016     54.97711     122.6726        13     1.478     0.740 -35.32   0
       576    343.3726    110.6993 307.7909342  +6.6325378      3486.93     6008.832     6409.981     78.18356     155.7474     311.8671      1.869     4.66     834.1315     54.97711     503.1695        34     1.909     0.980 -43.08   0
       577    525.2237    109.7943 307.7154115  +6.6390194     1573.152     2603.825     3112.296     77.68716     155.7474      311.743      1.754     4.66     829.5589     54.97711     228.9308        17     1.563     0.750 -45.11   0
       578    989.4861    109.7850 307.5225181  +6.6545648     767.9254     1158.856     1549.119     77.81155     155.7474     311.8051      1.710     5.57     826.4004     54.97711     124.3968         8     1.224     0.729 -37.60   0
       579    298.9395     99.9908 307.8097570  +6.6354652     3342.413     5736.838     6429.813     77.56256     155.8715     311.6499      1.871     4.28     835.2115     54.97711     448.4698        31     1.593     1.078 -37.60   0
       580    494.7741     97.7860 307.7284683  +6.6429558     441.5547     887.2808     982.6205     77.93575     155.8094     311.8361      1.748     3.44     829.4573     54.97711     84.42615         5     0.978     0.350 -43.29   0
       581      2.1735     82.2150 307.9336530  +6.6328077     57697.53     79516.89      92409.9     76.30538     135.5607     247.9413      1.662     6.00     839.8817     54.97711     12770.67       171     3.014     1.698 -89.42  24
       582    698.7149     94.7294 307.6438378  +6.6510564     855.9077     1169.123     845.2194     78.30717     156.2434     311.9291      1.532     5.21     828.9759     54.97711     121.8753        11     1.173     0.683 -76.92   0
       583    669.9964     93.7645 307.6558025  +6.6504927     1289.587     1806.338     1687.031     77.31276     155.8715      311.681      1.456     4.02     829.2727     54.97711      179.901        11     1.191     0.685 -44.30   0
       584    684.0494     90.4971 307.6500739  +6.6523126     2924.655     4759.109      4606.12     78.05976     155.9335     312.0531      1.683     3.95     829.0129     54.97711     450.0215        25     1.559     0.930 -41.40   0
       585    425.8740     81.4160 307.7576480  +6.6474014     3787.667     6220.869     6324.898     77.68716     155.7474      311.774      1.765     4.16     829.9545     54.97711     508.0851        30     1.630     0.962 -37.55   0
       586    880.4370     77.8620 307.5689018  +6.6641024     1944.448     3184.082     3193.654     78.18356     156.0576     311.8981      1.751     3.88     827.1375     54.97711     290.2442        19     1.399     0.865 -37.59   0
       587    898.5392     76.8955 307.5614128  +6.6651067     3722.486     5773.144     5553.283     78.05976     155.9956     311.9911      1.589     3.93     826.9919     54.97711     558.0558        27     1.604     0.843 -43.41   0
       588    578.7648     77.2295 307.6942661  +6.6542618      730.709     1204.275     851.2002     77.81155     155.7474      311.712      1.640     5.36     828.8359     54.97711     109.9312         9     1.302     0.622 -34.72   0
       589    590.4955     75.3667 307.6894550  +6.6554243     1697.466     2820.204     2495.992     78.30717     155.8715     311.9911      1.769     4.91     828.7917     54.97711     228.8893        20     1.580     0.930 -49.12   0
       590    610.3740     75.6408 307.6811865  +6.6559777       333.28      611.459     828.4424     77.81155     155.8094      311.712      1.631     4.93     828.8442     54.97711     62.59894         5     1.147     0.601 -56.77   0
       591    389.3388     73.2167 307.7731049  +6.6495593     1692.514     2766.466     2553.382     77.68716     155.9335      311.712      1.740     4.60      831.628     54.97711     241.9963        20     1.420     1.001 -53.90   0
       592    235.7153     75.0988 307.8368676  +6.6436158     656.9234     934.5052     1416.224     78.18356      156.429     311.9601      1.313     3.87     835.7106     54.97711     113.6629         6     1.235     0.347 -32.39   0
       593    137.1857     70.1810 307.8779699  +6.6423283     3040.969     5157.574     5495.993     77.81155     155.6852     311.8051      1.769     4.05      835.684     54.97711     424.7711        26     1.523     0.991 -44.02   0
       594    285.6095     68.7091 307.8163545  +6.6479329     1322.278     2081.478     3145.505     77.93576     155.6852     311.6499      1.769     4.68     835.3569     54.97711     180.3641        15     1.326     0.772 -45.24   0
       595     19.1489     67.8848 307.9270872  +6.6392972     11272.59     19039.17     21256.64     78.18356     155.9335     311.9911      1.846     4.01     838.7431     54.97711     1648.238        52     1.786     1.181 -36.24   0
       596    558.8896     67.9072 307.7028388  +6.6574444     634.4836     987.5529     1183.974     78.18356     156.4908     311.9291      1.581     4.48     828.5537     54.97711     85.89301         7     0.951     0.601 -14.74   0
       597    545.8289     67.4803 307.7082798  +6.6571824     782.4713     1178.742     979.9429     78.05976     155.9335     311.8361      1.807     5.12      828.512     54.97711     98.05438        10     1.249     0.593 -47.27   0
       598    754.1803     66.7380 307.6217361  +6.6644716     657.0262     1132.538     1788.104     77.81155     155.9956     311.8051      1.548     4.48     827.3016     54.97711      107.704         8     1.092     0.522 -52.76   0
       599    410.7293     63.5318 307.7645452  +6.6542770     1154.427     1667.562         2190     78.18356     156.1195     311.8671      1.848     5.59     830.4276     54.97711     158.0962        16     1.575     0.747 -51.67   0
       600    888.2887     63.0539 307.5661379  +6.6704794     643.2631     942.0991     662.9293     78.18356     155.8715     312.0221      1.181     4.91     826.7338     54.97711     97.30347         7     1.243     0.550 -71.90   0
       601    820.9702     62.6007 307.5941243  +6.6684152     5804.078     9360.771     10360.85     77.56255     155.8094      311.712      1.728     4.83     826.7266     54.97711     866.0807        41     1.788     1.082 -28.54   0
       602    765.7557     63.0459 307.6170510  +6.6663836     3146.762     5138.277     5417.274     78.18356     155.9956     311.8361      1.673     4.22     827.0333     54.97711     481.9258        22     1.475     0.828 -40.91   0
       603    753.1438     62.1762 307.6223206  +6.6663205     625.4999     1000.185     973.2529     77.81155     155.9956      311.712      1.539     3.58      827.139     54.97711     109.9251         5     0.971     0.380  -1.82   0
       604    528.0547     61.0549 307.7158819  +6.6592391     1129.547     1743.214     2246.766      78.4306     155.9956     311.8981      1.633     5.92     828.4973     54.97711     172.7332        15     1.683     0.676 -41.45   0
       605     59.3017     59.8627 307.9106777  +6.6439636     2942.394     4896.971     5548.375     77.93575     156.1195     311.9601      1.807     4.45     837.2394     54.97711     380.3628        28     1.632     0.998 -42.68   0
       606     44.0069     60.6352 307.9170059  +6.6431289     930.6282     1465.396      1269.52     77.56255     155.7474      311.681      1.650     5.14     837.7203     54.97711     168.7772        12     1.259     0.700 -40.11   0
       607    420.7344     59.2974 307.7605315  +6.6563615     971.6997     1823.872     2563.693     78.18356     156.0576     311.9291      2.169     6.34     830.0428     54.97711     128.2107        14     1.448     0.779 -40.86   0
       608    583.0134     56.6712 307.6931950  +6.6628929     1184.424     1705.505     1564.333     77.68716     155.7474      311.774      1.503     3.63     828.2583     54.97711     177.3762        14     1.099     0.872 -50.87   0
       609      2.1014     55.2213 307.9345997  +6.6439507     2340.231     3426.683     4138.563     75.92417     134.7736     246.6898      1.603     3.82     838.7311     54.97711     350.9969        19     1.439     0.789 -60.62  24
       610    760.4989     50.3892 307.6196618  +6.6714337      1818.51     3013.153     3745.135     77.93576     155.6231      311.681      1.887     4.72     826.6552     54.97711     264.5468        20     1.550     0.805 -41.34   0
       611    401.0171     50.6397 307.7690166  +6.6592738     1063.245     1773.178     1293.677     77.81155     155.8715      311.681      1.778     6.01     830.9439     54.97711     152.5955        15     1.409     0.815 -42.22   0
       612     73.8840     50.9981 307.9049202  +6.6481153     721.1042     1155.174     1024.071     77.56256     155.6231     311.5879      1.732     5.62     836.5671     54.97711     90.94501        10     1.125     0.792 -47.21   0
       613     98.6941     49.1325 307.8946758  +6.6497220     759.6795     1271.165     1147.338     78.05976     156.1815     311.9291      1.867     5.80     835.8722     54.97711     100.0854        10     1.204     0.786 -45.03   0
       614     87.2478     43.9475 307.8996072  +6.6514770     8382.387     14258.83     15237.51     78.30717     155.9335     311.9291      1.845     4.09     836.0556     54.97711     1157.555        52     1.809     1.240 -38.80   0
       615    416.1517     44.1339 307.7629484  +6.6624686     2384.077     3708.424     4063.456     78.05976     155.9335     311.8981      1.678     3.81     830.2001     54.97711     320.4762        20     1.474     0.816 -43.31   0
       616    630.0159     36.1882 307.6743571  +6.6729264     16637.35     27162.95     29460.07     77.93575     155.6231     311.8361      1.732     4.08     827.6467     54.97711     2455.926        54     1.784     1.110 -35.23   0
       617    253.9234     38.2072 307.8305524  +6.6594609     1366.056     2368.872     3548.241     77.81155     155.4988      311.743      2.061     4.36     835.2659     54.97711     171.3549        18     1.356     0.896 -39.49   0
       618    529.6804     32.3268 307.7161770  +6.6711556     4806.283      7673.72     7893.936      78.4306     156.2434     311.9291      1.733     4.01     827.7535     54.97711     658.5547        31     1.629     0.951 -36.89   0
       619    247.8427     32.5703 307.8332698  +6.6615837     1654.615     2990.585     4377.241     77.81155     155.9335      311.743      2.054     4.37     835.2219     54.97711     232.0859        20     1.463     0.862 -59.45   0
       620    615.9203     26.0511 307.6805560  +6.6766395     2934.816       5036.3     6568.135     78.18356     156.0576     311.8981      2.108     3.91     827.3508     54.97711     426.4453        30     1.724     1.170 -61.53   2
       621    435.3420     27.7982 307.7555274  +6.6698582     20723.94     34549.09     37775.44     77.56256     155.6852     311.6189      1.790     4.09     829.6884     54.97711     2955.073        64     1.890     1.179 -34.78   0
       622    255.9007     28.2131 307.8300695  +6.6636540     8356.518     14159.32      16304.3     77.93575     155.7474     311.6499      1.886     4.03     835.1794     54.97711     1150.573        47     1.807     1.106 -37.49   0
       623    913.0884     28.0158 307.5570127  +6.6857759     1777.092     2654.063      2254.52     77.93575     155.7474      311.743      1.549     3.42     825.7427     54.97711     286.0442        19     1.331     0.909 -45.48   0
       624    315.6315     28.7159 307.8052351  +6.6654558     1012.019     1494.057     1785.794     78.18356     155.8094      311.774      1.773     4.54      834.331     54.97711     138.6082        11     1.182     0.752 -46.47   0
       625     21.2766     27.7348 307.9275665  +6.6559464     2052.082     3576.395     4030.286     78.30717     155.9956     311.8671      1.839     4.07     837.1624     54.97711     311.1409        24     1.577     0.915 -45.85   0
       626    548.1138     27.7182 307.7086736  +6.6736770     699.7218     1080.856     1172.653     77.93575     156.2434     311.9911      1.590     5.61     827.4183     54.97711     97.93121        10     1.043     0.851  21.77   0
       627    243.8751     24.7484 307.8351833  +6.6646798     2752.488     4489.961     5186.517     78.18356     156.0576     311.8981      1.788     4.17     835.1389     54.97711     391.2731        25     1.553     0.936 -49.28   0
       628    296.8081     23.0630 307.8132474  +6.6671568     1027.389     1716.171      2306.49     77.56256     155.7474      311.712      2.020     5.98     834.9233     54.97711     153.8566        16     1.253     1.139 -25.78   0
       629    685.0399     17.5575 307.6521228  +6.6824631     1773.551     2720.228     2894.498     77.93575     155.9956      311.774      1.647     4.51     826.8712     54.97711     277.4453        17     1.422     0.797 -41.31   0
       630    934.0208     17.8731 307.5486562  +6.6906635     962.9843     1594.948     1729.729     77.81155     155.8715     311.8361      1.586     5.73     824.9779     54.97711      139.254        13     1.429     0.668 -35.07   0
       631    885.3951   1021.6188 307.5350954  +6.2745735      1446.26     2364.286     2230.078     77.81155     148.8896     265.1698      1.787     5.08     858.0311     54.97711     159.9218        15     1.254     0.841 -41.70  16
       632    208.1861   1019.8045 307.8163131  +6.2526188     1919.361     3300.044     3186.313     77.81155     155.7474     287.5676      1.679     4.76     858.7441     54.97711     319.9867        22     1.690     0.812 -39.89  16
       633    744.9989   1018.9933 307.5934737  +6.2709631     606.7076     1340.727      1818.91     77.56256     155.6852     295.8566      2.531     4.71      859.812     54.97711     79.22723         7     1.123     0.560 -90.00  17
       634    711.6093   1016.9742 307.6074043  +6.2706793     6568.919     10887.85     12235.54     77.81155     155.8094     310.4684      1.780     3.83     860.1523     54.97711     902.0996        43     1.712     1.167 -43.59  16
       635    426.6212   1017.1303 307.7257183  +6.2610625     3529.222     5969.399     6677.123     77.81155     155.8715      309.751      1.815     4.08     860.9003     54.97711     525.1547        34     1.893     0.988 -35.96  16
       636    567.8030   1016.0898 307.6671391  +6.2662277      3651.51     6215.361      7413.99     77.68716     155.6852     311.5879      1.841     4.06     860.9017     54.97711     514.4415        32     1.708     1.034 -35.39  16
       637    703.7834   1016.2108 307.6106792  +6.2707326     959.0953     1494.621     2115.524     77.93575     155.6852      311.774      1.658     5.77     860.1857     54.97711     133.2184        12     1.210     0.776 -39.58  16
       638    743.5366   1012.5659 307.5942971  +6.2735681     1349.652     2004.697      2541.92     78.05976     156.0576     311.8981      1.751     3.94     859.5934     54.97711     185.9322        14     1.148     0.870 -45.56   0
       639    951.0553   1006.6787 307.5083360  +6.2829359     5755.369     10199.62     10831.01     78.30717     155.9956     311.9291      1.925     3.99     854.9629     54.97711     715.8339        40     1.723     1.175 -35.68   0
