#   1 NUMBER                 Running object number                                     
#   2 X_IMAGE                Object position along x                                    [pixel]
#   3 Y_IMAGE                Object position along y                                    [pixel]
#   4 ALPHA_J2000            Right ascension of barycenter (J2000)                      [deg]
#   5 DELTA_J2000            Declination of barycenter (J2000)                          [deg]
#   6 FLUX_APER              Flux vector within fixed circular aperture(s)              [count]
#   9 FLUXERR_APER           RMS error vector for aperture flux(es)                     [count]
#  12 FLUX_RADIUS            Fraction-of-light radii                                    [pixel]
#  13 FWHM_IMAGE             FWHM assuming a gaussian core                              [pixel]
#  14 BACKGROUND             Background at centroid position                            [count]
#  15 THRESHOLD              Detection threshold above background                       [count]
#  16 FLUX_MAX               Peak flux above background                                 [count]
#  17 ISOAREA_IMAGE          Isophotal area above Analysis threshold                    [pixel**2]
#  18 A_IMAGE                Profile RMS along major axis                               [pixel]
#  19 B_IMAGE                Profile RMS along minor axis                               [pixel]
#  20 THETA_IMAGE            Position angle (CCW/x)                                     [deg]
#  21 FLAGS                  Extraction flags                                          
         1     15.0612     61.0595 307.9360544  +6.6317628     755398.8      2033546      2424603     86.24673     172.0836     344.0988      2.594    10.24     1050.516     60.64697     61963.64       443     2.589     1.855  31.82  20
         2    105.8557     21.9294 307.8996418  +6.6509735      5923.72      13276.7     15274.89     86.24673     172.0152     344.0303      2.349     5.91         1044     60.64697     619.5293        55     2.177     1.362  29.25   0
         3    648.5296     13.7618 307.6743460  +6.6725877     11919.71     25084.35     29015.01     86.11016     172.0836      344.133      2.240     6.01     1024.567     60.64697     1189.456        61     2.203     1.290  28.72  16
         4    267.1899     10.3508 307.8329741  +6.6611862     1184.016     2832.987      4835.32     85.69913     171.8783     343.7223      4.895    12.31     1043.927     60.64697     145.5167        34     3.599     1.171  38.71  19
         5    548.2497      9.8445 307.7161625  +6.6708409     3352.413     7000.327     8294.723     86.24673     171.9467     344.0645      2.287     5.92     1026.133     60.64697     384.6589        37     1.958     1.158  30.42  16
         6    453.8904      5.4525 307.7555338  +6.6694853     14138.44     30959.54     35892.57     86.24673     171.8783     320.5834      2.337     6.09     1031.031     60.64697     1348.626        77     2.280     1.457  27.55  24
         7    274.4664      5.9299 307.8300989  +6.6632556     5651.848     12654.31     15128.66     86.24673      172.152     325.6827      2.384     5.95     1044.015     60.64697     623.0682        61     2.250     1.445  29.13  25
         8     15.1124      7.8512 307.9378355  +6.6537228     638.8243     1301.084     494.4117     86.24673     171.9467     341.7994      1.990     6.25     1049.994     60.64697     85.55737         8     1.393     0.789  55.29  16
         9    634.8797      4.0644 307.6803465  +6.6761322     2163.261     5002.543     6080.654     86.51924     170.3651      302.759      2.556     6.94     1024.999     60.64697     228.2804        38     2.025     1.349  52.88  24
        10     39.9677      5.6449 307.9275792  +6.6554719      1467.14      2904.93     2483.245     85.97337      172.152     322.4503      2.032     6.02     1048.135     60.64697     227.3125        24     1.722     1.086  20.60  16
        11    931.4865      5.4812 307.5570010  +6.6854770     1520.941     2755.425     3467.386     85.97337     172.3569     320.8769      2.037     6.77     1016.737     60.64697     194.0914        18     1.682     0.764  27.45  16
        12    333.7222      5.8372 307.8054714  +6.6652874     686.3637     1306.761     1179.183     86.11016      172.152     324.8505      1.916     5.01     1040.946     60.64697     85.18738         8     1.042     0.681 -30.08  16
        13    262.6270      2.7747 307.8351267  +6.6641593     1899.447     3945.761     4398.218     85.69913     157.5141     283.2779      2.127     7.64     1044.049     60.64697     199.7109        28     1.714     1.147  20.04  25
        14    730.4413    994.5372 307.6073304  +6.2705502      5780.11     11107.43     12210.67     86.24673     172.0152      344.133      2.045     6.73     1064.322     60.64697     714.4922        38     1.977     0.997  27.05   0
        15    716.0936   1023.7675 307.6123081  +6.2580061     1517.755     1993.063     1874.576     73.74033     134.9801     257.3719      1.166     3.81     1066.045     60.64697     388.5112         9     1.268     0.422   0.46  24
        16    625.8671   1023.0910 307.6498065  +6.2552636     1311.623     1768.862     1585.344     82.33706     146.1982     269.0867      1.391     4.92     1068.876     60.64697     211.4124        14     1.431     0.735  21.50  24
        17    246.9476   1022.6618 307.8072003  +6.2427216     1140.238     1822.492      1806.54     85.56168      152.039     276.2095      1.785     6.20      1067.73     60.64697     152.4207        13     1.554     0.696  29.76  24
        18     17.2173   1023.2922 307.9025900  +6.2347275     7092.015     9936.655     9879.326     79.57475      142.612     265.4758      1.422     4.18     1064.989     60.64697     1168.797        24     1.545     0.800  10.51  24
        19    723.0364    994.0284 307.6104232  +6.2705124     815.5258     1813.211     2003.804     85.83636     171.8098     343.8593      2.378     6.49     1064.418     60.64697     139.3809        12     1.966     0.602  32.61   0
        20    586.4050    993.5525 307.6671904  +6.2661321     3345.669     6085.937     7436.397     85.56168     171.8783     343.7223      1.960     5.62     1067.602     60.64697      432.799        27     1.816     0.885  31.44   1
        21    763.5485    991.0000 307.5936977  +6.2731181     767.2524     1274.249     1917.151     85.42401     171.5355     343.5511      1.578     3.71     1063.115     60.64697     123.2471         5     1.076     0.367   3.52   3
        22    761.6600    988.7097 307.5945590  +6.2740001      829.114     1020.595     1784.498     86.11016     172.0836     344.0988      1.440     5.65     1063.086     60.64697     136.4581         9     1.610     0.559  24.79   2
        23    969.9532    984.0409 307.5081965  +6.2828898     5528.165     10524.83     10834.93     86.11016     172.0836     343.8593      1.968     7.72     1057.315     60.64697     766.6217        35     1.941     0.913  29.50   0
        24    723.2571    984.4593 307.6106530  +6.2744691     853.8026      1400.38     2047.861     86.38309     172.0836     344.0988      2.164     5.61     1063.921     60.64697     121.3298         9     1.146     0.774  72.33   2
        25    254.3046    984.1367 307.8054447  +6.2588685     1246.823     2405.151     2671.609     86.11016     172.2203     344.0988      2.005     6.50     1067.628     60.64697     164.7777        17     1.768     0.672  36.51   0
        26    452.3897    982.6984 307.7232195  +6.2661168     847.1365     1171.447     1020.576     85.97337     171.6727     343.8593      1.600     6.12     1067.398     60.64697     121.5408        11     1.705     0.617  28.89   0
        27    729.7676    982.0189 307.6080307  +6.2756942     2105.009     4248.165     5198.221     85.69913     171.8783     343.8935      2.107     7.57      1063.67     60.64697      301.964        25     1.809     0.969  27.52   0
        28    745.2043    981.4347 307.6016384  +6.2764520     763.7802     1482.716     1567.233     85.42401     171.9467      343.825      2.001     5.03     1063.227     60.64697     121.6104         8     1.112     0.643  39.42   0
        29    376.4943    979.7427 307.7548422  +6.2647884     1390.309     2789.744     3093.847     86.11016     172.0836     344.2356      2.003     7.30     1067.742     60.64697     165.6495        21     1.819     0.838  28.67   0
        30    558.6700    969.8779 307.6795067  +6.2749732     3157.539     6428.127     7596.001     86.51924     172.3569     344.0303      2.198     6.61     1066.261     60.64697     434.0328        33     1.941     1.019  27.50   2
        31    555.8842    962.0624 307.6809268  +6.2781054     6339.194      12225.3     13570.13     86.38309      172.152     344.0303      2.090     6.05     1065.842     60.64697     760.2681        39     1.969     1.029  29.20   2
        32    530.3242    971.9897 307.6912094  +6.2731511     703.6627     1024.316     1346.264     85.83636     171.6041     343.8593      1.980     4.18      1066.55     60.64697     100.6179         6     0.962     0.518  50.49   2
        33    527.3752    970.3170 307.6924906  +6.2737425     723.1219     1196.541     1324.727     86.11016     171.8098     344.0303      1.772     3.76     1066.477     60.64697      120.328         5     1.394     0.291 -34.46   2
        34    763.1893    969.1592 307.5945802  +6.2821202     6013.405     11573.37     12180.91     85.56168     171.8783     343.7565      2.011     6.90     1062.128     60.64697     791.8951        35     1.955     0.923  29.10   0
        35    308.9986    968.5414 307.7832541  +6.2671435     11022.95     22300.37     25489.52     85.56168     171.7413     343.7565      2.150     6.08     1067.734     60.64697     1399.964        63     2.100     1.368  19.86   0
        36    824.4600    968.5773 307.5691494  +6.2844100     837.3358      1599.05     1882.258     85.83636     172.0152     343.9619      1.800     6.47     1060.718     60.64697      160.697        10     1.931     0.608  29.45   0
        37      5.3766    969.4299 307.9093295  +6.2565571     527.1285     962.0182     1864.343     85.69913     171.9467     319.3695      2.244     4.86     1065.756     60.64697     79.00159         7     1.569     0.426   9.62  16
        38    281.5486    966.1619 307.7947356  +6.2672028     634.7272     1251.357     1823.584     85.97337     172.0836     344.0645      2.014     4.16     1067.661     60.64697     101.6345         5     0.908     0.544  40.90   0
        39    924.4835    962.6336 307.5278012  +6.2902063     7241.514     13648.66     14005.27     86.24673     171.9467     344.0303      1.976     7.31     1058.137     60.64697     952.6675        35     1.916     0.946  29.22   0
        40    898.1047    958.8052 307.5388868  +6.2909050     9823.186     18993.78     20211.76     85.97337     171.7413     343.7908      2.020     6.85     1058.705     60.64697      1342.25        41     2.011     0.968  25.73   0
        41   1019.9358    958.3087 307.4882967  +6.2951787     3988.251     7716.754     8164.469     86.24673     172.2887     315.8863      1.995     6.77     1055.565     60.64697     514.2468        30     1.954     0.875  28.61  24
        42    610.5258    958.9642 307.6583347  +6.2812157     1058.023     2041.969     2330.038     86.11016      172.152     344.0645      2.153     6.65     1065.139     60.64697     158.8395        15     1.469     0.844  30.95   0
        43    542.2271    957.8290 307.6867420  +6.2793946     3056.415     6230.088     6579.883     85.69913     171.8783     343.8593      2.163     6.39     1065.762     60.64697     382.9808        33     1.991     0.973  24.70   0
        44    651.8834    956.9847 307.6412226  +6.2834183     1106.001     2207.764     2279.647     85.83636     171.7413     343.9277      1.972     6.75     1064.163     60.64697     181.2861        16     1.690     0.756  31.90   0
        45    433.6256    969.1548 307.7314694  +6.2710766     738.5662     1498.051      1211.35     85.69913      172.152     343.9277      1.850     5.92      1067.23     60.64697     102.7838         8     1.561     0.632  43.97   0
        46    495.6506    954.4531 307.7062018  +6.2792256     1792.314     3408.664     3647.533     86.38309     171.9467     344.0988      1.935     6.94     1066.107     60.64697     223.2333        24     1.789     0.965  32.49   0
        47     76.5290    956.2552 307.8802232  +6.2643919     698.8415     1043.661     449.7974     86.11016     172.0152     344.0303      1.547     4.74      1066.46     60.64697     128.9581         6     0.963     0.662  14.39   0
        48    402.9286    952.7160 307.7447734  +6.2768304     526.2675     908.8225     741.4201     86.38309     172.3569     344.0988      1.546     5.45      1067.29     60.64697      95.7511         5     1.435     0.583  20.58   0
        49    929.8851    946.3497 307.5261033  +6.2971076     35031.62     66977.45     72067.64     86.24673     172.0152      344.133      2.012     6.73     1057.217     60.64697      4351.25        72     2.042     1.085  28.57   0
        50      2.9504    946.2558 307.9111211  +6.2660392     2325.607     4414.621     4555.987     86.24673     159.8873     286.0481      1.939     7.55     1066.179     60.64697     305.0007        24     1.700     0.951  32.33  24
        51    237.3163    944.4198 307.8138411  +6.2746885     1199.618     2346.595     2471.656     85.83636     171.7413     344.0303      2.296     8.20     1067.444     60.64697     143.3864        21     2.222     0.846  28.08   0
        52    827.7105    939.9451 307.5687600  +6.2963358     1779.411     3334.292     3928.195     86.24673     171.9467     344.2014      1.882     6.29     1059.422     60.64697      245.344        21     1.822     0.744  30.38   0
        53    776.0873    937.9366 307.5902709  +6.2954379     5064.913     9913.733     10638.99     86.24673     172.2887     344.0988      2.037     6.54     1060.392     60.64697      611.963        36     1.982     0.956  29.57   0
        54    563.3394    937.6379 307.6786519  +6.2884357      647.532     1243.992     1441.684     86.24673      172.152     344.0645      2.001     7.46     1064.423     60.64697     100.2811        11     2.044     0.762  23.88   0
        55    245.7112    937.1442 307.8105998  +6.2779736     1003.371     2129.534     1839.934     86.24673     171.9467     344.2356      2.096     7.36      1067.45     60.64697     145.9619        15     1.948     0.778  31.35   0
        56    210.1855    937.0131 307.8253599  +6.2768327     577.9319     1287.229     1726.413     86.11016     171.7413     343.9961      2.277     5.48     1067.229     60.64697     93.58813         8     1.696     0.500  28.59   0
        57     70.5269    935.3358 307.8834233  +6.2728231      2092.62     4109.541     4535.468     86.24673     172.0836     344.0645      2.061     6.39     1066.525     60.64697     274.0344        26     1.814     0.945  28.64   0
        58    964.1890    933.1676 307.5122956  +6.3036939     5405.482     10585.01     11136.08     85.69913     171.8098     343.8935      2.032     6.79     1056.316     60.64697      802.306        33     1.954     0.887  26.99   0
        59    646.6712    927.7124 307.6443716  +6.2953249     759.3185     958.6259     907.9747     86.38309     172.3569     344.0645      1.471     5.49     1062.666     60.64697     106.5477         9     1.110     0.767   9.12   0
        60    937.8244    924.8630 307.5235256  +6.3062408     1598.949      3304.39     3507.227     85.83636     172.0836     343.9961      2.082     7.27     1056.246     60.64697     249.1324        21     1.885     0.786  28.54   0
        61    658.7025    920.7477 307.6396081  +6.2986024     3372.687     6849.385     7321.194     86.11016     172.0836     344.3039      2.113     6.56     1062.286     60.64697     390.5446        32     1.974     0.979  31.32   0
        62    270.9669    921.0320 307.8006534  +6.2854724     3139.228     6296.868     7051.745     85.69913     171.8098     343.7908      2.144     6.21     1067.499     60.64697     373.4034        33     1.940     1.023  28.65   0
        63    797.7075    920.9683 307.5818598  +6.3031644     1074.624     2230.942     1967.232     86.38309     171.8783     344.0988      2.088     7.40      1059.22     60.64697     155.2424        18     1.662     0.922  30.84   0
        64    480.8011    919.3350 307.7135522  +6.2932211     924.1578     1543.648     1548.532     85.56168     171.7413     343.7908      1.830     6.17     1065.265     60.64697     135.6945        12     1.356     0.788  39.67   0
        65     39.8291    918.3088 307.8967492  +6.2788158     1573.766      3117.95     2713.395     86.38309     171.8098     343.9961      2.036     7.48     1066.515     60.64697     180.8942        24     1.776     0.991  25.51   0
        66    889.0026    916.8137 307.5440759  +6.3079317     481.4963     695.7233     802.1223     85.83636     171.7413     343.8935      1.442     4.72     1057.215     60.64697     77.42029         5     0.968     0.652  32.18   0
        67    962.7914    914.7718 307.5134926  +6.3112396      645.092     1045.299     1569.166     85.83636     171.8783     343.8593      2.357     6.20     1055.534     60.64697     89.81946         9     1.337     0.807  24.04   0
        68    583.2515    913.2772 307.6712004  +6.2991573     1323.029     2538.428      2618.89     86.24673      172.152     344.0645      1.993     6.57      1063.16     60.64697     182.4253        20     1.852     0.790  23.73   0
        69   1013.8198    913.4391 307.4923401  +6.3134934     807.2577     1381.396     1712.965     85.83636     171.8783     343.7908      2.008     4.67     1054.775     60.64697      145.646         8     1.045     0.594 -16.43   0
        70    622.3644    909.6285 307.6550762  +6.3019740     991.8774     1997.629     1540.195     85.83636     171.8098     343.8593      2.060     7.40     1062.467     60.64697     145.7336        18     2.091     0.732  30.83   0
        71    302.4588    907.4476 307.7880311  +6.2921375     1068.331     2273.925     2371.567     86.24673     172.0836     344.1672      1.976     7.49     1067.481     60.64697     141.5275        16     1.766     0.889  25.61   0
        72    771.2650    904.4508 307.5933983  +6.3090969     638.7667     1291.019     1893.305     86.11016     172.0152     344.0988      2.954     4.98     1059.067     60.64697     120.0513         8     1.141     0.615  14.92   2
        73    906.8945    900.0178 307.5372068  +6.3154616     5736.757     10661.89     11254.72     86.11016     171.8783     343.9277      1.951     6.29     1056.097     60.64697     770.8669        32     1.925     0.876  27.78   0
        74    144.1779    901.1805 307.8539867  +6.2893994     390.0378     833.6808     1168.036     85.97337     172.0152     343.9961      2.411     3.78     1066.443     60.64697     95.20325         5     1.321     0.311  30.37   0
        75    443.1176    897.2189 307.7299499  +6.3010839     1512.206     3067.419     3371.511     85.83636     171.7413     343.9961      2.095     7.56      1065.21     60.64697     206.0822        22     1.911     0.837  22.80   0
        76    344.5755    895.6730 307.7709341  +6.2984125     6779.624      13705.7     15583.66     85.83636     171.9467     343.9961      2.123     6.03     1067.051     60.64697     834.8168        47     2.085     1.087  31.89   0
        77    264.4820    894.5543 307.8042405  +6.2961819     5215.159     10136.54     11140.09     86.24673     172.0836     344.0645      2.082     6.10     1067.463     60.64697     608.4238        39     1.939     1.099  28.06   0
        78    592.8404    888.9828 307.6680345  +6.3095054     869.9872     1647.073     1783.428     85.83636     171.8783     343.8593      2.103     6.00     1062.417     60.64697     147.3735        13     1.744     0.581  23.59   0
        79    921.3719    884.2181 307.5317226  +6.3224663     737.8914     987.5079     911.3005     85.83636     171.8783     343.9961      1.283     2.73     1055.064     60.64697     121.9136         6     0.696     0.632 -25.25   0
        80    878.0159    883.5336 307.5497559  +6.3212999     687.2714     1147.229     1165.479     85.69913     171.9467     343.9619      1.835     4.04     1056.553     60.64697     144.2721         5     1.176     0.396  15.92   0
        81    759.0120    878.0328 307.5993753  +6.3195901     1390.976      2519.23     2681.146     85.69913     171.8098     343.9619      1.787     6.95     1058.157     60.64697     186.7798        18     1.721     0.786  25.87   0
        82      8.9125    875.1465 307.9110504  +6.2955867     681.9605     1217.959     1095.638     86.24673     171.9467     344.2014      1.741     4.38     1066.795     60.64697     108.9777         5     0.783     0.697  17.01   0
        83    989.9337    873.6116 307.5035968  +6.3291338     955.1927     1583.833     1352.316     85.69913     171.8783     343.9277      1.755     6.59     1052.784     60.64697     125.2354        15     1.620     0.752  30.23   0
        84    543.7103    873.4140 307.6889666  +6.3142836     804.9526     1374.211     1738.411     85.97337     171.8783     343.8935      2.024     5.62     1062.674     60.64697     115.1985        11     1.314     0.678  28.66   0
        85    677.4188    871.4810 307.6334895  +6.3195625     1904.023     3584.743     4151.871     85.83636     171.7413     343.9961      2.123     6.99     1060.021     60.64697     220.6417        21     1.784     0.803  23.02   0
        86     74.2002    867.7667 307.8841821  +6.3008326     2107.843     4276.932     4501.045       85.148     171.8783     343.7908      2.122     6.71     1066.004     60.64697     263.6079        29     1.980     0.972  30.80   0
        87    838.3730    867.7694 307.5667528  +6.3264808     603.4782     1305.102     934.4238     85.69913     171.8098     343.8935      2.137     5.21     1056.828     60.64697     101.5814         7     1.901     0.403  29.15   0
        88    217.9808    866.6375 307.8244981  +6.3061392     1508.474     3100.827     3721.367     85.83636     171.8783      343.825      2.289     7.51     1067.259     60.64697     196.6049        21     1.940     0.815  26.54   0
        89     91.6601    867.0428 307.8769543  +6.3017195     1510.747     3182.366     3379.146     86.24673     172.0836     344.1672      2.112     7.69     1065.762     60.64697     177.7085        22     1.718     1.006  32.15   0
        90    956.8276    867.1281 307.5175668  +6.3307042     638.2645     1119.611     1254.402     85.97337     172.0152     343.9619      1.779     4.41     1053.333     60.64697     82.64441         5     0.788     0.702  37.40   0
        91    672.0876    860.6323 307.6360686  +6.3238614     5124.535     9901.188     11669.72     86.38309     171.9467     344.0645      2.076     5.88     1059.795     60.64697     587.2841        39     1.989     1.083  26.17   0
        92    357.4244    863.1391 307.7666940  +6.3122712      735.301     1226.869     1942.166     85.83636     172.0152     343.9619      1.873     5.55     1066.073     60.64697     99.61206         8     1.287     0.674  22.28   0
        93     32.7352    859.3077 307.9016912  +6.3029264     1027.462     1659.133     1574.795     86.24673     172.2887     344.0988      1.874     6.13      1066.33     60.64697     126.0847        14     1.526     0.693  44.87   0
        94    909.6528    856.7343 307.5375124  +6.3334179     2398.938     4316.862     4619.628     86.24673     172.0152     344.0303      1.869     6.36      1054.45     60.64697     317.3687        23     1.869     0.782  26.60   0
        95     44.9153    857.1884 307.8967037  +6.3042115     810.5658     1753.294     1308.151     85.83636     171.8098     343.8935      2.039     5.82     1066.124     60.64697     115.4539        10     1.093     0.967 -88.93   0
        96    355.2453    853.8755 307.7679115  +6.3160212     11638.08     23680.85     26638.69     86.11016      172.152     344.0988      2.170     5.96     1065.948     60.64697     1357.147        57     2.106     1.191  27.22   0
        97     90.0647    854.8835 307.8780280  +6.3066839     909.2791     1798.827     2009.297     86.38309     172.2887      344.133      2.096     7.02     1065.555     60.64697     129.9105        13     1.887     0.732  30.50   0
        98    226.4238    852.4999 307.8214684  +6.3122579     766.3071     1509.197     1395.582     86.51924     171.8098      343.825      2.123     7.03     1067.176     60.64697     115.4114        11     1.690     0.819   7.73   0
        99    118.1319    844.2361 307.8667296  +6.3120235     1207.252     2372.144     2604.354     86.11016      172.152     344.1672      2.092     6.55     1065.562     60.64697     184.4399        18     1.711     0.893  30.88   0
       100    685.6823    840.3131 307.6311043  +6.3327029     692.7499     1092.435     1816.001     85.97337     172.2887      344.133      1.843     5.02     1058.597     60.64697     116.6255         7     1.199     0.594  49.75   0
       101    900.1493    838.4133 307.5420747  +6.3406619     1390.929     2599.308     2317.301     85.56168     172.0836     343.7908      1.949     7.31     1053.921     60.64697     195.2448        20     1.850     0.809  32.07   0
       102    870.9529    838.0613 307.5542154  +6.3398313     1468.986     3131.428     3005.446     86.11016     172.0152      344.133      2.185     7.69     1054.699     60.64697     208.6096        22     1.930     0.857  27.51   0
       103    834.0614    837.5624 307.5695576  +6.3388037     2408.308     4645.027     4864.257     86.24673      172.152     344.0645      1.949     6.85     1055.418     60.64697     288.8744        27     1.950     0.903  31.55   0
       104    102.2170    838.0634 307.8735488  +6.3140349     1785.449     3707.446     4097.241     85.69913     172.0152     343.8935      2.123     6.48     1065.221     60.64697     246.1888        26     1.836     0.958  29.56   0
       105    570.3030    829.0709 307.6794121  +6.3334764     235667.8     478405.5     527951.1     86.11016     172.2203     344.0988      2.160     5.89     1060.604     60.64697      26115.1       172     2.217     1.374  27.96   0
       106    464.3102    835.1159 307.7232387  +6.3274259     527.7242       891.37     1461.641     85.97337     172.3569     344.1672      1.589     3.57     1063.188     60.64697     108.7985         5     1.405     0.261  49.18   0
       107    414.5506    831.6628 307.7440251  +6.3271806     5685.008     11130.61     12269.48     86.24673     172.0152      344.133      2.081     5.74     1063.889     60.64697      631.802        42     2.020     1.117  25.48   0
       108    357.8157    830.0872 307.7676458  +6.3259252     8922.236     18485.59     20856.56     85.83636     171.8098     343.9277      2.212     5.87     1065.371     60.64697     1071.707        55     2.131     1.224  27.87   0
       109    658.5531    832.3186 307.6426428  +6.3350936     910.9912     1448.115     1050.779     86.24673     172.0836     344.0988      1.865     5.55     1058.965     60.64697     141.6049         8     1.313     0.661  23.59   0
       110    676.1383    826.3279 307.6355390  +6.3381551      2581.84     5212.147     5322.769     86.38309     172.0836      344.133      2.122     6.01     1058.428     60.64697     320.3197        33     1.983     1.047  23.48   0
       111    908.3326    825.2361 307.5391171  +6.3463739     4173.643     8129.941     9068.454     86.11016      172.152      344.133      2.113     7.30     1053.151     60.64697     525.3265        37     2.222     1.021  17.43   0
       112    650.7684    820.2430 307.6462827  +6.3398167     2606.225     5074.064     5920.955     85.69913     172.0836     343.8935      2.166     5.85     1058.579     60.64697      293.089        26     1.767     0.962  22.29   1
       113    839.3931    819.5086 307.5679486  +6.3464332     1245.121     2390.948     2502.881     85.83636     171.7413     343.8593      1.922     6.49     1054.399     60.64697     177.3639        17     1.677     0.706  26.95   0
       114    967.2722    818.7939 307.5148478  +6.3510017     625.0988     952.1586     1457.991     85.83636     171.6041     343.9619      1.896     4.06     1050.602     60.64697     116.2596         6     0.909     0.602 -29.15   0
       115    641.1738    818.9976 307.6503103  +6.3400092     829.9565      1575.27     2592.562     85.69913     171.7413     343.8593      2.348     5.41     1058.652     60.64697     105.2889        10     1.540     0.536  29.36   0
       116    643.7180    814.7561 307.6493960  +6.3418450     1644.783     3412.215     4618.607     86.24673     172.0836     344.0303      2.364     7.31     1058.437     60.64697     205.4043        24     1.967     0.885  31.54   1
       117    337.7763    813.5679 307.7765272  +6.3320695     873.5598     1749.931     1820.727     85.56168     171.9467     343.8593      2.157     7.31     1065.565     60.64697      133.901        13     1.624     0.921  59.38   0
       118    927.4208    813.0247 307.5315968  +6.3520516     2591.723     4728.319     4849.749     85.83636     171.8783     344.0303      1.891     6.43     1052.314     60.64697     360.9806        23     1.776     0.811  29.22   0
       119    385.9523    809.0863 307.7566659  +6.3355377     1751.524      3699.34     4229.144     86.24673     172.0152     344.0645      2.199     6.24     1064.287     60.64697     235.4131        26     1.841     0.985  27.86   0
       120    521.9166    798.7427 307.7005332  +6.3443706     2039.771     4238.945     4587.582     86.24673     172.0836      344.133      2.205     8.01     1060.699     60.64697     251.8342        28     1.983     0.979  25.08   0
       121    866.4283    797.7701 307.5574467  +6.3563091     948.3877      1494.77     2151.075     85.69913     171.8098     343.7908      1.733     5.91     1052.497     60.64697     136.1354        13     1.448     0.679  32.54   0
       122    569.4534    794.7488 307.6809200  +6.3476132     3985.561     8557.069     11201.08     86.38309     172.0152     344.0988      2.645     7.01     1059.134     60.64697     486.1555        57     2.746     1.386   6.71   0
       123    486.8482    793.6948 307.7152712  +6.3452774     1024.572     2115.363     2246.527     86.11016     171.9467     344.2014      2.241     7.80     1061.233     60.64697     135.2629        17     1.776     0.966  23.19   0
       124    902.9773    792.1042 307.5424530  +6.3598692     795.4355     1343.291     1088.551     86.24673     171.8783     343.8935      1.573     4.27     1051.704     60.64697      131.381         7     0.761     0.682 -68.48   2
       125    703.9903    791.5355 307.6251380  +6.3534474     602.8569     1125.433     834.1491     85.69913     171.8783     343.8935      1.938     6.73     1056.095     60.64697     96.55823         8     1.438     0.883  55.23   0
       126    128.4023    792.7903 307.8642021  +6.3336011      1027.48     1886.251     1743.853     85.56168     171.7413      343.825      1.899     5.03     1064.876     60.64697     153.7925        14     1.484     0.753  24.52   0
       127    539.4218    788.7417 307.6935979  +6.3490853     13808.67     27947.24     30560.01     85.83636     172.0152     343.8593      2.137     5.84     1059.725     60.64697     1568.782        59     2.108     1.215  28.22   0
       128    952.9963    787.0512 307.5218426  +6.3636259     2844.838     5587.094     6098.417     85.56168     171.8098     343.5853      2.021     6.55      1049.87     60.64697     370.6897        27     1.813     0.921  27.32   0
       129     50.1069    779.2991 307.8971815  +6.3365312      1026.85     2020.437       2643.5     86.24673     172.6299     343.9961      2.162     6.25     1064.154     60.64697     140.2162        17     1.848     0.798  38.30   0
       130    332.1707    777.6764 307.7800664  +6.3466938     2314.275     4822.682     5157.656     86.11016      172.152     344.0988      2.174     6.46      1064.63     60.64697     248.7915        33     2.050     1.079  24.95   0
       131     32.1003    775.6641 307.9047843  +6.3374245     1460.714     3221.316     3697.963     86.24673     172.2203     344.0303      2.195     8.19     1064.109     60.64697     173.7089        24     1.908     0.982  24.36   0
       132    797.5345    773.2638 307.5868903  +6.3641194      40637.6     79522.29     86323.05     86.24673     172.0836     344.0645      2.067     6.20     1052.835     60.64697     4715.294        72     2.094     1.157  26.52   0
       133    255.0207    771.3784 307.8123278  +6.3466991      3819.76     8457.274      11509.9     85.97337     172.0152     343.9961      2.816     6.18     1065.407     60.64697     487.0825        49     2.201     1.297  29.56   0
       134    922.8243    768.5211 307.5349986  +6.3702658     6439.914     12377.02     13414.77     85.83636     171.8783     344.0645      2.024     6.79     1050.133     60.64697     813.1605        38     1.983     0.942  28.27   0
       135    720.7170    765.0575 307.6190789  +6.3649354      55140.6     121750.6     165019.8     86.24673     172.0836      344.133      2.814    10.28      1054.15     60.64697     7206.203       137     3.576     1.248  28.83   0
       136    439.7650    771.1372 307.7355903  +6.3530068     752.4457     1067.667     1031.476     86.11016     172.0836     344.0303      1.525     5.50     1061.455     60.64697      101.318         7     1.027     0.830   0.08   0
       137    364.3734    765.3120 307.7671059  +6.3528789     14344.15     29137.16     32719.43     86.38309     171.8098     343.9619      2.178     5.76      1063.36     60.64697     1506.826        61     2.123     1.263  28.27   0
       138    426.3353    763.1758 307.7414376  +6.3558417     14962.12     31005.42     34536.69     85.83636     172.0836     343.9961      2.184     5.88     1061.408     60.64697     1656.088        62     2.136     1.263  28.59   0
       139    413.9017    765.6914 307.7465180  +6.3543859     836.5012     1753.365     2340.019     86.24673     172.6299     344.0303      2.366     6.11     1061.849     60.64697     124.6046        14     1.704     1.150  33.93   0
       140    254.3555    749.7533 307.8133341  +6.3556016     773347.8      2181934      2626594     86.24673     172.0152     344.0303      2.701     9.20       1064.6     60.64697     64490.55       567     2.782     1.966  35.44   4
       141    919.7964    760.0038 307.5365422  +6.3736799     4983.256     9921.134     11055.16     85.56168     171.6041     343.8593      2.081     6.77     1049.679     60.64697     601.9048        38     2.043     0.993  27.41   0
       142    660.3113    759.0302 307.6443763  +6.3654000     4472.839     8968.595      10069.9     86.38309     171.8783     343.9961      2.143     5.99      1055.41     60.64697     506.4561        38     1.993     1.073  30.68   0
       143    891.9248    760.5378 307.5481035  +6.3725280     551.6816     1089.803     423.1718     86.51923     172.0836     344.0645      1.497     4.43     1050.239     60.64697      99.0791         5     1.401     0.398  12.90   0
       144    449.3277    756.8638 307.7320987  +6.3592187     1082.802     2297.809     2319.482     86.24673     172.0836     344.0988      2.146     7.08     1060.629     60.64697     150.3528        16     1.738     0.809  29.99   0
       145    613.4661    751.1680 307.6641020  +6.3670751      660.216     971.9668     912.0146     86.11016      172.152     343.9961      1.611     4.93     1055.929     60.64697     84.71826         7     1.048     0.657  69.99   0
       146    695.3635    749.1664 307.6301458  +6.3706451     1795.951      3670.96     4283.536     85.97337     171.8098     343.7908      2.212     6.44     1054.011     60.64697     235.8322        26     1.895     0.952  29.93   0
       147    429.2318    745.8113 307.7408195  +6.3631055        35121     75150.93     84297.84     85.69913     171.8098     343.9277      2.219     5.88     1060.543     60.64697     3943.128        83     2.190     1.332  28.51   0
       148    138.7191    748.7867 307.8614036  +6.3521088     773.9413     1280.463     1401.454     85.83636     171.8098     343.8593      1.898     4.67      1064.33     60.64697     86.90076         8     0.956     0.647 -85.54   0
       149    972.2108    747.5755 307.5151832  +6.3805603     557.8362     1138.348     1605.313     85.83636     171.8783     343.9277      2.226     5.19     1047.597     60.64697     91.55103         8     1.680     0.453  26.86   0
       150    546.8959    744.8417 307.6919706  +6.3674542     4868.896     10068.73     10812.83     86.24673     172.0152     344.2014      2.178     5.81     1056.732     60.64697     539.1813        40     1.994     1.153  28.70   0
       151    463.6699    743.3906 307.7265944  +6.3652607     2974.077     6376.238     7295.598     85.69913     171.8098     343.8935      2.240     5.85     1059.728     60.64697     330.6703        38     1.999     1.168  23.36   0
       152    792.0808    741.3556 307.5902274  +6.3771061      8517.95     17006.62     18885.58     86.24673     172.0836     344.0303      2.129     6.05     1051.008     60.64697     921.0869        52     2.079     1.172  31.45   0
       153    460.4043    736.7128 307.7281760  +6.3679070     1432.904     3194.578     3285.132     85.69913     171.7413     343.7223      2.224     6.22     1059.553     60.64697     185.3522        22     1.620     1.052  42.14   1
       154     21.6941    737.4206 307.9104008  +6.3528567     850.5096     1955.423     1654.367     86.11016     171.8783     343.8935      2.315     7.19     1063.593     60.64697     134.4116        14     1.948     0.743  32.55   0
       155    813.5729    735.4322 307.5814973  +6.3802699     969.9825     1907.274     1994.309     85.69913     171.8098     343.8593      2.183     6.76     1050.245     60.64697     121.6991        15     1.571     0.815  21.34   0
       156    158.4232    733.5509 307.8537331  +6.3590601     1959.103     3841.737     4118.128     85.83636      172.152     343.9619      2.034     7.06     1064.198     60.64697     244.1436        28     1.997     0.964  32.01   3
       157    150.0372    733.4852 307.8572190  +6.3588049     7872.042     16618.96     20335.84     86.24673     172.0836     344.0645      2.425     6.05      1064.08     60.64697     914.8446        62     2.465     1.284  24.81   3
       158    142.8871    730.9507 307.8602749  +6.3596101      1898.33     4511.862     5976.529     86.24673     172.0152      344.133      2.908     8.19     1063.938     60.64697     259.1003        23     2.053     0.942  23.25   3
       159    986.6570    730.0718 307.5097681  +6.3882669     1302.143     2672.444     3524.069     86.38309     172.0836     344.0303      2.178     7.63     1046.521     60.64697     185.7555        24     2.107     0.845  37.87   0
       160    937.6665    729.9639 307.5301253  +6.3866751     5024.126     9387.479     10703.53     86.11016     172.0836      344.133      1.992     5.80     1047.682     60.64697     610.1675        33     1.987     0.899  27.54   0
       161    693.3602    727.7836 307.6316968  +6.3794031     1289.548     2830.851     3497.372     85.83636     171.9467      343.825      2.552     8.16     1053.027     60.64697     157.5292        22     1.724     1.079  19.81   0
       162    963.3322    762.0674 307.5183860  +6.3742825     1592.798     3159.175     3433.142     86.24673      172.152     344.0988      2.085     7.31     1048.399     60.64697     221.2355        21     1.842     0.838  29.74   0
       163    580.0142    726.9893 307.6788128  +6.3759327     1544.762     3015.493         3084     85.83636     171.8098     343.9619      2.095     6.42     1055.377     60.64697     181.3649        22     1.764     0.894  23.92   0
       164    427.4977    726.0295 307.7422065  +6.3712114      844.131     1805.415     1808.456     86.38309     171.8098     344.0988      2.166     6.68     1059.597     60.64697     101.2365        11     1.498     0.836  27.12   0
       165    931.8535    721.8832 307.5328113  +6.3898160     2166.318      4269.34     4529.542     86.24673     172.0836     344.2014      2.013     7.21     1047.478     60.64697     251.4945        24     1.864     0.883  27.52   0
       166    961.2927    721.4563 307.5205947  +6.3909756     2302.494     4207.138     4687.983     86.11016     172.0152     344.2697      2.002     6.92     1046.708     60.64697     271.3041        27     1.888     0.876  30.82   0
       167    992.0427    721.2558 307.5078260  +6.3920853     1600.018     3003.917     3580.777     86.11016     172.0836     344.0988      2.026     6.62     1045.931     60.64697       193.22        17     1.638     0.751  29.24   0
       168    684.1930    721.2109 307.6357262  +6.3818087     1130.348     2341.898      2635.83     85.83636     171.8783     343.9619      2.099     7.71      1052.95     60.64697     139.2526        18     1.755     0.949  24.40   0
       169    249.1603    718.1314 307.8165599  +6.3684774     854.8716     1738.966     3159.265     86.11016     172.0836     344.1672      3.322     5.77     1063.314     60.64697     111.9448         8     1.239     0.755 -79.38   0
       170    257.0421    716.3005 307.8133474  +6.3694981     1226.227     2710.771     4042.982     86.24673     171.9467     344.3039      3.166     7.17     1063.174     60.64697     157.3719        23     1.741     1.039  24.32   0
       171    908.3759    717.8011 307.5427023  +6.3907163     587.7573     976.7094     1451.187     85.83636     171.7413      343.825      1.691     3.71     1047.818     60.64697     82.14062         5     1.009     0.391   4.97   0
       172    831.6582    719.5696 307.5745162  +6.3874216      706.438       1413.6     1689.925     85.97337     172.0836     343.9961      2.275     3.50     1049.381     60.64697     126.7206         5     0.757     0.467  15.89   0
       173    949.2219    711.1044 307.5259568  +6.3948449     785.1193      1288.15     1086.708     86.11016     171.8783     343.8935      1.750     5.71     1046.549     60.64697     113.7322        11     1.821     0.505  27.31   0
       174    976.1395    709.2222 307.5148365  +6.3965208     1926.368     3751.455     3703.707     85.83636     172.0152     343.9619      1.980     6.10     1045.731     60.64697     255.2415        24     1.950     0.803  25.17   0
       175    923.2672    710.1221 307.5367731  +6.3943832     923.7599      1414.35     2184.906     86.38309      172.152     344.0303      1.778     6.43     1047.161     60.64697     131.8906        12     1.402     0.827  31.02   0
       176    171.5936    710.9567 307.8490253  +6.3688282      609.564     1173.311     1960.913     85.69913     171.7413     343.7565      1.959     4.62      1063.14     60.64697     82.26196         5     1.027     0.590  18.86   0
       177    696.4044    708.8057 307.6310700  +6.3873375     640.9656     1454.959     2644.761     85.56168     171.7413     343.9277      2.439     4.62     1052.182     60.64697     83.10901         5     1.168     0.518  33.22   0
       178   1018.0090    702.6495 307.4976613  +6.4006316     1179.197     2351.466     1846.215     85.69913     171.8783     335.4386      1.834     7.21     1044.264     60.64697     150.8666        18     1.832     0.794  35.65  16
       179    142.3474    724.3513 307.8607222  +6.3623155     1233.766     2603.678     3176.382     86.38309     171.9467     344.0645      2.230     7.56     1063.658     60.64697     163.9958        20     1.723     0.959  26.21   0
       180    645.2410    702.3940 307.6525417  +6.3882699     614.4553      928.942     1533.921     85.42401     171.7413     343.7565      1.469     3.36     1052.884     60.64697     91.58887         5     0.755     0.434  21.40   0
       181    819.1343    701.0875 307.5803398  +6.3946307     826.4093     1305.811     1746.665     86.24673     172.2887     344.0988      1.982     6.42     1048.898     60.64697      96.9729        12     1.535     0.755  13.01   0
       182    905.3716    698.1033 307.5446112  +6.3987456     1210.937     2238.993     2863.329     86.38309     171.8098     344.0645      2.212     6.89     1047.006     60.64697     153.7305        18     1.624     0.874  32.22   0
       183    879.7667    693.8848 307.5553908  +6.3996309     792.1553     1604.688     2100.255     86.24673     171.9467     344.0303      2.114     6.35     1047.333     60.64697     113.1265        11     1.582     0.715  32.17   0
       184    862.4932    689.9450 307.5626996  +6.4006794      1145.59      2365.11     2850.068     86.11016     172.0836     344.2697      2.120     7.44     1047.521     60.64697     158.5725        20     2.117     0.732  34.20   0
       185     61.6757    688.7365 307.8954389  +6.3742962     1672.865     3538.362     4100.607     86.51924     172.0836     344.0303      2.226     6.17     1063.172     60.64697     211.7211        29     1.853     1.094  34.31   0
       186    125.0928    687.3357 307.8691412  +6.3770109     667.9878     1524.435     1498.663     86.24673     172.2887      344.133      2.164     6.90     1062.425     60.64697     100.6753        12     1.954     0.683  59.19   0
       187    674.1907    677.2926 307.6413583  +6.3995995     4268.228     8804.973     10353.93     85.83636     171.6727     343.8593      2.244     6.04     1051.318     60.64697     492.2224        41     2.101     1.100  27.48   0
       188    620.5439    676.0272 307.6636892  +6.3983243     990.5243     2124.371     2225.841     85.83636      172.152     343.9277      2.209     7.14     1051.919     60.64697     139.8204        16     1.850     0.773  20.97   0
       189    648.1655    673.1069 307.6523116  +6.4004552     1493.509     2781.439     2975.617     86.38309     171.9467      344.133      2.005     6.16     1051.453     60.64697     170.6449        21     1.685     1.037  25.96   0
       190    137.4977    673.2828 307.8644629  +6.3832283     2371.684     4721.788     5157.792     86.24673     172.4935      344.133      2.129     6.10     1061.774     60.64697     300.1731        34     1.951     1.140  29.92   0
       191   1011.1011    672.6732 307.5015357  +6.4127729     1962.551     3618.795     3843.646     85.83636     172.2203     344.0303      1.883     7.50     1042.798     60.64697     232.2462        22     1.718     0.916  28.66   0
       192    791.0179    669.3829 307.5930859  +6.4067752     14207.45     28528.03      31397.7     85.97337     171.7413     343.9961      2.125     5.96     1048.429     60.64697     1548.001        60     2.135     1.169  28.88   0
       193    921.2406    669.1086 307.5389905  +6.4112427     2736.243     5489.097     5493.389     86.24673     172.0152      344.133      2.067     6.81     1045.479     60.64697     333.7823        27     1.858     0.950  25.96   0
       194    490.2734    669.3368 307.7180366  +6.3967165     821.0502     1649.575     1521.955     86.51924     172.0836     344.0645      2.017     6.22     1054.795     60.64697       98.073        12     1.625     0.669  26.53   0
       195    654.9280    664.0699 307.6498059  +6.4044115     550.8868     983.3842     519.3702     86.38309     172.2203     344.0303      1.863     5.15     1050.947     60.64697     92.13013         6     1.112     0.674  60.62   0
       196    264.7696    663.0734 307.8119339  +6.3917252       4035.3     8876.086     9910.197     86.11016     172.0836     344.0645      2.305     6.36     1060.707     60.64697     452.3969        43     2.049     1.236  30.62   0
       197    671.6738    662.3004 307.6429080  +6.4057028     4508.792     9618.882     10470.32     85.69913     172.2203     343.9961      2.232     6.73     1050.558     60.64697     511.6019        39     2.029     1.137  25.83   0
       198    931.4348    654.7584 307.5352364  +6.4175060     1019.646     1678.097     1926.693     85.97337     172.0836     343.8593      1.934     6.86     1044.804     60.64697     139.9816        14     1.777     0.742  23.02   0
       199    743.4772    650.6083 307.6134685  +6.4129328     2571.241     5322.255     6439.053     85.83636     171.5356     343.8935      2.284     6.23     1048.856     60.64697     285.6995        32     1.973     1.061  23.23   0
       200   1009.6780    647.2538 307.5029788  +6.4232166     6812.777     12754.73     13918.75     86.38309     172.0836     344.0988      1.987     6.20       1042.1     60.64697     844.6904        37     1.893     0.986  27.71   0
       201    948.1697    647.6201 307.5285226  +6.4210113      1893.78     3902.875     3444.817     85.69913     171.8783     343.9277      2.083     6.31     1044.052     60.64697     259.7086        26     1.950     0.893  27.07   0
       202     28.9063    646.7945 307.9104711  +6.3905010     1274.961     2820.455     3658.197     85.83636     171.7413      343.825      2.438     8.05     1062.355     60.64697     144.6964        27     1.938     1.168  25.88   0
       203    445.6667    645.3269 307.7373779  +6.4051284     493.9512     977.5095     1063.984     86.38309     172.2203     344.0303      1.668     4.18     1055.448     60.64697     90.82935         5     1.577     0.316  40.86   0
       204     87.1119    642.1609 307.8864471  +6.3943750     17051.46     36169.87        41576     86.24673     172.0152     344.0988      2.271     5.87     1060.954     60.64697      1884.56        70     2.200     1.354  30.50   0
       205    548.4420    643.1917 307.6947501  +6.4094586     1471.376      3181.61     3674.829     85.56168     171.8783     343.7908      2.251     6.06     1052.888     60.64697     195.1019        26     1.803     1.104  22.27   0
       206    518.3134    640.7649 307.7073493  +6.4094494     869.1228     1693.763     2300.339     86.24673     171.9467     344.0645      2.502     5.23     1053.624     60.64697     114.4369         9     1.076     0.718  26.98   2
       207    938.7957    639.7468 307.5326814  +6.4239476     707.5735      1344.51     1743.688     85.56168     171.8098      343.688      2.376     5.98     1044.076     60.64697     111.0494         9     1.164     0.865  19.27   0
       208    557.4811    637.0303 307.6912020  +6.4123046     641.2865     1195.887     1516.588     86.11016     171.9467     344.0303      1.575     4.62      1052.39     60.64697     95.83411         5     1.062     0.571 -13.85   0
       209    733.0963    634.3409 307.6183282  +6.4192992     2336.572     4812.779     5778.357     86.11016     172.0836     344.1672      2.223     6.55     1048.307     60.64697     251.4813        34     2.013     1.139  23.79   0
       210    586.5494    630.5349 307.6793435  +6.4159601     2058.477     4297.321     5131.721     86.11016     172.0152     344.0645      2.327     6.61     1051.453     60.64697     214.6984        31     1.999     1.087  28.25   0
       211    246.8077    630.3176 307.8205021  +6.4046395     1232.716     2720.661     3546.927     85.83636     171.7413     343.9277      2.576     7.98     1059.004     60.64697     159.4454        21     1.505     1.184  18.27   0
       212    421.4526    630.9003 307.7479242  +6.4102693     802.2994     1310.211      1829.44     86.24673     172.0836     344.3039      1.601     4.29     1055.436     60.64697     128.7489         6     1.089     0.481 -20.83   0
       213    330.8831    628.9915 307.7856170  +6.4080141     1046.636     2118.191     2305.043     85.83636     171.7413     343.8935      2.217     7.16     1057.299     60.64697     152.2198        15     1.591     0.904  20.57   0
       214    993.3246    627.5040 307.5104355  +6.4308218     6192.883     11983.81     12778.87     85.83636     172.2887     344.0988      1.999     6.12     1042.076     60.64697     743.3685        37     1.930     0.983  25.13   0
       215    754.6396    632.5518 307.6094375  +6.4207588     2941.906     5789.555       6585.9     86.11016      172.152     343.8935      2.110     6.23     1047.912     60.64697     299.7175        35     2.067     1.088  24.07   0
       216    537.9991    623.9982 307.6997350  +6.4170297     2625.831     2608.436      3257.59     85.56168     171.6041     343.7223      0.452     1.92     1052.351     60.64697     1883.481         5     0.360     0.322  -0.00   0
       217    438.5662    621.9951 307.7411142  +6.4145193     1819.006     4270.582     4901.241     85.42401     171.9467      343.825      2.361     7.31     1054.897     60.64697     217.2715        34     1.958     1.268  26.09   0
       218    151.8488    621.0406 307.8602665  +6.4052720     15152.24     32881.34     36791.59     86.11016     172.0836     343.9961      2.296     5.88     1059.384     60.64697     1899.999        66     2.199     1.340  30.83   0
       219    105.0378    623.8099 307.8796205  +6.4025524     553.8615      1080.31     1652.998     85.56168     171.8783     343.7565      1.863     4.26     1059.705     60.64697     81.22595         5     1.419     0.365   6.06   0
       220    820.6094    621.6349 307.5823944  +6.4274718     1029.436     1814.848     2132.497     85.69913     171.8783      343.825      2.105     6.64     1046.384     60.64697     137.5314        14     1.439     0.860  33.19   0
       221    988.2708    610.5023 307.5131052  +6.4376701     5410.357     10433.98     12332.13     86.11016     172.2887     344.0988      2.093     5.82     1041.729     60.64697     653.7212        39     2.093     0.964  31.08   0
       222    581.8316    605.8048 307.6821359  +6.4260084     30291.37      66012.2     75536.07     85.56168     171.9467      343.825      2.277     5.88     1050.689     60.64697     3291.422        83     2.230     1.384  27.58   0
       223     32.2511    608.8892 307.9103642  +6.4062572     696.2686     1412.829     1666.656     86.24673     171.8783     344.2014      2.360     6.10     1060.589     60.64697     117.8577         9     1.365     0.766  35.25   0
       224    189.0955    602.3674 307.8454231  +6.4142325     1713.365     3939.216     4995.564     86.38309     171.9467      344.133      2.589     6.79     1058.504     60.64697     207.2227        30     1.919     1.111  29.65   0
       225     82.4578    596.6730 307.8899191  +6.4129910     991.4575     2120.175     2644.447     86.38309     172.0836     344.0303      2.413     7.36     1059.087     60.64697     142.6036        14     1.593     0.951  37.86   0
       226    479.0873    589.6578 307.7253683  +6.4292256     39706.39     86339.01     98646.25     86.24673     172.0836     344.2014      2.304     5.93     1053.241     60.64697     4423.308        90     2.250     1.428  28.37   0
       227     22.9097    591.1845 307.9148442  +6.4132489     1085.133     2572.065     3500.786     85.97337     171.8783     343.8935      2.668     7.33     1060.258     60.64697     125.8949        19     1.689     1.081  26.67   0
       228    154.0263    585.0000 307.8605799  +6.4202194     878.0669     1972.052     2231.354     85.69913     171.6727      343.825      2.120     6.18     1058.232     60.64697     127.4592        10     1.667     0.644   6.86   2
       229    324.6100    578.9575 307.7899114  +6.4284526     1352.033     2990.453     3745.833     85.69913     171.8783     343.7908      2.485     7.93     1054.191     60.64697     174.8673        24     1.751     1.118  39.79   0
       230    624.2422    580.2651 307.6653741  +6.4379708     674.0569     1406.778     1457.727     86.24673     172.0152     344.1672      2.073     4.72     1048.343     60.64697     108.8468         7     1.164     0.543  22.57   0
       231    751.0417    573.1318 307.6129288  +6.4451622     3542.235     7520.564     8444.486     86.11016     172.0152     344.1672      2.206     6.27      1045.88     60.64697     373.5502        39     1.982     1.147  27.70   0
       232    804.6389    568.4173 307.5908172  +6.4489016     9427.444     19375.11     21402.69     85.83636     171.9467      343.825      2.168     6.10     1044.721     60.64697      1043.09        51     2.092     1.164  26.05   0
       233   1022.0148    568.6891 307.5004856  +6.4560541     849.9787     1281.748     917.5258     85.97337     160.1815     286.5003      1.701     5.38     1039.365     60.64697     145.1984        10     1.507     0.542  28.72  24
       234    546.9778    568.4486 307.6978748  +6.4402570     904.7959     1771.199     2657.576     85.83636     172.0836     343.9619      2.136     6.70     1049.182     60.64697     98.06299        14     1.414     0.890   3.50   0
       235    630.2537    567.4901 307.6633062  +6.4434448     1441.087     1999.052     2179.761     86.24673     171.8783     344.2014      1.522     5.92     1047.514     60.64697     156.9891        12     1.143     0.862  29.10   3
       236    627.0272    565.7511 307.6647053  +6.4440543     1564.219      2691.31     3353.759     85.83636     172.0836     343.9961      1.994     4.73     1047.561     60.64697     191.2635        18     1.291     1.072 -77.61   2
       237     49.2170    567.2079 307.9047260  +6.4240309      481.765      988.852     1766.786     85.83636     171.8098     343.8935      1.744     3.88     1059.101     60.64697     69.48499         5     0.962     0.449  44.79   0
       238    945.8993    562.2766 307.5323279  +6.4561588     738.4103     1413.612     2178.485     85.83636     172.2203     344.0645      2.155     5.37     1041.454     60.64697     104.8907         9     1.670     0.487  29.95   0
       239    241.9323    560.0343 307.8249010  +6.4334817      764.873     1588.122     1664.087     86.11016      172.152     344.1672      2.218     5.22     1055.558     60.64697     126.6787         9     1.492     0.515  18.11   0
       240    880.5530    551.6206 307.5598379  +6.4583728     1929.318      3990.79     4177.555     85.83636     172.0836     343.8935      2.142     6.52      1042.84     60.64697     212.6436        26     1.910     0.945  28.01   0
       241    839.5894    548.9136 307.5769498  +6.4581203     1615.982     3493.632     3769.362     85.83636     171.8098     343.8935      2.251     7.62      1043.48     60.64697      198.179        26     1.900     0.951  20.64   0
       242    810.4494    545.1780 307.5891833  +6.4586873     1771.875     3955.101     5021.387     85.83636      172.152     343.9619      2.573     7.85     1043.749     60.64697     186.3317        26     1.837     1.011  32.12   0
       243    267.4322    544.0822 307.8148449  +6.4409231      4746.27     10611.07      12182.7     86.11016     171.9467     343.9961      2.372     6.26     1053.327     60.64697     576.0648        49     2.178     1.294  30.01   0
       244    820.0396    540.2662 307.5853634  +6.4610353     106169.1     220494.9     245755.9     86.11016     172.0152     344.1672      2.189     6.04     1043.457     60.64697     11228.39       127     2.225     1.362  27.50   0
       245    201.7148    538.6720 307.8423322  +6.4409446     36123.36     80446.05     92726.84     86.38309     172.3569     344.0988      2.343     6.07      1055.88     60.64697     4011.363        96     2.287     1.480  30.56   0
       246    125.7228    534.9359 307.8740317  +6.4399276     3891.734     8471.521     9528.991     86.51924     172.0836     344.0645      2.301     6.09     1057.061     60.64697     488.1296        44     2.069     1.252  30.11   0
       247    990.8765    531.9988 307.5146541  +6.4701574     791.9562     1626.122      1256.29     85.42401     171.4669     343.8593      1.972     5.89     1038.982     60.64697     126.2555        10     1.796     0.544  32.76   0
       248   1011.9159    530.5061 307.5059616  +6.4714760      677.202     1063.867     529.6622     86.11016     172.4935     344.2014      1.522     5.83     1038.232     60.64697     119.9723         9     1.495     0.639  38.21   0
       249    856.4507    527.5340 307.5706613  +6.4675080     3249.086     6559.002     6811.777     86.11016     172.0152     344.0645      2.102     5.97     1042.537     60.64697     347.7872        35     1.966     1.064  28.76   0
       250    375.0939    525.7535 307.7707308  +6.4521071     10155.83     22799.38     26222.63     86.11016     172.0152     344.2014      2.349     6.07       1050.4     60.64697     1123.095        64     2.243     1.398  28.42   0
       251    177.2723    524.5666 307.8529643  +6.4459431     913.3899     2394.496     2723.106     86.11016     172.0836     344.0303      2.580     8.82     1055.628     60.64697     131.2657        18     1.931     1.126  22.84   0
       252    810.6710    520.9857 307.5899038  +6.4686794     3814.853     8325.545     9428.933     85.69913     171.9467     343.9619      2.242     6.77     1043.018     60.64697     396.6476        43     2.066     1.172  30.46   0
       253    541.4599    520.6407 307.7017773  +6.4598029     3995.727     8705.556     9541.534     86.24673     172.0836      344.133      2.242     6.09     1047.198     60.64697     390.7172        45     2.143     1.248  27.19   0
       254    252.1286    522.3196 307.8219382  +6.4493898     568.2755     1039.314     1100.927     86.51924     172.3569     344.0988      2.064     4.40     1052.837     60.64697     88.13232         5     1.166     0.473  56.41   0
       255    400.7219    518.2440 307.7603357  +6.4560674     871.5146     1884.361     2308.869     86.11016     172.0836     344.0645      2.328     5.75     1049.698     60.64697     105.9598         9     1.145     0.813 -42.68   2
       256    398.6276    517.0391 307.7612465  +6.4564943     709.3096     1461.928     1812.371     85.83636     171.8783     343.9277      2.524     5.11     1049.638     60.64697     114.7362         5     1.155     0.640 -64.43   3
       257    827.9199    513.7905 307.5829780  +6.4722260     856.2351     1766.885     2335.771     85.83636     171.6727     343.9277      2.535     8.07     1042.527     60.64697     134.4982        15     2.286     0.796  50.24   0
       258    188.4875    513.7935 307.8486685  +6.4507668     4062.754     9059.491     10315.47     85.69913     171.7413     343.7908      2.348     5.95       1054.8     60.64697     470.5535        49     2.239     1.282  28.09   0
       259    586.0563    513.7199 307.6834799  +6.4641549     1448.166     3402.954     4495.228     86.38309     172.0836     344.0645      2.624     7.31     1046.398     60.64697     152.6881        27     1.808     1.144  22.24   0
       260    283.6914    510.3102 307.8092296  +6.4554079     52434.34     117685.1     136900.1     86.24673     172.6299     344.1672      2.384     6.03     1050.137     60.64697     5717.804       109     2.323     1.523  29.40   0
       261     60.1860    512.6083 307.9020160  +6.4469338     3165.666     6954.769     7962.734     85.83636     171.8098     343.8935      2.285     6.33     1057.533     60.64697     395.4146        40     2.100     1.220  34.82   0
       262    268.3939    505.3638 307.8157527  +6.4569347     846.0024     1433.752     1967.663     85.28613     171.8098      343.825      2.047     7.24     1050.805     60.64697     144.7001        11     1.625     0.903  58.09   2
       263    265.2868    505.9475 307.8170239  +6.4565893     576.3033     742.3083     877.6559     86.24673     171.9467     344.2014      1.485     3.57     1051.055     60.64697     91.11877         5     0.773     0.475 -73.82   3
       264    982.8399    503.8880 307.5189360  +6.4814911     1135.036     2260.255      1512.81     86.24673     172.0152     344.0988      1.974     6.85     1038.098     60.64697     165.6261        18     1.943     0.676  25.10   0
       265    806.7800    502.6565 307.5921361  +6.4761140     10704.37     22422.75     24968.72     85.69913     172.0836     343.8593      2.182     6.11      1042.55     60.64697     1248.768        52     2.066     1.212  29.48   0
       266    510.4405    501.0397 307.7153264  +6.4668517     25689.58     58337.23     69292.31     85.97337     172.2203     343.9277      2.415     6.09     1047.121     60.64697     2692.398        91     2.389     1.490  27.18   0
       267    222.5296    497.5092 307.8350745  +6.4586331      1073.83     2496.152     3627.642     86.11016     172.2887     344.0645      3.002     8.41      1053.13     60.64697     138.3448        19     1.708     1.271  28.16   0
       268    670.1349    495.8871 307.6491436  +6.4743329       1821.9      4048.26     4708.853     86.24673     172.2887     344.0988      2.422     7.51     1044.143     60.64697     204.5626        34     2.092     1.147  34.65   0
       269    682.2455    496.8219 307.6440798  +6.4743528     652.8151     1565.568     2402.771     85.83636     172.0836     343.8935      3.231     5.32     1043.953     60.64697     94.51831         6     1.132     0.706  21.38   2
       270     57.5707    497.0741 307.9036282  +6.4532566     765.7923     1556.014      1643.31     86.11016     172.0836     344.0303      2.039     5.48     1057.163     60.64697     117.2682         7     1.381     0.612  21.12   0
       271    733.1136    495.6577 307.6229819  +6.4765370     927.6553     1704.171     2310.958     86.24673     172.0836     344.2356      2.314     5.72     1043.106     60.64697     121.3733        10     1.357     0.680  25.66   0
       272    409.7833    492.9241 307.7574244  +6.4668215     917.3401     2078.802     2653.856     85.69913     171.8098     343.9619      2.712     6.57     1047.957     60.64697     138.0577        13     1.492     0.812 -14.10   2
       273    339.6148    490.0437 307.7866772  +6.4656524     2338.022     5493.611     5982.676     85.56168     171.8783     343.7908      2.409     6.68     1047.958     60.64697     276.6908        41     2.119     1.293  24.08   0
       274    154.8201    488.7119 307.8635048  +6.4599843     15752.61      35184.6     40562.15     86.11016     171.8098     343.9619      2.354     6.03     1054.168     60.64697     1759.805        75     2.265     1.431  30.45   0
       275    519.7689    489.4729 307.7118399  +6.4719385     1519.708     3029.632     3718.396     86.11016     172.0836     344.0645      2.205     8.21     1046.318     60.64697     182.6628        24     1.884     1.066  18.06   0
       276    882.7332    488.5788 307.5610477  +6.4844644     1107.424     2355.228      2609.62     85.83636     172.0836     344.0303      2.242     7.42     1040.673     60.64697     134.0673        17     1.818     0.847  20.89   0
       277    120.2661    487.0648 307.8779175  +6.4595002     1633.182     3596.181     3957.625     86.24673     172.0836     344.0988      2.308     7.99     1054.601     60.64697     174.9274        29     1.948     1.180  22.83   0
       278      1.9117    487.3555 307.9270826  +6.4553906     761.0405     1109.414     1494.741     82.19399     145.9565      269.043      1.538     3.92     1059.675     60.64697     138.6805         5     1.311     0.336  49.62  24
       279    357.4641    485.6632 307.7794085  +6.4680602     682.0858     1316.763     2119.759     86.24673     172.0836     344.0988      2.767     5.76     1047.516     60.64697     92.90796         7     1.077     0.868 -14.98   0
       280    980.2762    483.0962 307.5206984  +6.4899867     3627.484     7214.597     7517.874     85.83636     172.2203      344.133      2.032     6.09     1037.361     60.64697     419.6982        33     1.938     0.972  24.12   0
       281    553.6845    475.6877 307.6982115  +6.4787657     1018.192     2058.496     2550.158     85.97337     172.2887      344.133      2.029     7.33     1045.177     60.64697     129.5518        15     1.434     1.115  17.55   0
       282     19.1007    473.0633 307.9204247  +6.4618687     15778.84     34192.68     39907.26     85.97337      172.152     344.0988      2.326     5.82     1058.216     60.64697     1758.181        76     2.251     1.414  31.85   0
       283    451.7363    469.8010 307.7407717  +6.4777737     24806.46     56963.76     65743.22     85.42401     171.8098     343.7908      2.361     5.99     1046.073     60.64697      2665.73        82     2.272     1.454  29.25   0
       284    659.6945    469.4476 307.6543712  +6.4848951     7551.264     16216.45     17766.99     86.11016     171.9467     344.2014      2.233     6.00     1043.328     60.64697     748.9165        51     2.112     1.272  29.55   0
       285      2.7836    467.6102 307.9273889  +6.4635688     110008.8     204297.5     214433.6     85.97337     157.5888     283.3194      1.953     9.04     1058.536     60.64697      15060.4        81     1.797     1.367  51.11  24
       286    216.9671    467.3753 307.8384037  +6.4708823     11602.69     26763.52     31605.58     85.56168     171.8098      343.825      2.446     6.27     1051.231     60.64697     1301.376        70     2.279     1.472  31.69   0
       287    182.8024    468.1701 307.8525725  +6.4694042     994.7236     2174.196     2153.948     85.69913     171.8783     343.8593      2.423     8.44     1052.386     60.64697     160.4791        21     1.960     1.015  41.41   0
       288    992.5389    466.7525 307.5161507  +6.4971417     833.4704     1638.456     1812.206     86.11016     172.0152      344.133      2.112     4.63     1035.989     60.64697     141.5265         9     1.092     0.829  41.23   0
       289    833.9955    467.1954 307.5820180  +6.4916600     675.4949       1410.7     1714.552     85.56168     171.6041     343.9277      2.105     5.12     1040.622     60.64697     108.7456         7     1.288     0.575  41.70   0
       290    581.5097    466.2191 307.6869681  +6.4836067     1717.209     3746.913     3884.298     86.11016     171.8098     343.9277      2.287     6.26     1044.344     60.64697     217.0034        29     1.764     1.177  36.75   0
       291    955.4525    463.2646 307.5316789  +6.4973425     3428.404     6583.826     6648.952     86.24673     172.0152     344.0303      2.007     6.62     1037.431     60.64697     387.0066        31     1.887     0.967  30.10   0
       292    628.4783    461.8181 307.6675992  +6.4869978     3871.382     8709.729     10035.74     85.69913     171.7413     343.9961      2.343     6.85     1043.542     60.64697     384.6594        44     2.111     1.244  28.61   0
       293    977.8627    455.4392 307.5226287  +6.5013208     2389.304     4889.137     4563.524     86.24673     172.0152      344.133      2.091     6.39     1036.017     60.64697     276.6229        27     1.861     0.940  31.18   0
       294    540.8283    453.0968 307.7043144  +6.4876579     4527.764     10048.03     11750.34     86.38309     171.8098     344.0645      2.337     6.10     1043.737     60.64697     440.8788        47     2.084     1.325  28.30   0
       295    386.3227    453.0745 307.7685166  +6.4824796     1541.984     3610.176     4316.892     86.51924     172.3569      344.133      2.514     8.99     1045.595     60.64697     158.2917        31     2.016     1.281  27.97   0
       296    897.2374    448.7164 307.5563583  +6.5014014     2065.781     4282.123     5156.297     86.24673     172.0152     343.9961      2.222     7.34     1038.412     60.64697     243.4095        26     1.888     0.917  29.47   0
       297    904.7745    443.2563 307.5534095  +6.5039068       1449.6     3100.243     3384.941     85.83636     172.0836     343.8593      2.176     7.15     1037.955     60.64697     167.8212        25     1.988     0.911  29.63   0
       298    944.4326    442.8063 307.5369445  +6.5054179     845.0486     2182.177     2345.949     85.56168     171.8783     343.8593      2.671     6.89     1036.886     60.64697     141.4116        15     2.010     0.662  33.06   0
       299    728.7421    439.1974 307.6266963  +6.4996928     1895.846     4181.464     4731.012     85.56168     171.8783     343.7908      2.289     7.23     1040.318     60.64697     219.6813        31     1.901     1.167  28.25   0
       300     90.2161    437.9121 307.8920657  +6.4787729     912.7119     2323.462     2888.344     85.97337     171.8098     343.8935      2.780     8.29      1054.05     60.64697     150.4845        13     1.662     1.155  53.77   2
       301    399.6001    437.5250 307.7635239  +6.4893431     2184.603     4815.769     5828.638     85.42402     171.3983      343.825      2.429     6.45      1044.76     60.64697     252.7367        34     1.992     1.141  32.32   0
       302    627.3321    434.0706 307.6690092  +6.4984112     6219.148     13537.96     15559.08     86.24673     172.2203     344.0303      2.272     6.09      1041.69     60.64697     645.6511        55     2.176     1.326  28.37   0
       303    789.8739    430.5876 307.6015822  +6.5052926     10556.24      22170.4     25434.27     85.69913     171.7413     343.8593      2.211     6.14     1039.506     60.64697      1138.44        56     2.130     1.234  25.16   0
       304    309.9385    430.8486 307.8010060  +6.4890848     1498.195      3540.39     3888.658     86.24673     172.0152      344.133      2.365     8.81      1044.51     60.64697     203.3503        29     2.113     1.025  27.09   0
       305    818.9182    427.2679 307.5896243  +6.5076345     764.5199     1330.019     1315.565     86.38309     172.3569     344.0988      1.988     5.35     1038.831     60.64697     119.3553         9     1.468     0.551  31.94   0
       306    392.3025    427.2241 307.7669037  +6.4933492     848.3276     2115.287     2536.133     86.38309     171.8098     343.9277      2.548     5.91     1044.155     60.64697     153.7339        15     1.405     1.122  25.23   0
       307    795.3730    425.6511 307.5994629  +6.5075140     667.2955     1288.183     1920.569     85.83636     172.2203     343.9961      1.603     3.79     1039.229     60.64697     114.1367         5     1.228     0.335  69.48   2
       308    792.4719    424.7930 307.6006973  +6.5077711     936.9745     1729.919     2420.346     85.69913     171.6041     343.9961      2.077     5.63     1039.189     60.64697     113.0168        11     1.055     0.905  54.60   3
       309    974.9500    425.3777 307.5248472  +6.5136305      1442.46     2498.144     2197.286     85.69913      172.152     343.9619      1.859     6.43     1034.593     60.64697     188.2949        17     1.612     0.720  31.52   0
       310    127.3253    422.5090 307.8771674  +6.4863801     2802.843     6558.508     7601.905     86.24673     172.2887     344.0988      2.446     6.45     1052.456     60.64697     315.5939        45     2.124     1.373  28.68   0
       311    765.3172    421.3414 307.6120976  +6.5082868     1719.033     3401.731     3614.383     86.38309     172.0836      344.133      2.183     6.15     1039.086     60.64697       188.01        27     1.861     0.999  30.07   0
       312    285.3979    419.5932 307.8115833  +6.4929046     909.0587     2039.512     2619.312     85.56168     171.7413     343.8593      2.392     7.54     1044.036     60.64697     117.5854        15     1.534     1.036 -73.34   0
       313    363.1432    417.1534 307.7793601  +6.4965256     1868.001     4518.903     5221.253     86.24673     172.0836     344.1672      2.441     7.68     1043.622     60.64697     211.8231        38     2.087     1.322  16.25   0
       314    719.3375    415.0226 307.6314171  +6.5093552     1016.337     2244.358     2290.992     85.83636     172.0836     343.9619      2.242     8.08     1039.342     60.64697     144.4012        17     1.722     1.061  27.41   0
       315    994.2307    414.3696 307.5172039  +6.5188178     471.7225     687.6703     686.5204     85.69913     171.8098     343.7908      1.788     4.46     1033.096     60.64697     93.46606         5     1.135     0.499  57.09   0
       316    560.9170    407.1121 307.6975152  +6.5073103     654.2117     1206.183     1181.225     85.97337     172.2887     344.0988      1.761     4.95     1040.522     60.64697     93.97925         6     1.199     0.578  56.03   0
       317    845.2783    404.9595 307.5794192  +6.5177234     894.7244     2078.314     2021.754     86.11016     172.0836     344.0988      2.170     7.98     1037.397     60.64697     116.9271        14     1.718     1.037  44.29   0
       318    831.0429    404.2916 307.5853574  +6.5175229     1371.841     2517.776     2308.013     86.24673     172.0836     344.1672      1.960     7.28       1037.7     60.64697     171.2333        18     1.590     0.951  30.21   0
       319    482.4598    405.9366 307.7301575  +6.5051627     543.5118     1265.643      1349.48     86.24673     172.0152     344.0988      2.377     4.00     1040.916     60.64697     105.1792         5     0.921     0.498 -88.37   0
       320    728.3799    402.2177 307.6280899  +6.5149428     9426.006     20359.22     23178.73     85.97337     171.8783     343.9619      2.252     5.99     1038.802     60.64697     949.3296        58     2.197     1.293  29.85   0
       321    649.3173    398.4000 307.6610734  +6.5138698     1553.407     3767.244     4219.082     85.42401     171.5355      343.688      2.459     9.07     1039.598     60.64697     166.6818        31     2.112     1.086  27.55   0
       322    621.8993    393.4573 307.6726335  +6.5149907     9631.023     22982.17     30876.32     85.97337     172.0836     344.2697      2.730     7.93     1039.344     60.64697     969.1942        79     2.917     1.352  31.74   0
       323    953.7119    392.0886 307.5347896  +6.5266602     2737.438     5349.474     5854.273     85.97337     172.6299     344.1672      1.975     6.29     1033.327     60.64697     329.5742        28     1.939     0.897  34.02   0
       324    392.8503    388.1837 307.7679929  +6.5094799        16888     38948.91     45906.17     85.69913      172.152     343.7565      2.408     6.10     1041.485     60.64697     1780.089        75     2.289     1.463  28.81   0
       325    139.2985    387.6800 307.8733700  +6.5011574     1448.369      3252.48     4065.315     86.11016     172.4935     344.0988      2.500     6.62     1050.233     60.64697     196.6945        27     1.887     1.153  24.71   0
       326    907.8936    386.7545 307.5540094  +6.5273305      1014.55     2072.272     2654.657     86.11016     172.0152     344.2014      2.750     6.08      1034.99     60.64697     131.1727        12     1.230     0.844  82.99   2
       327    922.5206    382.5229 307.5480728  +6.5295659     3543.626     6970.295      7492.66     86.51924     172.3569     344.2356      2.086     6.31     1034.196     60.64697     429.9564        35     1.998     1.036  29.75   0
       328     72.4250    382.8347 307.9013216  +6.5009035     751.5341     1944.841     2557.982     85.69913     171.8783      343.825      2.571     6.99     1052.449     60.64697     90.90442        11     1.256     1.089  19.95   0
       329    250.3273    378.7454 307.8275358  +6.5085828     8048.977     18644.07     21809.83     86.11016     171.9467     343.9961      2.405     6.25      1044.29     60.64697     902.8776        60     2.202     1.419  28.35   0
       330    975.2621    371.4442 307.5265262  +6.5359005     623.8838     1132.944     1916.623     86.24673     172.0152      344.133      2.397     3.29     1030.707     60.64697     105.7565         5     0.884     0.488   1.83   3
       331    972.1860    369.5810 307.5278671  +6.5365667     626.0659     963.0018     1728.524     85.97337     171.8098     343.9619      2.005     4.01     1030.792     60.64697     93.47327         6     1.112     0.414  77.11   2
       332    362.4971    367.4993 307.7813039  +6.5169964     784.6684     1875.335     2327.852     86.24673     172.6299     343.8935      2.741     5.17     1041.043     60.64697     105.2572         7     1.086     0.695  -6.16   2
       333    150.6906    367.3434 307.8693239  +6.5099340     3103.327     7055.945     8122.762     86.11016     171.9467     344.1672      2.384     6.26     1048.464     60.64697     340.3857        47     2.143     1.373  30.72   0
       334    255.2681    366.1764 307.8259072  +6.5139363     895.1843     1830.151     2383.705     85.83636     172.0152     344.0303      2.268     7.37     1043.745     60.64697     135.4044        11     1.454     1.046  19.03   0
       335    172.7704    363.0688 307.8602934  +6.5124418     1755.793     3944.801     4346.416     85.97337     172.0836     343.9961      2.308     6.34      1047.02     60.64697     228.6707        26     1.602     1.237  22.67   0
       336    837.3812    363.4948 307.5840935  +6.5345725     586.6085     1161.746     626.1469     86.11016     171.8098     343.8593      1.848     4.64     1036.592     60.64697     83.28821         6     1.274     0.479  46.32   0
       337    568.1530    361.2148 307.6960538  +6.5264954     644.7546     1250.986     1534.105     85.56168     171.8783     343.7908      2.021     3.97     1037.729     60.64697     89.26038         6     0.774     0.582  45.80   0
       338    396.0487    357.8711 307.7676863  +6.5220976     1304.447     2804.132     3238.239     86.24673     172.0152     344.0988      2.253     6.83     1039.171     60.64697     149.2802        23     1.594     1.213  11.72   0
       339    983.9301    356.1272 307.5234376  +6.5425117     686.8394     1331.529     1953.463     86.38309     172.2203     344.0645      2.730     5.07     1029.068     60.64697     98.07544         7     1.656     0.439  43.09   0
       340    449.9397    351.5183 307.7455056  +6.5265297     4404.605     9881.682     11274.54     86.38309     172.0836     344.0988      2.341     6.15     1037.684     60.64697     440.2285        49     2.078     1.382  26.46   0
       341     46.6605    352.4946 307.9130543  +6.5125561     1982.824     4544.785     5550.278     86.11016     172.0836     344.1672      2.516     6.53     1051.906     60.64697     249.3544        38     1.963     1.370  15.68   0
       342    782.5099    350.3881 307.6073371  +6.5381459     1332.895      2873.46     3309.248     85.97337     171.7413     343.8593      2.345     6.67     1036.995     60.64697     172.4139        23     1.652     1.038  44.47   0
       343    790.5590    348.8438 307.6040440  +6.5390526     8548.528     17976.31     20660.61     85.97337     172.0836     343.9619      2.233     5.81     1036.872     60.64697      880.231        53     2.110     1.254  27.75   0
       344    355.0913    347.3183 307.7850624  +6.5250763     547.0553     1063.687     664.9435     85.97337     172.3569      344.133      1.960     6.32     1040.333     60.64697     102.0898         7     1.104     1.016   2.81   0
       345      1.6428    339.6072 307.9321969  +6.5163563     652.4049     1744.269     3292.941     79.12978      141.535     264.0533      4.013     5.84     1052.654     60.64697     110.8566         7     1.306     0.917  -1.66  26
       346    470.5451    335.7202 307.7374753  +6.5337417     1339.776     2993.958     3493.142     86.38309     172.0836     344.0988      2.418     6.90     1036.588     60.64697     187.7626        24     1.907     0.990  28.65   0
       347    498.1769    335.1657 307.7260111  +6.5348981     1716.902     4187.009     4972.537     85.69913     171.8098      343.825      2.489     8.60     1036.274     60.64697     179.6764        30     1.875     1.216  28.15   0
       348    855.9395    331.7139 307.5774482  +6.5483098     21743.67     46727.79     52343.98     86.38309     172.2203     344.1672      2.246     5.80     1034.678     60.64697     2353.631        75     2.147     1.389  30.95   0
       349    627.4130    324.1271 307.6726755  +6.5437891     1612.933     3633.715     4446.675     85.69913     171.7413      343.825      2.508     7.73     1035.421     60.64697     190.4021        31     2.113     1.063  29.02   0
       350     35.4492    324.7739 307.9186513  +6.5236182     624.2162     1239.465     1877.792     85.83636     172.0836     343.9619      2.501     4.96      1051.56     60.64697     81.93042         5     1.073     0.649 -22.51   0
       351    712.3901    317.6907 307.6375769  +6.5492929     50045.63     107966.1     123491.8     85.97337     171.7413      343.825      2.273     5.94     1035.476     60.64697     5260.332        99     2.281     1.398  28.34   0
       352    870.8661    320.1011 307.5716348  +6.5536018     631.2203      1406.33     1512.823     86.24673     172.2203     344.0645      1.617     4.59     1033.404     60.64697     108.1182         7     1.610     0.371  26.85   2
       353     91.3758    316.7621 307.8956825  +6.5288102     859.6343     1554.516     1642.875     85.83636     171.8783     343.8593      1.838     4.71     1050.053     60.64697     119.7919         6     0.971     0.647  14.43   0
       354    574.8382    314.3591 307.6948534  +6.5460575     1553.492     3555.299     3877.362     85.97337      172.152     343.9277      2.293     7.57     1034.574     60.64697     157.2078        28     1.790     1.259  30.20   0
       355    953.2051    314.3430 307.5376082  +6.5587305     649.0128     1234.693      1083.55     85.56168     171.9467     343.7565      1.906     4.89     1028.983     60.64697     112.3655         7     1.718     0.395  27.86   0
       356    112.2836    313.3623 307.8871093  +6.5309179     3619.695      8448.59     9756.421     86.24673     172.0152     343.9961      2.416     6.79     1049.093     60.64697      400.522        43     2.092     1.313  27.95   0
       357    558.1359    310.6049 307.7019210  +6.5470467     4378.523     9564.766     11145.89     85.56168     171.7413     343.8593      2.320     5.73     1034.368     60.64697      457.947        45     2.005     1.322  25.73   0
       358    287.2552    308.4729 307.8145637  +6.5388269     1576.378      3564.08     3824.117     86.11016     171.9467     343.9961      2.332     6.92     1041.455     60.64697     179.6282        29     1.769     1.276  28.29   0
       359    421.0536    305.8529 307.7590496  +6.5444059     15111.04     34982.27     40896.87     86.51924     171.9467     344.0988      2.419     6.24     1036.475     60.64697     1672.158        73     2.259     1.495  29.15   0
       360    528.8586    305.0428 307.7142755  +6.5483599     712.6095     1622.665     1554.869     86.11016     172.0836      344.133      2.170     7.51     1034.037     60.64697     101.7421        12     1.768     0.894  30.56   0
       361    600.3666    304.8061 307.6845659  +6.5508563     529.9231     1232.143     1081.676     85.56168     171.8783     343.8593      1.972     4.58     1033.955     60.64697     75.21448         5     1.168     0.510  33.22   0
       362    401.9492    303.9457 307.7670532  +6.5445512     722.4863     1606.561      2298.95     86.38309     172.0836     344.0988      2.864     6.00     1036.952     60.64697     91.66492         7     1.200     0.844 -47.45   0
       363    816.8323    298.1308 307.5948289  +6.5608619     663.5182       1244.6     1118.664     86.11016     172.0836     344.0645      2.076     5.73     1033.396     60.64697     91.69983         8     1.611     0.574  61.16   0
       364    510.1729    296.3025 307.7223354  +6.5513400     5274.718     11614.28     13280.15     86.38309     171.8098     344.0303      2.328     5.85     1033.511     60.64697      539.916        51     2.072     1.385  27.08   0
       365    934.3818    294.8654 307.5460847  +6.5661403     660.7067     1307.604     1503.179     85.83636     172.0836     343.9619      2.218     7.05     1028.711     60.64697     94.60034         9     1.728     0.806  26.69   0
       366    779.1440    294.9150 307.6106002  +6.5609279     2046.448     4324.847     5289.572     86.24673     172.0836     344.2014      2.270     7.09      1033.76     60.64697     226.9919        30     1.936     1.076  28.23   0
       367    336.9401    292.7446 307.7944472  +6.5469889     750.1848     1474.104     1274.625     86.38309     172.0836     344.0645      2.273     3.95     1038.462     60.64697     120.5286         6     0.904     0.775 -73.28   0
       368    172.4032    286.6252 307.8630304  +6.5439776     593.1697     1336.624     1152.053     85.83636     171.7413     343.8935      1.710     3.39     1045.864     60.64697     83.88013         5     1.099     0.302  68.55   0
       369    400.0611    280.4925 307.7686290  +6.5541670     4332.711     10292.41     12286.15     86.11016     172.0836     344.1672      2.501     6.42     1036.153     60.64697     462.7944        53     2.185     1.409  29.14   0
       370    255.7532    280.5940 307.8285966  +6.5492726     1159.137     2743.791     3237.358     85.69913     171.8783      343.688      2.407     8.38     1041.729     60.64697     136.1497        23     1.646     1.193  26.82   0
       371    767.8926    276.2731 307.6159028  +6.5682451     34723.54     73659.55     83576.98     86.11016     172.2203     344.0988      2.252     6.02     1033.149     60.64697     3438.093        83     2.232     1.336  28.70   0
       372    439.3585    275.7368 307.7524581  +6.5574499     1416.199      3183.82     3141.932     86.24673     172.0152      344.133      2.276     7.13      1034.47     60.64697     169.5728        28     1.691     1.231  30.18   0
       373   1002.6117    273.1381 307.5184566  +6.5773870     1181.043     2480.771     2620.281     85.69913     171.8783     343.8593      2.164     7.15     1025.978     60.64697     162.4524        17     1.720     0.833  21.29   0
       374    943.4473    272.3795 307.5430716  +6.5757236       1520.4     3291.114     3599.922     85.83636     172.0836     343.8593      2.241     7.66     1027.524     60.64697     179.6748        23     1.957     0.840  29.40   0
       375    584.8321    273.1268 307.6920885  +6.5634097     754.4951     1383.999     1565.982     86.11016     172.0836     344.0645      2.079     5.77     1032.087     60.64697     98.56958         9     1.039     0.902  41.49   0
       376    426.2550    271.4262 307.7580490  +6.5587888     1270.203     2599.266     2777.614     85.83636      172.152     343.8935      2.158     6.59      1034.87     60.64697     140.8225        22     1.667     1.082  50.16   0
       377    848.4528    266.4532 307.5827513  +6.5749936     766.1869     1519.736     1774.796     86.51924     171.9467      344.133      1.828     3.18     1031.159     60.64697     141.8105         6     0.896     0.453 -15.42   2
       378    202.8024    262.8962 307.8511995  +6.5547942     1298.213     3184.757     3456.936     85.83636     171.7413     343.7223      2.295     9.48     1043.717     60.64697     169.3483        30     1.917     1.309  26.22   0
       379    766.2471    260.9020 307.6171033  +6.5745339     3815.916     8421.794     9946.417     86.24673     172.0152     344.2697      2.378     6.51     1032.754     60.64697      379.761        42     2.005     1.267  29.94   0
       380    455.5833    262.8240 307.7461506  +6.5633241      629.004     1362.767     1875.823     85.97337     171.9467     343.9961      2.291     4.53     1032.914     60.64697     76.96936         5     1.315     0.444  58.26   0
       381    782.6458    258.5905 307.6103656  +6.5760368      1757.66     3839.488     4675.386     85.69913     171.9467     343.7223      2.456     7.83     1032.619     60.64697     183.9702        30     2.164     1.006  36.73   0
       382     99.4907    259.8296 307.8942366  +6.5525795     747.9749     1507.786     2272.194     86.38309     171.8098     343.9961      2.682     6.31     1048.253     60.64697     104.8899        11     1.504     0.744  47.02   0
       383    372.1575    253.5277 307.7811351  +6.5643578     1141.011     2627.486      3192.11     86.11016     172.0836     344.0988      2.535     7.72     1036.092     60.64697     128.2511        23     1.739     1.171  30.43   0
       384     85.3020    254.1029 307.9003267  +6.5544646     827.8249     1630.586      1952.56     86.24673     172.6299     343.8935      2.358     5.20     1048.539     60.64697     111.9115         7     1.234     0.620   5.48   0
       385   1020.8940    249.6452 307.5116458  +6.5876934     4410.918     8331.682     8625.033     86.11016     170.3651     303.3416      1.966     5.94     1024.349     60.64697     551.1147        36     1.949     0.967  31.68  24
       386    499.7783    249.7351 307.7282246  +6.5702099     1143.806     2836.604     3248.086     85.83636     172.0836     343.9277      2.470     7.30     1030.793     60.64697     145.1101        17     1.759     0.849  48.03   2
       387    261.4185    245.2179 307.8274373  +6.5640630     3477.135     8072.753     9443.396     85.97337     171.8098     343.9961      2.445     6.22     1040.732     60.64697     372.9214        51     2.088     1.521  30.26   0
       388    394.7720    235.4327 307.7723472  +6.5725857     968.5134     2458.786     2550.123     85.69913     171.8098      343.825      2.509     8.22     1034.577     60.64697     134.9801        18     1.640     1.150  83.92   2
       389    982.0000    233.2149 307.5283622  +6.5931756     607.8279     1450.151     2235.622     85.69913     171.6727     343.7565      2.358     4.89      1024.75     60.64697     131.4469         7     1.264     0.675 -57.04   2
       390    317.8625    231.2980 307.8044499  +6.5717066     681.6008     1472.115     1845.113     85.97337     172.2203      344.133      2.556     6.40     1037.734     60.64697     99.94958         8     1.319     0.871 -20.29   0
       391    165.7165    231.6742 307.8676671  +6.5664305     983.0651     2000.209     1977.498     86.38309     172.4252      344.133      2.139     7.20     1044.444     60.64697     126.8794        14     1.445     1.005  35.90   0
       392    575.0312    227.2875 307.6977055  +6.5819994      1444.43     3329.794     3371.163     86.38309     171.8783     343.9961      2.314     7.56     1029.769     60.64697     183.9351        30     1.890     1.383  46.46   0
       393    918.6517    226.5518 307.5549150  +6.5938089     1210.879     2438.449     2139.777     86.38309     171.9467     344.0645      2.148     7.73     1026.608     60.64697     168.3928        21     1.965     0.868  28.18   0
       394    679.4843    225.1170 307.6543664  +6.5863970     1367.813     3070.846      3262.66     85.97337     172.3569      344.133      2.214     9.09     1031.633     60.64697      151.202        27     2.018     1.142  38.66   0
       395    738.5744    225.0038 307.6298114  +6.5884231     3210.168     7019.045      8429.97     85.69913     171.7413     343.8935      2.309     6.41     1031.771     60.64697     334.7522        39     2.069     1.127  31.76   0
       396    934.3336    216.6366 307.5487300  +6.5984252     743.5027     1498.162      2031.63     86.11016     172.0152      344.133      2.060     6.58     1025.713     60.64697     101.4253        13     1.997     0.609  34.59   0
       397    238.1773    210.4873 307.8382695  +6.5776141     1524.095     3351.929     3248.578     86.24673     171.8783     343.9619      2.211     7.47     1041.626     60.64697     182.5498        29     1.846     1.206  25.66   0
       398    880.7628    209.0482 307.5712504  +6.5997662     1190.923     2372.585     3148.137     85.97337     172.0836     343.9619      2.414     7.02     1027.308     60.64697     171.5775        17     1.761     0.783  28.76   0
       399    770.9302    208.5172 307.6169178  +6.5963106     1000.971     1999.354     2225.042     86.51923     172.3569     344.0988      2.136     5.45     1031.071     60.64697     139.7358        15     1.375     0.895  33.51   0
       400    472.2228    200.2421 307.7413452  +6.5897108     13455.94     30986.54     36322.85     85.83636     171.9467      343.825      2.415     6.24     1029.649     60.64697      1434.29        74     2.307     1.465  28.58   0
       401    798.1752    199.2751 307.6059047  +6.6010369     8698.684     18627.05     21706.19     85.83636     171.8783     344.0303      2.299     6.06     1030.406     60.64697     888.3951        62     2.207     1.323  28.02   0
       402    477.3419    194.8807 307.7393983  +6.5920954     966.8483     1870.376     1985.296     86.24673     172.0836     344.0303      2.103     6.66     1029.347     60.64697     160.9791        13     1.309     1.015  16.08   1
       403    160.9166    193.8917 307.8709396  +6.5818615     1431.203     3144.611      3691.68     85.97337     172.4252     344.2014      2.461     7.39     1043.724     60.64697     164.8639        23     1.687     1.000  28.43   0
       404    134.5411    192.2761 307.8819557  +6.5816397     788.0189     1352.901     1868.816     86.38309      172.152     344.0303      2.145     5.08     1044.988     60.64697     118.5123         7     1.088     0.670 -67.45   0
       405    933.2063    189.0104 307.5501256  +6.6097893     809.1534     1624.152     2067.845     85.69913     171.8783     343.9619      2.383     4.37     1024.777     60.64697     122.1783         7     0.967     0.608  31.35   2
       406      1.4965    188.1193 307.9373881  +6.5788691     1095.334     1605.338     1665.315     77.01926     139.6936     261.9051      1.459     3.26     1051.739     60.64697     214.1533        10     1.076     0.637  87.33  24
       407    596.3676    186.0744 307.6902256  +6.5997240     2980.575     6603.021     6722.835     86.11016      172.152     344.0303      2.273     5.84      1029.17     60.64697     315.8053        41     2.073     1.220  27.93   0
       408    558.9703    185.9528 307.7057729  +6.5985198     1234.709     2864.384     3618.014     85.83636      172.152     343.9619      2.451     8.79     1029.006     60.64697     139.4738        26     1.776     1.216  34.39   0
       409    401.6301    186.3385 307.7711533  +6.5930775     824.2009     1723.581     1546.907     85.97337     172.0836     343.9961      2.252     5.09     1033.082     60.64697     112.6545         9     1.014     0.763   4.12   2
       410    903.2719    182.4578 307.5627875  +6.6114931     7875.684     15538.87     17028.88     86.38309     172.0836     344.0645      2.101     5.92     1025.553     60.64697     894.8516        46     2.051     1.100  30.26   0
       411    957.2668    183.0956 307.5403236  +6.6130345     1792.734     3725.636     3936.717     86.24673     172.2887     344.0988      2.227     7.92     1023.417     60.64697     222.4895        25     1.909     0.920  28.75   0
       412    989.8638    180.2527 307.5268702  +6.6152968     7066.071     13604.42     14932.55     86.24673     172.0152     344.0303      2.066     6.16      1021.67     60.64697     825.2477        41     2.006     1.000  30.02   0
       413    701.3676    180.2273 307.6467814  +6.6056567     1803.037     4138.906     4774.746     85.69913     171.8098     343.8593      2.437     6.98     1030.276     60.64697     180.7914        35     1.967     1.219  29.68   0
       414     29.4816    179.2565 307.9260581  +6.5834708     16184.06     35947.32        41776     86.24673     172.0836     344.0988      2.367     5.96     1050.431     60.64697     1888.813        70     2.206     1.446  29.34   0
       415    275.0410    180.4050 307.8239653  +6.5912697     667.8983     1010.251      946.412     85.42401     171.7413     343.7908      1.649     5.74     1040.421     60.64697     85.43591         7     1.093     0.849 -16.60   0
       416    509.4765    175.0108 307.7267124  +6.6013746     938.6632     2025.392     1967.146     85.83636     171.6727     343.8935      2.182     7.50     1028.937     60.64697     129.8342        16     1.388     1.133  23.18   0
       417    841.8428    171.9100 307.5886743  +6.6137920     1445.271     2863.023     3051.993     86.24673     172.0836     344.0988      2.172     7.01     1027.281     60.64697     165.9475        21     1.602     1.001  28.33   0
       418    893.8776    170.7025 307.5670869  +6.6160306     1508.501     2999.955     3120.993     85.83636     172.3569     344.0988      1.974     7.76     1025.427     60.64697     192.6411        22     1.879     1.004  37.41   0
       419    753.4756    168.4281 307.6255203  +6.6122715     25913.12     54432.61     61304.45     86.11016     172.0836     344.0303      2.235     6.01     1029.613     60.64697     2497.955        79     2.235     1.335  28.81   0
       420    521.7056    170.8499 307.7217699  +6.6035023      1469.26     3558.394     3716.901     86.11016     171.9467     344.2356      2.486     8.63     1028.866     60.64697     155.8401        31     2.075     1.255  21.82   0
       421    356.5873    167.9775 307.7904934  +6.5991412     3689.122     9933.489     12645.67     85.97337     171.8783     343.9619      2.830     6.65     1035.558     60.64697     356.0789        67     2.138     1.929  40.53   0
       422    987.2282    167.1926 307.5284038  +6.6205989     2062.022     4100.588     4269.075     85.83636     171.8783     343.8593      2.017     7.47     1021.121     60.64697     234.0012        23     1.812     0.861  36.88   0
       423    465.0693    164.7948 307.7455134  +6.6040999     3040.099     7012.636     7988.403     85.69913     171.6727     343.8935      2.395     6.64     1029.639     60.64697     322.5355        43     2.077     1.341  32.65   0
       424    921.3226    165.3598 307.5558588  +6.6191531     5056.672     10274.24     11133.94     86.11016     172.0836     344.0988      2.142     6.11     1024.398     60.64697     576.4373        42     2.033     1.123  32.15   0
       425    122.4508    156.1668 307.8882020  +6.5961343     2880.531     6464.739     6852.944     86.11016      172.152     343.9961      2.344     6.38      1045.07     60.64697     307.8861        43     2.075     1.351  32.61   0
       426    292.6051    152.7951 307.8175981  +6.6032552     20007.06     46663.41     54788.06     85.56168     171.7413     343.9277      2.434     5.99     1040.335     60.64697     2126.838        84     2.315     1.523  29.02   0
       427    267.9189    153.8349 307.8278229  +6.6019955     3958.793     9020.927     10684.41     86.11016      172.152     344.0645      2.386     6.41     1041.148     60.64697     378.9528        54     2.251     1.384  28.38   0
       428   1023.5609    164.8180 307.5133817  +6.6227923     797.0597     847.5814     720.1232     76.40556      138.424     260.5082      1.032     3.83     1019.006     60.64697     152.2651         7     1.062     0.491 -85.79  24
       429    416.6671    148.1853 307.7661908  +6.6093288     29548.96     68244.18     79096.44     85.69913     171.9467     343.9619      2.396     6.07     1031.599     60.64697     2953.631        84     2.288     1.501  28.39   0
       430    720.3608    151.0764 307.6398676  +6.6183238     616.8851     929.7372      908.736     86.11016     172.0836     344.0988      1.647     4.39     1029.229     60.64697     96.43335         6     0.918     0.598  -3.27   0
       431    172.6057    149.5842 307.8675799  +6.6005407     2392.412     5607.076     5970.299     85.83636     171.7413     343.8935      2.346     7.02     1042.884     60.64697     271.9908        38     2.057     1.282  35.12   0
       432    433.2466    148.8377 307.7592780  +6.6096166     780.6337     1564.175     1575.612     85.97337     172.0152     343.9277      2.100     5.84     1030.921     60.64697     105.0039         8     1.237     0.775   5.21   0
       433    321.3822    145.9532 307.8058688  +6.6070468     10290.98     24877.39     31659.54     85.69913     172.0152     343.7908      2.698     6.86     1038.565     60.64697     1123.262       101     2.982     1.642  10.41   0
       434    755.8557    144.3331 307.6253412  +6.6222956     21435.31     45214.64     50913.19     86.38309     171.9467     344.0303      2.243     6.05      1028.44     60.64697     2177.277        70     2.227     1.308  28.66   0
       435    703.0798    145.7269 307.6472303  +6.6199527     727.5257     1296.477     1461.554     86.51924     172.3569     344.0988      1.577     3.81     1029.023     60.64697     116.8743         5     0.847     0.492 -53.10   0
       436    803.9606    144.2835 307.6053481  +6.6239263     742.2893     1816.622      2044.82     86.24673     172.0152     343.9961      2.403     7.14     1027.266     60.64697     120.7633        11     1.603     0.891  38.89   0
       437     72.8016    141.8017 307.9093225  +6.6003890      5495.43     12643.53        14571     85.56168     171.6041     343.7223      2.341     6.03     1047.541     60.64697     580.6119        53     2.142     1.366  28.88   0
       438    106.7805    139.7110 307.8952714  +6.6023973     1053.505     1967.024     1552.433     85.97337     171.8098     343.9619      1.916     5.51     1045.464     60.64697     119.9272        16     1.205     1.058  -5.44   0
       439   1015.8718    139.4500 307.5174284  +6.6330053      743.725     1323.431      2352.01     86.24673     172.0836     344.0988      2.549     4.15     1019.298     60.64697     130.0201         6     1.126     0.437  30.91   2
       440      6.2943    127.3931 307.9374511  +6.6040920     580.6939     1061.764     625.1862     85.97337     171.7413      329.241      1.780     5.95     1051.793     60.64697     78.42651         7     1.225     0.813 -47.09  16
       441   1015.2148    124.6430 307.5181981  +6.6390945     1672.341     3339.654     3998.828     85.42401     171.8098     343.7908      2.175     6.70     1019.399     60.64697     217.1312        22     1.934     0.792  34.39  16
       442    606.4782    120.7328 307.6882236  +6.6270301     1189.319     2602.258     3180.156     86.38309      172.152     344.0303      2.361     8.45     1027.799     60.64697     128.7006        24     1.707     1.169  31.38   0
       443    291.5284    119.0008 307.8191871  +6.6171658     18080.75     41756.68     49045.72     85.56168     171.6041     343.8593      2.403     6.02      1041.38     60.64697     1904.628        78     2.288     1.475  27.31   0
       444    350.1043    121.0497 307.7947720  +6.6182904     653.5878     1282.979     1008.336     86.11016     172.0152     344.2355      1.881     4.91     1037.425     60.64697      100.103         6     1.217     0.560  -2.69   0
       445     36.8622    117.6294 307.9250776  +6.6091526     3125.917     6754.619     7504.538     85.97337     172.0836     343.9961      2.226     5.88     1049.525     60.64697     332.1582        40     1.852     1.337  29.75   0
       446    723.1258    115.5664 307.6399128  +6.6330718     5070.676     10773.15     12298.74     86.11016     172.0836     344.0645      2.235     6.21     1027.639     60.64697       561.33        43     2.083     1.188  30.36   0
       447    133.8480    112.6866 307.8849362  +6.6144623     2842.523     6492.053     7420.056     86.24673     171.9467     344.0988      2.388     6.80     1043.908     60.64697     302.7303        40     2.057     1.288  22.65   0
       448    472.2395    109.5230 307.7443970  +6.6271516     756.8979     1570.763     2476.268     86.11016     172.0836     344.0988      2.341     6.25     1029.146     60.64697     97.08008         9     1.357     0.810 -56.70   0
       449    404.4849    108.8443 307.7725815  +6.6251555     2496.115     5863.382     7238.441     86.24673     172.0152     344.0303      2.533     6.25     1032.831     60.64697     254.9642        45     2.032     1.444  30.64   0
       450    369.0564    107.5319 307.7873512  +6.6245063     1990.235     4554.172     5404.797     86.38309     172.0152     343.9961      2.386     6.48     1036.172     60.64697     211.3848        36     1.901     1.328  26.19   0
       451    123.8624    107.6679 307.8892562  +6.6161970     1037.058     2321.839     2506.088     86.24673     172.0152     344.0988      2.285     7.94     1044.153     60.64697     160.7863        18     1.626     1.084  39.35   0
       452   1015.2594    101.4153 307.5189586  +6.6486824     1158.951     1961.695     1926.086     85.69913     172.0152     343.7908      1.825     6.43     1019.504     60.64697     185.2929        17     1.776     0.758  28.06  16
       453    103.6291     96.8319 307.8980323  +6.6199870     1277.965     3139.915     3296.619     85.69913     171.8098     343.7908      2.348     8.93     1044.479     60.64697      137.157        28     1.713     1.316  30.99   0
       454    682.6469     95.2999 307.6574200  +6.6400798     3977.058     8381.183      9717.43     86.24673     171.9467     344.3039      2.244     6.29      1026.88     60.64697     396.0741        44     2.093     1.217  33.09   0
       455    220.8414     96.4792 307.8493277  +6.6240813     3324.479     7661.882     8993.901     86.11016     172.0836     344.0645      2.440     6.62     1042.537     60.64697     311.4717        46     2.165     1.339  29.42   0
       456    829.5679     94.0000 307.5963939  +6.6455359     617.9326      1267.77     1066.474     85.42401     171.8098     343.7565      1.806     3.40     1023.613     60.64697     91.00854         4     1.161     0.289   0.00   2
       457    634.7758     92.5447 307.6774107  +6.6396124     6107.065     13266.05     16001.85     85.83636      172.152     343.8593      2.365     6.19     1027.049     60.64697     593.9487        52     2.184     1.304  29.10   2
       458    638.3942     84.0570 307.6761924  +6.6432366     33027.35     73092.73     84163.36     85.69913     171.9467     343.7565      2.324     6.02     1026.812     60.64697     3217.722        96     2.280     1.447  28.93   2
       459    361.9648     88.4347 307.7909434  +6.6321494     2281.582     5373.983     6862.185     85.97337     171.8098     343.7908      2.626     6.59     1037.371     60.64697     248.2367        40     1.950     1.519  35.02   0
       460    543.5190     87.4268 307.7155146  +6.6386636     1140.856     2362.899     3000.742     86.11016     171.8783     344.0988      2.609     5.83     1027.856     60.64697     155.9873        15     1.397     0.800  27.41   0
       461    317.4711     77.8778 307.8097933  +6.6350099     2218.945     5508.535     7146.083     86.51923     172.3569     344.0645      2.699     7.37     1040.763     60.64697     235.1267        42     2.135     1.372  41.46   0
       462    726.0798   1016.6552 307.6083992  +6.2612758     641.6556     950.3868     670.9548     86.38309     172.0836     343.7565      1.545     4.55     1065.504     60.64697     104.2606         5     1.075     0.547  70.74  16
       463    702.7101     68.1423 307.6499941  +6.6519603     1990.678     4481.803     4885.411     86.11016     172.0152     344.2014      2.310     7.14     1025.213     60.64697     232.7737        33     2.017     1.142  29.15   0
       464    444.5068     59.1303 307.7576236  +6.6470173     2541.959     5751.242     6037.454     86.24673     172.2203     344.0645      2.291     6.38      1031.09     60.64697     257.4758        39     1.952     1.275  31.82   0
       465    917.1416     54.5144 307.5613179  +6.6647609     2750.743     5419.633     5545.827     86.24673     172.0836     344.2014      2.103     6.50     1018.854     60.64697      315.551        32     1.986     0.995  29.44   0
       466    898.8929     55.2190 307.5688799  +6.6638599     1545.023     2725.934     3265.992     86.11016     171.8098     343.9277      1.998     6.69     1019.119     60.64697     190.6896        18     1.755     0.715  35.79   0
       467    609.2314     52.8964 307.6893636  +6.6551190     1161.655     2526.013     2926.793     86.38309     171.8783     344.1672      2.205     6.47     1026.817     60.64697     150.7723        23     1.682     1.112  18.84   0
       468    407.8888     50.7618 307.7731265  +6.6492406     1050.877     2397.433     2594.629     86.24673     171.9467     344.0988      2.226     7.81     1034.393     60.64697     144.6675        19     1.744     0.979  41.98   0
       469    155.8656     47.8462 307.8779785  +6.6419633     2096.038     4688.765     5417.438     86.24673     172.0152     344.0645      2.318     6.98     1043.454     60.64697     215.6636        32     1.931     1.181  24.85   0
       470     37.7311     45.7225 307.9271515  +6.6388570     8015.616     17470.78     20319.24     86.38309     172.2887     344.0645      2.328     5.89     1048.654     60.64697     878.8318        61     2.211     1.386  31.96   0
       471    771.4080     43.3853 307.6222708  +6.6644785     513.9375     1345.693     2080.502     85.83636     171.8098     343.8935      2.762     4.21     1021.734     60.64697     76.74622         5     1.259     0.401  36.64   0
       472    839.3615     40.0451 307.5941359  +6.6681313     4296.833     8624.352     9821.519     85.97337     172.0152     343.9619      2.166     5.92     1019.349     60.64697     476.4741        41     2.110     1.100  29.06   0
       473    784.6145     40.4490 307.6168798  +6.6661325     2005.763      4299.53     4506.853     85.56168     172.0152     343.7565      2.178     6.40     1021.101     60.64697     247.4764        32     2.017     1.110  26.92   0
       474    546.8920     38.9940 307.7157446  +6.6587652     744.7108     1673.881      2623.71     85.83636     171.7413     343.8593      2.430     5.89     1026.766     60.64697     105.8491        10     1.825     0.535  27.20   0
       475     78.0318     37.5687 307.9106772  +6.6435812     1927.266     4460.519     4109.371     85.69913     171.8098     343.7908      2.228     7.29     1045.607     60.64697     217.3043        35     2.035     1.203  35.69   0
       476    689.1591     71.2609 307.6555219  +6.6502191     850.9534     1710.484     1960.554     86.24673     172.0836     344.0988      2.273     5.93     1025.625     60.64697     131.3761         9     1.221     0.810  13.07   0
       477    438.5771     36.3913 307.7608554  +6.6562025     650.9491     1153.024       1333.6     85.83636     171.8098     343.8593      2.042     5.18     1032.147     60.64697     85.98254         5     1.048     0.723 -64.13   0
       478    601.6827     34.0938 307.6931346  +6.6626257     806.1724      1675.02     1266.261     85.97337     172.4252     344.2014      2.072     8.05     1026.645     60.64697     96.11279        16     2.104     0.860  40.38   0
       479     20.3225     33.1590 307.9348127  +6.6434545      1716.67     3629.744     4335.297     86.11016     172.0836      344.133      2.346     5.85     1049.869     60.64697     224.7433        32     1.821     1.179  31.14   0
       480    778.9874     27.9391 307.6196395  +6.6711070     1406.314      2684.49     3159.115     85.69913     171.8783     343.7565      2.077     7.19     1020.417     60.64697     180.8845        18     1.748     0.828  36.24   0
       481    420.0051     28.5189 307.7688407  +6.6588274     700.4224     1429.769     1300.424     85.83636     171.6041      343.825      2.165     6.53     1034.328     60.64697      82.5918         8     1.323     0.906 -23.20   0
       482     82.9014   1014.8093 307.8755974  +6.2404414     5792.758     11498.53     12766.61     85.97337     171.6727     343.8593      2.103     6.76     1066.355     60.64697     725.0593        39     1.978     1.008  30.48  16
       483    434.8212     21.5860 307.7629161  +6.6621864     1362.169     3181.274     3488.857     85.97337     171.8098     343.9619      2.356     8.63     1032.948     60.64697     156.0215        25     1.883     1.105  29.83   0
       484    812.2042   1014.3123 307.5727054  +6.2651243     11061.88     21209.16     22180.85     85.69913     171.7413     343.7223      1.993     6.38     1062.745     60.64697     1412.143        45     1.975     0.985  29.38  16
       485   1004.0362   1013.4846 307.4930530  +6.2718756     572.8592      1128.33     1542.586     86.24673     172.0836     344.0303      2.247     4.21         1056     60.64697     101.3535         6     1.712     0.295  38.48  16
       486    595.6353   1005.2455 307.6629633  +6.2616156     119007.9     232746.9     252700.5     85.97337     172.0152     343.9619      2.053     6.44     1068.328     60.64697        15041       106     2.122     1.175  28.91   3
       487    597.3849    998.0710 307.6624779  +6.2646353     55130.05     109114.5     119618.3     85.69913     172.0152     343.9619      2.085     6.47     1067.869     60.64697     7057.273        89     2.123     1.204  28.48   3
       488    229.5839   1008.1598 307.8149014  +6.2481227     2950.677     5730.037     6874.114     85.69913     171.8783      343.825      2.097     6.13     1067.625     60.64697     359.6747        27     1.858     0.910  32.39   0
       489    977.9803   1004.3927 307.5041804  +6.2747581     564.9167     1178.165     1423.947     85.83636     171.8098     343.8593      2.209     3.89     1057.321     60.64697     96.11023         5     1.298     0.334  49.50   0
       490    806.5472   1002.1180 307.5754643  +6.2699679     5267.062     10025.76     10748.82     86.24673     172.0836     344.0988      2.020     6.75      1062.31     60.64697      718.377        33     1.917     0.938  27.18   0
       491    904.5275    998.9162 307.5348740  +6.2745649     1238.294     2207.913     2289.258     86.38309     172.4252     344.0988      1.951     6.80     1060.314     60.64697     171.6927        17     1.673     0.774  24.24   0
       492    227.2189    997.4539 307.8162450  +6.2524615      1634.26     3298.629     4271.401     85.69913     172.0836     343.8593      2.236     7.09      1067.58     60.64697     195.1898        23     1.917     0.858  27.45   0
       493    445.1232    994.7789 307.7258307  +6.2608871     2899.539     5866.438     7292.542     85.83636     171.8783     343.9961      2.306     6.54     1067.716     60.64697     417.0435        30     1.993     0.909  31.71   0
