#   1 NUMBER                 Running object number                                     
#   2 X_IMAGE                Object position along x                                    [pixel]
#   3 Y_IMAGE                Object position along y                                    [pixel]
#   4 ALPHA_J2000            Right ascension of barycenter (J2000)                      [deg]
#   5 DELTA_J2000            Declination of barycenter (J2000)                          [deg]
#   6 FLUX_APER              Flux vector within fixed circular aperture(s)              [count]
#   9 FLUXERR_APER           RMS error vector for aperture flux(es)                     [count]
#  12 FLUX_RADIUS            Fraction-of-light radii                                    [pixel]
#  13 FWHM_IMAGE             FWHM assuming a gaussian core                              [pixel]
#  14 BACKGROUND             Background at centroid position                            [count]
#  15 THRESHOLD              Detection threshold above background                       [count]
#  16 FLUX_MAX               Peak flux above background                                 [count]
#  17 ISOAREA_IMAGE          Isophotal area above Analysis threshold                    [pixel**2]
#  18 A_IMAGE                Profile RMS along major axis                               [pixel]
#  19 B_IMAGE                Profile RMS along minor axis                               [pixel]
#  20 THETA_IMAGE            Position angle (CCW/x)                                     [deg]
#  21 FLAGS                  Extraction flags                                          
         1     14.6171     69.9311 307.9361996  +6.6320604     744177.4      1581520      1703182     83.51985     167.5742     335.2151      2.133     6.11     1007.283     59.10475     61273.59       435     2.165     1.854  84.31   4
         2    648.1607     22.8284 307.6745107  +6.6727815     19442.23      28170.8     29313.63     83.65359     167.4408     335.1818      1.528     3.29     973.9781     59.10475     2746.968        41     1.409     1.078  60.70   0
         3    547.9126     18.7827 307.7163096  +6.6710949     5436.998     8132.276     8962.521     83.78712     167.4408     335.1818      1.584     3.32     974.5692     59.10475     715.6121        27     1.359     1.035  64.81   0
         4     15.3709     17.4251 307.9376665  +6.6537640     1287.332     1913.407     1221.669     83.51985     167.5075     335.1818      1.537     4.47     1005.301     59.10475     193.1688        14     1.263     0.882  79.21   0
         5    634.3222     12.7417 307.6806018  +6.6764829     3472.627      5146.71     5881.939     84.18642     167.7076     335.2485      1.687     3.94     973.8985     59.10475     444.1635        22     1.426     0.875  64.46   2
         6    453.5205     14.4566 307.7556841  +6.6697170     23820.64        35414     36466.31     84.18642     167.7076     335.3152      1.654     3.50     979.9786     59.10475      2779.97        45     1.475     1.130  62.55   0
         7    274.1153     14.8665 307.8302278  +6.6635255     9222.982     14197.38     14579.42     84.18642      167.974     335.3819      1.613     3.64      999.234     59.10475     1181.527        36     1.445     1.098  66.48   0
         8     39.4771     14.5232 307.9277474  +6.6557741     2360.318     3614.161     3139.598     84.31911      167.974     335.3819      1.656     3.97     1003.639     59.10475     322.6362        18     1.291     0.903  68.00   0
         9    931.3407     14.3777 307.5571040  +6.6857345     2291.156     2975.096     3343.827     83.65359     167.6409     335.1818      1.339     3.14     965.3356     59.10475     404.2292        15     1.153     0.736  66.25   0
        10    567.0041     14.2517 307.7085282  +6.6736053     810.0906     1197.104     1212.384      83.3859     167.5075     334.8815      1.495     4.63     974.3196     59.10475     116.7895         8     0.992     0.614  65.24   0
        11    538.4200     14.4533 307.7204007  +6.6725644     530.1511     696.4843     409.7262     83.51985     167.7076     335.1151      1.315     3.93     974.7827     59.10475     84.62354         5     1.088     0.407  73.90   0
        12    261.8592     11.3819 307.8354390  +6.6645524     3095.864     4658.752      4657.05     83.65359     167.5742     335.0817      1.621     3.61     999.2227     59.10475     412.3449        24     1.345     0.987  55.19   0
        13    314.9922      9.9154 307.8134076  +6.6669428     1006.781     1365.514     1464.078     83.65359      167.374     335.1485      1.572     5.34     995.4207     59.10475      129.497        11     1.089     0.739 -88.72   0
        14    951.9286      4.6174 307.5488752  +6.6904514     1349.109     1715.673     2028.838     83.51985     167.6409     302.3207      1.377     4.71     963.3783     59.10475      165.004        11     1.047     0.716  74.57  16
        15    703.3411      3.9622 307.6522132  +6.6824174      1888.16     2524.696     2679.552     84.05353     165.2229     293.5787      1.423     3.17     971.6738     59.10475     311.7579        15     1.127     0.836  51.16  16
        16    722.0784   1002.7361 307.6108236  +6.2706496     1447.846     1648.364     1435.605     84.31911     167.7742     335.3152      1.289     3.78     1014.013     59.10475     243.1051        12     1.141     0.714  61.35   0
        17    811.7166   1022.9909 307.5729187  +6.2652806     15312.38     18075.77     18289.18     80.93684     143.5747     263.9436      1.238     3.04     1011.361     59.10475     2411.349        22     1.075     0.843  41.26  24
        18     82.2330   1023.1300 307.8758334  +6.2407791      7783.75     9130.179     9361.237     79.68408     141.7726     261.5611      1.191     2.60     1021.591     59.10475     1408.422        20     1.009     0.887  27.33  24
        19    762.0427    998.7704 307.5943607  +6.2736224     1486.355     2074.056     2419.259     83.65359     167.6409     335.1485      1.526     3.80     1012.608     59.10475     259.5696        12     1.207     0.729  60.56   0
        20    969.4919    993.0667 307.5084021  +6.2829006     7678.176     10294.01     10138.79     83.92043     167.9074     335.3485      1.400     2.92     1006.765     59.10475      1218.41        26     1.293     0.888  59.72   0
        21    723.9136    993.5220 307.6103712  +6.2745155     1205.536      1454.21     2218.169     84.05353     168.0405     335.4152      1.331     3.64     1013.574     59.10475     180.1215         9     1.073     0.559  61.02   0
        22    254.0579    993.0531 307.8055015  +6.2589708     1632.171     2259.293      2537.53     84.05353     167.7076     335.3152      1.496     3.79      1021.19     59.10475      305.601        15     1.300     0.741  69.99   0
        23    729.2381    991.1290 307.6082405  +6.2756815     3387.266     4637.333     5339.136     83.92043     167.7076     335.3819      1.406     3.19     1013.394     59.10475      554.249        17     1.191     0.767  65.47   0
        24    452.2267    991.7650 307.7232540  +6.2661493     1114.811     1577.819     1766.922      83.3859     167.4408     335.0817      1.585     3.90     1018.818     59.10475     147.4302        10     0.945     0.747  55.06   0
        25    744.8606    990.3296 307.6017797  +6.2765336     1116.919     1591.603     1475.469     84.18642     167.7076     335.3485      1.375     2.85     1012.935     59.10475     205.0305        11     1.001     0.680  58.88   0
        26    375.9216    988.4960 307.7550508  +6.2649412     2163.459     2873.913     2413.737     83.78712      167.974     335.3819      1.409     3.17     1020.236     59.10475     317.4993        15     1.118     0.813  56.77   0
        27    986.5392    986.3052 307.5015492  +6.2862608     649.5248     901.7452     776.4923     83.92043     167.7742     335.3819      1.388     4.10     1005.241     59.10475     128.2021         5     1.001     0.480  51.83   0
        28    713.8912    985.2511 307.6148114  +6.2775956     594.7941     922.6661     804.3859     83.92043     167.5075     335.5152      1.631     3.36     1013.239     59.10475     115.4956         5     0.964     0.339  45.57   0
        29    626.9800    983.1504 307.6509743  +6.2755569     527.1996     851.7192     884.2639     83.51985     167.7742     335.1485      1.580     3.81     1015.267     59.10475     105.8643         5     0.820     0.508  51.93   0
        30    308.2937    977.6010 307.7835016  +6.2671712     17538.44     23593.12     24876.92     83.51985     167.2404     334.9816      1.401     2.92     1020.918     59.10475     2745.065        37     1.331     0.980  65.05   2
        31    312.3090    974.6356 307.7819343  +6.2685303     1282.085     1925.151     2287.527     84.18642     167.5742     335.3485      1.729     4.04     1020.861     59.10475     202.4476        10     1.112     0.630  46.33   3
        32    762.7394    978.2578 307.5947607  +6.2821154      9445.67     12752.09     13497.38     84.18642     167.6409     335.3485      1.406     3.02     1011.603     59.10475      1382.05        29     1.300     0.919  60.43   0
        33    558.3029    978.8575 307.6796387  +6.2750313     4985.039     6842.761     7119.751     83.92043     167.6409     335.5152      1.440     2.90     1017.368     59.10475     843.8123        22     1.219     0.884  62.74   2
        34    555.4470    970.9898 307.6810896  +6.2781843     9714.081     12827.53     14100.07     83.51985     167.5742     334.9483      1.373     2.78     1017.076     59.10475     1554.201        32     1.299     0.979  71.26   2
        35    528.3292    980.0643 307.6920453  +6.2735296     1187.637      1587.13     1644.842     84.05353     167.7076     335.3152      1.461     3.66     1017.904     59.10475     217.9121         9     0.988     0.588  43.13   0
        36    134.6044    978.5963 307.8555930  +6.2609271     405.4254     540.1113     552.1555      83.3859     167.2404     335.1485      0.992     3.85     1021.102     59.10475     84.38666         5     1.041     0.408  73.70   0
        37      4.9025    978.6321 307.9094494  +6.2565500     953.6451     1650.078     1675.926     84.05353     167.5742     305.8864      1.746     3.86     1020.942     59.10475      177.679        11     0.983     0.811  77.66  16
        38    824.0607    977.6550 307.5693150  +6.2844122     1572.305     1969.369     2131.002     84.18642     167.7076     335.2819      1.459     3.51     1009.851     59.10475     233.6921        13     1.081     0.796  59.18   0
        39    432.6685    977.8401 307.7318452  +6.2712433      1216.86     1661.215     1647.529     83.92043     167.7076     335.4152      1.403     3.37     1018.754     59.10475     208.5403        10     1.036     0.643  48.48   0
        40    924.0323    971.6660 307.5279988  +6.2902212     10550.24     14123.76     14590.45     83.92043     167.7742     335.2485      1.401     2.97     1007.924     59.10475     1660.817        31     1.285     0.959  70.25   0
        41    279.8544    974.8398 307.7954045  +6.2673568     1113.394     1407.936     1148.088     83.92043     167.7742     335.3152      1.363     3.96     1020.956     59.10475     209.7797         8     1.059     0.502  57.25   0
        42    641.8815    973.2385 307.6451196  +6.2801480     576.9255     711.4955     786.2476     84.05353     167.7742     335.2485      1.461     4.51     1014.412     59.10475     110.8219         5     1.276     0.453  64.07   0
        43   1019.3387    967.3764 307.4885623  +6.2951698      5559.85     7820.265     8030.814     83.65359     167.6409     314.4284      1.477     3.02     1002.391     59.10475     889.8691        26     1.293     0.951  66.78  16
        44    897.6610    967.8649 307.5390782  +6.2909110     14538.56     19782.59     21214.94     84.05353     167.6409     335.3485      1.434     2.98     1008.257     59.10475      2128.82        42     1.301     1.147  45.36   0
        45      7.4358    970.1031 307.9086863  +6.2601568     753.6985     878.2495     1325.942     84.05353     167.5742     330.7163      1.226     2.90     1020.939     59.10475     145.1744         5     0.742     0.423  64.98  16
        46    610.6169    968.3279 307.6582684  +6.2811297     1653.965     2046.206     2093.497     83.51985     167.6409     335.2151      1.294     3.40     1015.164     59.10475     283.6116        11     1.175     0.570  71.50   0
        47    546.6729    967.8840 307.6848379  +6.2791730     582.4091     755.8148     1853.459     84.18642     168.0405     335.3485      1.188     3.81     1017.182     59.10475      134.433         5     0.860     0.485  39.85   1
        48    541.7825    966.8388 307.6869040  +6.2794408     4933.491     6813.009     7470.643     83.65359     167.5742     335.0817      1.436     2.95     1017.214     59.10475     746.9308        25     1.219     0.957  54.64   0
        49    651.3820    966.2009 307.6414110  +6.2833716     1708.076      2236.13     2131.316     83.65359     167.2404     334.9816      1.320     3.35     1013.932     59.10475     257.4509        14     1.097     0.764  65.04   0
        50     76.8019    965.5375 307.8800370  +6.2643755     1040.907     1267.402     1429.663      83.3859     167.5075     335.0484      1.261     2.89     1020.925     59.10475     170.9658         9     1.013     0.552  62.28   0
        51    495.0922    963.5350 307.7064046  +6.2792414     2637.655     3469.813     3096.086     84.05353     167.9074     335.3152      1.448     3.41     1017.362     59.10475     391.4734        16     1.150     0.873  41.07   0
        52    929.4045    955.3862 307.5263140  +6.2971225     52701.28     70209.12     72481.26     83.65359     167.4408     335.1818      1.432     2.92     1006.626     59.10475     8467.177        56     1.361     1.038  62.63   0
        53      2.3491    955.1721 307.9113040  +6.2661503     3623.147     4817.424     4398.121     82.98274     148.3235     269.3932      1.381     3.16     1020.938     59.10475      569.925        20     1.290     0.835  65.37  24
        54    236.6368    953.7602 307.8140629  +6.2746095     1990.972     2799.965     2676.482     83.78712     167.6409     335.1818      1.492     2.94     1020.706     59.10475     326.9082        13     1.099     0.722  63.22   0
        55    124.8333    953.0750 307.8605134  +6.2711360     799.9985     829.3216     977.2827     83.92043     167.7076     335.2819      1.249     3.70      1020.74     59.10475     146.9459         6     0.926     0.436  39.90   0
        56    775.5842    947.0135 307.5904763  +6.2954454     7965.574     10627.57     11635.51     83.78712      167.374     335.2485      1.425     3.08     1009.854     59.10475     1153.691        26     1.253     0.895  64.56   2
        57    635.6075    951.7585 307.6484478  +6.2888073     1088.146     1424.564     891.7592      83.3859     167.5075      335.015      1.251     3.41     1013.878     59.10475     181.2214         8     0.928     0.584  70.45   0
        58    827.3817    949.1724 307.5688924  +6.2962837     2976.766      3881.96     3578.872     83.65359     167.5075     335.2151      1.321     2.75     1008.919     59.10475     509.8682        18     1.188     0.809  63.67   0
        59    562.4042    946.6683 307.6790194  +6.2884595     1103.334     1479.938     1521.958      83.3859     167.3072     335.0817      1.474     3.63     1015.694     59.10475     165.7228        11     1.127     0.685  63.40   0
        60    245.1176    946.1205 307.8107992  +6.2780486     1752.123     2397.692     2388.882     84.18642      167.974     335.4485      1.426     3.62     1020.602     59.10475       286.77        14     1.234     0.701  70.32   0
        61    209.5018    945.7040 307.8256033  +6.2770244     1045.913     1557.824     1011.484     84.05354     168.3064     335.1485      1.505     4.22     1020.621     59.10475     158.5624        12     1.182     0.756  58.10   0
        62     70.0484    944.1246 307.8835659  +6.2729893     3210.508      4264.28     4158.272     83.92043     167.7742     335.3485      1.398     3.02     1020.707     59.10475     518.1476        18     1.111     0.897  74.90   0
        63    963.7409    942.1539 307.5124979  +6.3037312     8308.313     11304.99     11860.22     84.05353     167.7076     335.4152      1.419     3.03     1003.968     59.10475     1291.546        30     1.289     0.945  65.29   0
        64    219.2991    937.6602 307.8218066  +6.2806747     731.5045     991.6028     811.0197     83.78712     167.6409     335.4485      1.438     4.46     1020.518     59.10475       103.43         8     0.972     0.606  74.00   0
        65    646.0801    936.6353 307.6446075  +6.2954020     902.6443     1033.758     904.0975     83.92043     167.7742     335.3485      1.355     3.22     1013.199     59.10475     154.4149         7     1.010     0.493  68.65   0
        66    937.5199    933.7792 307.5236685  +6.3063148     2656.417     3384.563     3163.121     83.65359      167.374     335.3152      1.339     3.22     1004.721     59.10475      411.653        16     1.236     0.762  58.52   0
        67    270.4064    930.0238 307.8008412  +6.2855438     5038.852     6539.623     6193.893     83.51985     167.5075     335.1818      1.347     3.00     1020.381     59.10475      787.088        22     1.194     0.870  70.48   0
        68    796.9109    930.3602 307.5821788  +6.3030340     1546.792     1878.024     1666.103     84.05353     167.6409     335.3485      1.309     3.54     1008.777     59.10475      232.339         9     0.927     0.657  64.33   0
        69    658.2373    929.8100 307.6397883  +6.2986267     5237.085     6772.659      6904.94     83.51985     167.5075     334.9816      1.361     2.97     1012.827     59.10475      892.812        19     1.216     0.759  61.96   0
        70   1007.7874    929.2896 307.4946364  +6.3105113     809.1188     1025.671     853.4945     83.78712     167.4408     335.1818      1.447     5.35     1001.131     59.10475     129.8958         8     1.310     0.625  52.99   0
        71    480.4937    928.2746 307.7136553  +6.2933113     1355.621      1688.18     1649.803     83.78712     167.8409     335.2819      1.284     3.36      1016.06     59.10475     234.7132         9     0.940     0.657  67.95   0
        72     39.2507    927.3881 307.8969211  +6.2788635     2547.646     3384.514     3780.067      83.3859     167.5742      335.015      1.412     3.11     1020.701     59.10475     399.4467        16     1.233     0.712  65.43   0
        73    889.8933    926.0028 307.5437091  +6.3079370     1039.971     1229.666     856.5352     83.65359      167.374     334.9816      1.344     3.13     1006.465     59.10475     190.8256         9     0.972     0.609  57.54   0
        74    306.5104    923.6697 307.7860627  +6.2893791     982.9916     971.9218     1015.505     84.05354      167.974     335.3152      1.323     5.13     1020.213     59.10475     145.8766        10     1.198     0.622  88.09   0
        75    982.6689    924.5915 307.5052259  +6.3116139     621.5813     961.1038     1490.786     83.51985     167.4408     335.2151      1.312     3.39     1002.106     59.10475      121.856         5     0.750     0.443  20.67   0
        76    961.7469    923.5942 307.5139485  +6.3113282     898.5089     1487.724      1618.42     83.51985     167.4408      335.015      1.683     4.35     1003.034     59.10475     142.3586         7     0.911     0.593  74.62   0
        77    582.9938    922.4169 307.6712853  +6.2991621     2016.038      2474.71     2650.042     83.65359     167.4408     335.1485      1.358     2.99      1013.93     59.10475     300.9182        14     1.047     0.789  79.71   0
        78    171.6175    920.0813 307.8422013  +6.2863310     532.4063     654.1068    -10.93436     83.65359      167.374     335.2151      1.413     5.53     1020.283     59.10475     116.0151         7     1.311     0.658 -79.48   0
        79    622.0705    918.6162 307.6551849  +6.3020389     1402.632     1891.833     2220.744     83.51985     167.6409     335.2151      1.386     3.07     1012.799     59.10475     255.9518        12     1.031     0.738  61.27   0
        80     71.9676    919.1082 307.8836154  +6.2833828     840.5702     1269.707     1629.923     84.18642     167.5742     335.3485      1.773     3.96     1020.401     59.10475     141.2611         8     0.977     0.596  26.13   0
        81    302.0752    916.3573 307.7881514  +6.2922495     1634.297     2171.437     2299.289     83.92043     167.7742     335.3485      1.379     3.06     1020.179     59.10475     265.8775        11     0.995     0.678  76.15   0
        82   1014.0667    922.9424 307.4922413  +6.3133413     948.8229     1319.197     1249.845     84.18642     167.6409     335.3152      1.528     3.18     1000.573     59.10475     168.1812         9     0.937     0.668  25.94   0
        83    768.8558    912.6938 307.5944238  +6.3093914     1035.119     1388.277     744.8411     83.92043     167.7076     335.5152      1.434     4.91     1008.748     59.10475     157.2391        11     1.198     0.648  78.24   0
        84    906.4487    909.0406 307.5374028  +6.3154932     8626.537     11339.35     11302.39     83.92043     167.7076     335.2485      1.337     2.83     1004.934     59.10475     1443.396        28     1.263     0.866  60.76   0
        85    144.6370    910.5393 307.8537281  +6.2893641     764.4218     978.5203     876.3218     84.05354     167.7742     335.2819      1.389     4.95     1020.144     59.10475     97.36658         8     0.998     0.785 -76.31   0
        86    442.4245    906.2576 307.7302071  +6.3011265     2472.006       3295.3     3357.219     83.65359     167.7076     335.1485      1.372     3.37       1016.8     59.10475     393.2325        17     1.259     0.771  66.84   0
        87    344.0613    904.6096 307.7711118  +6.2985088     10953.73     14704.85     15043.22     83.38589     167.5742     335.0484      1.400     2.91     1019.628     59.10475     1708.694        29     1.287     0.898  64.56   0
        88    611.1070    906.1778 307.6601566  +6.3068080      634.507     675.9797     787.0173     84.05353     167.5075     335.1485      1.281     3.79     1012.404     59.10475     109.7018         5     0.857     0.481  58.47   0
        89    264.1135    903.5464 307.8043487  +6.2962648     8337.712     11162.31     11024.69     84.05353     167.5742     335.4818      1.416     2.97     1020.217     59.10475     1328.856        27     1.281     0.900  67.54   0
        90    776.6268    897.6339 307.5917026  +6.3158693     724.9686     911.9932     1123.278     83.51985     167.4408     335.0817      1.564     4.98     1008.083     59.10475     102.6438         9     1.125     0.624  77.35   0
        91    591.9965    897.8039 307.6683751  +6.3096261     1386.034     1668.236     1220.914      83.3859     167.2404     335.1151      1.376     4.83     1012.681     59.10475     233.1772        11     1.096     0.684  55.55   0
        92    922.1609    894.0593 307.5313800  +6.3222033     1290.853     1874.408     2274.474     84.05353     167.7742     335.4152      1.449     3.43     1003.497     59.10475     213.6337        12     1.141     0.708  59.44   0
        93    155.0046    893.7581 307.8499901  +6.2966413     558.2228      643.673     422.2614      83.3859      167.374      335.015      1.259     3.78     1019.891     59.10475     81.56171         5     0.816     0.503 -59.10   0
        94    878.5993    893.1951 307.5495009  +6.3211067     935.3428     1229.485     1085.367      83.3859     167.2404     335.0484      1.296     2.95     1005.437     59.10475     160.3445         7     0.835     0.551  60.54   0
        95    420.8660    891.8273 307.7396468  +6.3063621     724.7772     840.8865     161.3611     83.65359     167.6409     335.2151      1.372     4.90     1016.901     59.10475     95.87952         8     1.051     0.647 -59.96   0
        96    989.6951    890.0660 307.5034656  +6.3261041     866.4247     1148.103     1238.359     84.05353     167.8409     335.3485      1.559     3.94     1000.153     59.10475     135.1729         9     1.057     0.595 -87.60   0
        97    851.3984    888.1111 307.5609687  +6.3222981     603.1895     778.1769     25.50176     83.25173     167.3072     335.0817      1.112     3.99     1006.136     59.10475     138.1936         6     1.217     0.482  85.60   0
        98    758.5518    887.1674 307.5995611  +6.3195872      1835.54     2108.526     2150.231     83.78712     167.7076     335.2485      1.187     2.77     1008.168     59.10475      328.591        13     1.117     0.629  57.62   0
        99    582.2834    887.5203 307.6727552  +6.3135471     915.9424     1224.758     942.3028     84.05354      167.974     335.4152      1.394     3.11     1012.634     59.10475     167.9814         9     1.015     0.584  80.35   0
       100      8.9887    884.2438 307.9109484  +6.2956587     1292.398     1565.128     1449.814     83.51985     167.5742      335.015      1.300     2.78     1020.145     59.10475     242.3198         9     0.874     0.665  71.58   0
       101    634.2876    883.6072 307.6512892  +6.3169029       659.93     1092.841     1160.248     83.51985      167.374     335.0484      1.517     3.60     1010.847     59.10475     132.9541         6     0.884     0.489  46.92   0
       102    622.5731    883.3723 307.6561623  +6.3166080     832.4961     1178.464     1594.304     83.51985     167.5075     335.1485      1.400     4.07     1011.084     59.10475     123.1564         7     0.975     0.485  83.53   0
       103    543.6110    883.0363 307.6889671  +6.3141040     1432.957     2049.134     1461.452     83.51985     167.5075      335.015      1.408     2.92     1013.812     59.10475     261.0138        12     1.069     0.684  55.40   0
       104    989.6508    882.8143 307.5037271  +6.3290969     1532.036     2208.566     1797.322      83.3859     167.7076     335.0484      1.376     3.29     999.8272     59.10475     226.9047        10     1.023     0.628  53.21   0
       105    677.1009    880.5510 307.6336112  +6.3195966     3007.644     3907.403     4084.649     84.05353     167.6409     335.5152      1.383     3.49     1009.587     59.10475     432.9733        16     1.145     0.768  69.43   0
       106    967.5109    878.5157 307.5130666  +6.3301337     798.1243     1044.411     1182.487     83.78712      167.974     335.4152      1.411     4.25     1000.664     59.10475       143.85         8     1.112     0.563  49.85   0
       107    838.0134    876.7624 307.5669088  +6.3265372     958.4938     1436.942     1113.031     83.51985     167.5075      335.015      1.490     3.73     1005.933     59.10475     195.3389        10     1.153     0.685  68.12   0
       108     73.8576    876.5649 307.8842701  +6.3010118     3195.466      4466.95     4346.303     83.92043     167.7076     335.3485      1.462     3.29     1019.784     59.10475      532.659        19     1.274     0.873  69.50   0
       109    955.5861    876.1881 307.5180974  +6.3306972     1127.365     1439.764     1405.006     83.92043      167.374     335.2485      1.461     3.64     1001.083     59.10475     176.2815        11     1.081     0.769  30.11   0
       110    217.3644    875.7537 307.8247017  +6.3061703     2524.953     3499.686     3363.488     83.65359     167.7076     335.1818      1.445     3.16     1019.936     59.10475     382.1872        17     1.147     0.835  68.05   0
       111     91.2661    875.9924 307.8770601  +6.3018336     2155.635     2728.911     2066.966     83.51985     167.4408     335.1485      1.380     2.99     1019.706     59.10475     329.1408        17     1.237     0.758  65.07   0
       112    973.5121    873.1417 307.5107544  +6.3325528     747.8842     852.1363      1323.73     84.05353     167.7076     335.4485      1.301     4.39     1000.106     59.10475     110.2106         8     0.921     0.641  37.42   0
       113    356.4967    871.6519 307.7670597  +6.3125339     1003.209     1245.974     1589.605     83.92043     167.7076     335.5818      1.454     3.83     1018.719     59.10475     179.8303         9     1.138     0.676  63.58   0
       114    671.7614    869.6872 307.6361943  +6.3239038     8036.532     10768.91     11036.88     84.05354     167.6409     335.3152      1.400     2.98     1009.009     59.10475     1251.109        28     1.254     0.941  63.78   0
       115    251.1274    872.0499 307.8108055  +6.3088334     833.3671     1214.786     1300.938     84.05353     167.7742     335.3485      1.354     4.00     1019.995     59.10475      135.653         8     0.908     0.695  80.48   0
       116    809.0354    870.3871 307.5791582  +6.3282021     881.0483     1317.947     1655.629     83.51985     167.5075     335.1151      1.470     2.94     1006.306     59.10475     174.1221         6     0.889     0.508  71.47   0
       117     31.6320    867.9987 307.9020952  +6.3031280     1227.751     1764.709     2489.217     83.38589     167.5075     335.0484      1.649     3.55     1019.797     59.10475     207.6813        11     1.132     0.729  80.64   0
       118    909.4970    866.0033 307.5375811  +6.3333654     3266.841     4271.656     4539.039     83.78712      167.374     334.9816      1.343     2.87     1002.796     59.10475     522.7751        19     1.220     0.807  55.95   0
       119     44.9390    866.4142 307.8966228  +6.3042300     1301.781     1804.724     1734.871     83.51985     167.5742     335.0817      1.435     3.15     1019.722     59.10475     212.3916        12     1.031     0.737  76.75   0
       120    784.1514    866.3094 307.5896301  +6.3290547     556.8899     701.6434     522.6305     84.05353     167.5075     335.4818      1.448     2.75     1006.824     59.10475     110.4503         6     0.725     0.618 -72.59   0
       121    354.7715    862.8522 307.7680731  +6.3161094     18661.75     25610.66     27514.14     83.78712     167.8409     335.2151      1.433     2.98     1018.596     59.10475     2893.731        37     1.326     0.998  62.80   2
       122     89.3971    863.7763 307.8782495  +6.3068146     1481.532     2136.008     2425.486     83.65359      167.374     335.1151      1.525     3.26     1019.547     59.10475     245.0134        14     1.181     0.732  58.29   0
       123    940.4147    864.2078 307.5248004  +6.3351380     415.4006     540.9431     887.8518     83.65359     167.4408     335.1485      0.871     3.15     1001.288     59.10475     94.24097         5     0.733     0.449  69.55   0
       124    225.7020    862.5305 307.8216860  +6.3119100     1449.306     1863.736     1609.779     83.92043     167.8409     335.3152      1.365     3.90     1019.873     59.10475     226.0156        14     1.169     0.859  82.77   0
       125    405.4940    861.9271 307.7470392  +6.3181924     734.4522      1106.51     1234.965     83.92043     167.8409     335.3485      1.702     4.11     1016.329     59.10475     128.7198         7     1.108     0.612 -71.22   0
       126    684.4197    854.6339 307.6314434  +6.3305426     606.2502     1191.907     1582.891     83.51985     167.5075     335.1151      2.255     5.26     1008.248     59.10475     123.7756         7     1.367     0.573  72.57   0
       127    432.3704    853.8058 307.7361511  +6.3224466     1198.673     1435.058     1240.396     83.51985     167.5075     335.1151      1.316     4.19     1015.304     59.10475     207.1535        13     1.255     0.719  43.87   0
       128    118.0069    853.5605 307.8667139  +6.3119946      2109.02     2767.294     2886.109     83.38589      167.374      335.015      1.433     3.12     1019.357     59.10475     314.1011        17     1.142     0.889  52.63   0
       129    513.0680    850.2525 307.7027563  +6.3266176     662.4925     864.0536      1313.26     83.92043     167.6409     335.2485      1.437     4.40      1013.33     59.10475     116.2979         8     0.997     0.582  65.66   0
       130    686.0860    849.5314 307.6309230  +6.3327052     1058.941       1460.5      1277.83     84.18642      167.974     335.3485      1.388     3.59     1008.067     59.10475     203.8859         8     0.919     0.597  49.04   0
       131    899.8237    847.7048 307.5422129  +6.3405982      2531.76     3295.064     3159.043     84.18642     167.4408     335.1818      1.369     3.40     1002.539     59.10475     364.9288        17     1.262     0.780  61.24   0
       132    833.8081    846.6041 307.5696683  +6.3388494     3691.195      4817.39     4635.816      83.3859      167.374     335.1485      1.361     2.96     1004.812     59.10475     586.9375        19     1.223     0.815  64.23   0
       133    101.3530    847.1569 307.8738467  +6.3140786     2696.107     4047.524     4477.063     84.05353     167.6409     335.2485      1.543     3.50     1019.275     59.10475     388.2272        20     1.327     0.867  49.38   0
       134    870.6023    847.3044 307.5543630  +6.3397884     2540.724     3199.325     3436.084     83.65359      167.374     334.9816      1.357     2.76     1003.741     59.10475     394.9166        16     1.106     0.789  51.75   0
       135    349.1843    844.9827 307.7709966  +6.3233002     833.2488     937.9484     585.2982     83.78712      167.374     335.2485      1.425     4.65     1018.637     59.10475     111.2629         9     1.071     0.676  75.15   0
       136    569.8648    838.0640 307.6795782  +6.3335520     381904.3     514658.9     533078.1     84.05353     167.7076     335.3485      1.409     3.12     1011.085     59.10475     58662.59       151     1.466     1.199  64.26   4
       137    657.7197    841.0469 307.6429896  +6.3352599     1494.122     1802.682     2189.453     84.05353     167.7076     335.3152      1.385     3.96     1008.308     59.10475     231.7155        14     1.299     0.713  80.09   0
       138    414.1019    840.6453 307.7441821  +6.3272682     9064.125     12187.31     12426.65     84.05353     167.5742     335.5152      1.426     2.99     1015.524     59.10475     1339.986        29     1.263     0.957  66.37   0
       139    357.2836    839.0353 307.7678336  +6.3260276     14053.25     19440.26     20252.15     84.05353     167.7076     335.2819      1.445     3.00      1018.32     59.10475     2142.583        36     1.320     1.014  62.70   0
       140    908.0792    834.1642 307.5392386  +6.3464647      6220.17     8164.028     8743.155     83.92043     167.7742     335.3152      1.331     2.69     1001.703     59.10475     1199.626        24     1.254     0.837  56.53   0
       141    675.6769    835.3072 307.6357246  +6.3382304     4098.808     5459.228     5612.713     83.78712      167.974     335.3152      1.421     2.92     1007.653     59.10475      584.717        20     1.140     0.868  63.00   0
       142    747.6167    832.1768 307.6059511  +6.3419277      882.254      1125.51     711.2048     83.78712     167.5742     335.2151      1.345     3.90     1006.734     59.10475     143.2878         7     0.845     0.601  60.54   0
       143    650.5186    829.4082 307.6463720  +6.3398247     3875.424     5069.411     5047.512     83.65359     167.3072     335.1485      1.392     2.87     1008.085     59.10475     572.4542        19     1.165     0.858  58.93   0
       144    838.8865    828.5898 307.5681641  +6.3464572     1902.905     2726.204     2671.369     83.65359      167.374     335.1485      1.512     3.31     1003.962     59.10475     297.2642        18     1.216     0.890  67.58   0
       145    759.8416    829.4502 307.6009654  +6.3434619     663.8104     798.2541     1082.569     84.18642     167.7076     335.3152      1.150     3.29     1006.277     59.10475     120.2942         5     1.143     0.275  55.84   0
       146    463.6435    844.5411 307.7234755  +6.3273201     632.3311     883.7383     1212.946     83.92043     167.6409     335.4152      1.443     4.14     1014.347     59.10475     100.6624         5     0.988     0.495   4.03   0
       147    193.1823    829.7605 307.8362988  +6.3243480     574.2073     788.7521     254.0633     83.65359     167.5075     335.0817      1.337     3.40     1019.267     59.10475     89.62158         5     0.957     0.349  44.06   0
       148    640.9781    828.3049 307.6503716  +6.3399611      1009.24     1405.026      2070.38     84.05353     167.5075     335.1485      1.465     3.51     1008.323     59.10475     169.3655        10     1.003     0.696  48.31   0
       149    965.7160    827.1599 307.5155347  +6.3512792     943.8107     1395.221     1830.523     84.05353     167.6409     335.2485      1.511     3.46      999.377     59.10475     166.2991         8     1.095     0.553  55.45   0
       150    643.3409    823.9322 307.6495374  +6.3418457     2372.032     3344.626     4007.871     84.18642     167.6409     335.3152      1.523     3.02     1008.124     59.10475     333.4695        18     1.167     0.870  66.36   0
       151    927.0266    822.1359 307.5317726  +6.3520634      3943.73     5168.109     4933.333     83.65359     167.6409     335.2151      1.342     2.74     1000.559     59.10475     699.5778        22     1.161     0.958  52.99   0
       152    337.2357    822.9518 307.7767025  +6.3319957     1135.369     1522.063     799.9506     83.92043     167.7076     335.2485      1.489     4.83     1018.679     59.10475     141.0111        11     1.051     0.778  53.82   0
       153    385.2081    818.0205 307.7569453  +6.3356410     2866.174     4105.408      4336.94     83.51985     167.4408     335.0817      1.455     3.47     1016.649     59.10475     455.7159        21     1.223     0.950  53.42   0
       154    521.4163    807.8040 307.7007194  +6.3444241     3577.835     4721.536     4664.885     83.65359     167.3072     335.1485      1.408     3.15     1011.503     59.10475     509.9404        19     1.165     0.859  59.63   0
       155    865.9493    806.8356 307.5576544  +6.3563430      1237.33     1665.902     1952.517     83.92043     167.6409     335.2485      1.378     3.36     1002.225     59.10475     187.1846         9     0.923     0.679  65.21   0
       156    586.4046    805.3160 307.6738115  +6.3476272     831.8197     1142.417     1499.811     83.51985     167.3072     334.9816      1.488     4.45     1009.128     59.10475     152.8823         9     1.151     0.615  63.37   0
       157    568.3031    803.9384 307.6813760  +6.3475902     6958.401     9311.593     10330.68     83.78712     167.7742     335.3819      1.409     2.89     1009.744     59.10475      1046.54        24     1.214     0.906  61.76   0
       158    575.0945    803.1859 307.6785807  +6.3481282     1381.411     1864.205     2555.404     83.78712     167.4408     335.1485      1.380     3.62     1009.448     59.10475     205.9933        12     1.071     0.719  77.59   0
       159    486.1563    802.7590 307.7155338  +6.3453261     1624.659     2190.906     1961.318     83.78712     167.7076     335.2151      1.397     3.74     1012.427     59.10475     227.3043        12     1.104     0.728  61.02   0
       160    280.1154    803.9697 307.8010662  +6.3379163     852.9839     1160.586      974.348     84.05353     167.5075     335.1818      1.495     4.47     1019.252     59.10475     122.7261         7     1.022     0.555  34.50   0
       161    127.6250    802.2607 307.8644548  +6.3334989     1510.675     2179.283     2429.874     83.65359     167.7076     335.2151      1.603     4.11     1018.648     59.10475     244.3831        16     1.296     0.880  67.89   0
       162    903.8264    802.0275 307.5420836  +6.3595923     1652.027     2194.102     2218.429     83.51985     167.5075     335.1485      1.336     3.33     1000.711     59.10475     295.8558        11     1.095     0.658  54.92   0
       163    703.8608    800.8446 307.6251781  +6.3534024     765.4059     1000.614     832.2524     83.92043     167.7076     335.4485      1.358     3.09     1006.312     59.10475     115.2657         6     0.724     0.584  41.60   0
       164    538.9550    797.7611 307.6937734  +6.3491582     22269.62     30402.82     31184.77     83.78712     167.7076     335.2151      1.429     3.08     1010.511     59.10475     3277.005        40     1.340     1.013  61.12   0
       165    380.0713    799.5597 307.7597016  +6.3430911     954.1708     1100.967     797.2751     83.92043     167.7076     335.3819      1.404     5.11     1016.659     59.10475     134.0535         9     1.025     0.720  35.17   0
       166    952.5541    796.0366 307.5220456  +6.3636914     4684.743     5878.317     5853.621     83.78712     167.7076     335.2151      1.297     2.92     999.0625     59.10475      730.845        18     1.175     0.765  68.12   0
       167     72.6264    794.2554 307.8875668  +6.3349546      693.139     938.3497     1030.576     83.65359     167.7742     335.1485      1.215     4.46     1018.934     59.10475     116.8174         7     1.193     0.475  48.41   0
       168     49.3857    788.0665 307.8974282  +6.3367280     1683.373     2133.834     1979.353     83.51985     167.5742     335.2485      1.357     3.06     1019.264     59.10475     300.4574        13     1.045     0.753  54.93   0
       169    331.5627    786.4178 307.7802918  +6.3468900     3650.977     4701.826     4528.854     83.65359     167.5742     335.0484      1.430     3.09     1017.849     59.10475     498.3824        20     1.260     0.858  67.10   0
       170    797.1127    782.3157 307.5870692  +6.3641691     64211.51     84920.89     88025.63     83.78712     167.9074     335.3819      1.385     2.98     1003.362     59.10475     10281.01        61     1.378     1.004  63.59   0
       171     31.6755    784.4282 307.9049064  +6.3376343     2600.266     3672.524     3640.749     83.92043     167.7076     335.2819      1.508     3.20     1019.508     59.10475     368.3139        19     1.193     0.873  64.96   0
       172    735.8044    784.0529 307.6124752  +6.3614035     694.4844      1066.69     1214.916     83.38589     167.4408     334.9149      1.758     4.68     1005.243     59.10475     127.6631         7     1.281     0.485  46.09   0
       173    440.4825    781.1712 307.7352313  +6.3527091     898.4875     1320.086     765.6937     83.92043     167.5075     335.2485      1.337     4.01     1013.192     59.10475     171.7207         7     0.981     0.489 -83.05   0
       174    253.9159    758.8105 307.8134729  +6.3556825     759596.6      1679364      1829673     83.65359     167.4408     335.1485      2.199     3.88     1018.585     59.10475     63194.51       593     2.834     1.975  87.13   4
       175    725.3909    776.9233 307.6170402  +6.3639993     24831.74     33792.09     35756.19     83.65359     167.1735     335.1151      1.415     2.91     1005.068     59.10475     3928.354        45     1.383     1.015  64.76   3
       176    719.0849    773.3993 307.6197779  +6.3652436     101627.7     135961.6     141135.5     83.25173     167.1735     334.9816      1.398     3.00     1004.983     59.10475     15937.52        70     1.364     1.071  68.12   3
       177    363.9824    774.3052 307.7672359  +6.3529789     22530.52     31272.64     32108.92     83.92043     167.5075     335.1485      1.466     3.06      1016.04     59.10475     3501.561        44     1.367     1.040  64.49   0
       178    223.4772    775.6296 307.8255465  +6.3477157     597.6369     1000.381     1262.983     83.92043     167.7742     335.3485      1.960     4.47     1018.826     59.10475     79.21252         7     1.414     0.402  54.18   0
       179    425.8196    772.0870 307.7416277  +6.3559684     24446.62     34176.63     35486.93     83.78712     167.4408     335.2151      1.469     3.14     1013.354     59.10475     3667.037        45     1.368     1.069  66.32   0
       180    413.4262    774.4347 307.7466959  +6.3545836     1571.892     2316.106     2128.787      83.3859     167.4408     335.0817      1.602     4.93     1013.889     59.10475     221.3333        17     1.496     0.814  44.66   0
       181    652.9976    773.7162 307.6472165  +6.3629030      1044.74     1652.881       1946.4     83.38589     167.3072     334.9816      1.623     3.97     1006.196     59.10475     146.4523        11     1.036     0.784  53.02   0
       182    962.8426    770.9726 307.5186131  +6.3743836     2655.246     3379.811     3049.784     83.65359     167.7076     335.1818      1.328     3.08     998.0099     59.10475     408.0685        15     1.020     0.786  56.74   0
       183    919.3200    769.0269 307.5367559  +6.3737354     8040.633     10323.23     10634.31     83.92043     167.5075     335.3485      1.332     2.81     999.3553     59.10475     1354.184        21     1.175     0.826  66.30   0
       184    891.9538    769.6451 307.5481020  +6.3725671     774.0679     991.3017     902.9135     84.05353     167.6409     335.3152      1.483     4.30     1000.322     59.10475     128.7272         7     1.071     0.493  46.24   0
       185    659.9304    767.9782 307.6445301  +6.3655041      7265.88     9696.138     10220.69     83.65359     167.6409     335.2819      1.392     3.01     1005.854     59.10475     1140.753        27     1.245     0.924  70.32   0
       186    149.9330    768.3954 307.8563354  +6.3482314     615.4172     876.6821     883.8188     83.51985      167.374     335.1151      1.403     5.43     1018.331     59.10475     89.03217         8     1.380     0.603 -66.80   0
       187    448.5656    766.0228 307.7323850  +6.3592348     1948.478     2696.124      2469.75     83.51985     167.4408     335.0817      1.387     3.62     1012.405     59.10475     271.7863        14     1.145     0.842  71.46   0
       188    173.7500    765.4916 307.8465419  +6.3502309     1079.701     1407.037     1053.603     83.92043     167.5742     335.5152      1.446     3.98     1018.361     59.10475     168.1145        11     1.173     0.675  55.64   0
       189    922.3723    777.5331 307.5352026  +6.3703250     10370.23     13416.65     13631.17     83.65359     167.6409     335.2485      1.343     2.79     999.4794     59.10475     1673.388        28     1.231     0.887  60.53   0
       190    613.0443    760.0568 307.6642708  +6.3672063     1023.898      1583.87     1660.336     84.05353     167.7076     335.3152      1.500     5.44     1006.615     59.10475     163.8381        11     1.420     0.672  66.23   0
       191    887.9853    759.9907 307.5500745  +6.3764211     751.0593     1244.206     1367.121     83.78712     167.4408     335.2151      1.379     3.97     1000.218     59.10475      127.363         7     0.905     0.511  49.92   0
       192    164.4171    758.7643 307.8506456  +6.3526948     997.7025     1370.694     1713.865     83.51985     167.5075     335.0817      1.387     4.09     1018.238     59.10475     158.1107        11     1.211     0.667  73.97   0
       193    694.9946    758.1195 307.6302977  +6.3707473     2756.083     3528.675     3551.307     83.65359     167.2404     335.0817      1.321     2.74     1004.821     59.10475     445.9884        16     1.164     0.765  76.38   0
       194    428.7792    754.7891 307.7409819  +6.3632099      57929.9     82280.68     85188.91     83.65359      167.374     335.1485      1.493     3.13       1012.7     59.10475      8483.74        69     1.444     1.164  68.82   0
       195    139.2288    758.6490 307.8611107  +6.3518957     1154.623     1492.095     1280.569     83.65359     167.7742     335.2151      1.298     3.14     1018.273     59.10475     213.2551        11     1.046     0.668  52.80   0
       196    971.7117    756.5958 307.5154114  +6.3806156     780.8481     1102.613     1661.047     83.51985      167.374     334.9816      1.757     3.65     997.2699     59.10475      149.979         9     1.038     0.584  81.57   0
       197    546.5396    753.7780 307.6921049  +6.3675727      7928.33     10772.75     10844.31     83.65359     167.6409     335.2485      1.447     3.03     1008.169     59.10475     1156.929        28     1.263     0.972  55.55   0
       198    463.2697    752.4360 307.7267359  +6.3653375     5156.637     7150.524     7852.792     83.92043     167.7742     335.3819      1.512     3.06     1011.483     59.10475     753.3102        22     1.252     0.907  70.02   0
       199    791.7098    750.4406 307.5903845  +6.3771501      13635.2     17790.77     18498.37     84.05354     167.7076     335.3485      1.376     2.89     1002.079     59.10475     2030.983        31     1.265     0.917  65.48   0
       200    469.9326    750.2627 307.7240418  +6.3664581     499.5351     707.9985     1407.712     84.05353     167.7076     335.3152      1.351     3.89     1011.187     59.10475     86.14331         5     0.856     0.506 -55.33   0
       201    459.9660    745.9039 307.7283283  +6.3679239     2615.165     3546.025     3581.799     84.18642     167.5742     335.4485      1.399     3.21     1011.384     59.10475     410.1003        18     1.194     0.840  68.83   0
       202     21.1035    746.4848 307.9105818  +6.3529446     1249.181      1739.16     2021.804     84.05353     168.1071     335.3819      1.557     3.02      1019.61     59.10475     232.0739        10     1.045     0.634  71.22   0
       203    813.3208    744.7574 307.5815991  +6.3802185     1412.967     1904.144     2309.429     83.92043     167.7076     335.3152      1.366     3.62     1001.436     59.10475     232.4869        10     1.028     0.645  57.97   0
       204    157.6389    742.7183 307.8540033  +6.3590922     3241.438     4352.243     4047.037     84.05354     167.7742     335.2485      1.486     3.32      1018.07     59.10475     472.6319        20     1.230     0.922  75.47   0
       205    149.5710    742.4043 307.8573648  +6.3589506     12736.25     18053.25     18689.88     83.51985     167.5075     335.1485      1.554     3.22     1018.088     59.10475     1673.452        38     1.393     1.062  59.33   2
       206    141.7826    739.9649 307.8606820  +6.3596960     3113.621     4715.529     5638.871     83.51985     167.5075     335.0817      1.645     4.03     1018.098     59.10475        469.1        22     1.415     0.907  58.33   3
       207    141.7007    733.5132 307.8609342  +6.3623571     2142.587     2877.817     3187.451     84.05354     168.1735     335.3819      1.491     3.45     1017.954     59.10475      291.001        18     1.140     0.987  55.85   2
       208    986.3580    739.0031 307.5099180  +6.3883682     1824.599     2270.363     2829.604     83.38589      167.374      335.015      1.287     3.37     996.1665     59.10475     299.8873        14     1.169     0.715  58.13   0
       209    937.1729    738.9927 307.5303485  +6.3867323     7581.164     9909.455     10045.41     83.51985     167.5075     335.1151      1.360     2.84     997.9464     59.10475     1341.444        24     1.194     0.869  58.25   0
       210    692.8235    736.6782 307.6319208  +6.3795279     1960.289     2834.333     3369.458     83.65359     167.5075     335.2819      1.434     3.09     1004.112     59.10475     282.0463        13     1.070     0.736  64.44   0
       211    579.6321    735.8558 307.6789635  +6.3760807     2608.873      3600.21     3734.072     83.92043     167.7076     335.2819      1.529     3.35     1006.562     59.10475     366.6977        18     1.204     0.876  61.32   0
       212    427.6212    735.2997 307.7421202  +6.3712181     1271.567      1995.28     2198.836     84.05354     167.4408     335.0817      1.803     4.43     1012.028     59.10475     169.4607        15     1.212     0.903  82.83   0
       213    960.8373    730.5016 307.5208038  +6.3910276     3672.294     4756.982     5018.817     84.05354     167.5742     335.5152      1.335     3.16     996.7777     59.10475     571.4901        17     1.112     0.861  73.13   0
       214    931.3719    730.9893 307.5330266  +6.3898435     3578.717     4537.598     4514.748     83.65359     167.5075     335.1818      1.304     2.97     997.8284     59.10475     561.4228        18     1.109     0.858  57.85   0
       215    991.6638    730.4337 307.5080015  +6.3920835     2369.788     3173.249     3205.898     83.92043     167.7742     335.2819      1.453     2.90     995.6614     59.10475     357.2478        15     1.103     0.766  44.15   0
       216    683.8292    730.4486 307.6358663  +6.3817994     1723.406     2140.385     2129.968     83.65359     167.7742     335.2151      1.367     3.14     1004.074     59.10475     268.6426        14     1.067     0.808  47.30   0
       217    831.1472    728.2335 307.5747497  +6.3876366     1145.711     1357.064     825.3495     83.92043     167.6409     335.2485      1.319     3.34     1000.627     59.10475     195.9374        11     1.045     0.756  55.92   0
       218    906.4329    726.3383 307.5435418  +6.3909320     852.2753     1094.786     1378.301     83.78712     167.7742     335.2485      1.460     4.09     998.5224     59.10475     145.1516         8     1.010     0.574  48.47   0
       219    256.4380    725.1865 307.8135614  +6.3696502     1961.722     2475.648     2966.816     83.65359     167.5075      335.015      1.421     3.48     1017.498     59.10475     258.7693        15     1.068     0.878  68.04   0
       220    949.2873    720.4943 307.5259372  +6.3947745     1151.656      1479.69     1503.403     84.05354     168.1735     335.3819      1.317     3.45     996.7318     59.10475     207.4424         9     1.083     0.589  79.25   0
       221    276.8788    720.6267 307.8052256  +6.3722193      726.646     996.4943     824.5479     83.92043     167.6409     335.2819      1.527     4.37     1017.235     59.10475     104.0911         7     1.072     0.507  44.69   0
       222    171.9780    720.3571 307.8488040  +6.3688068      935.631      1226.78     1033.482     83.51985     167.5742     335.1151      1.448     4.59     1017.145     59.10475     135.8375         9     0.938     0.673  65.61   0
       223    975.7624    718.2750 307.5150145  +6.3965738     3114.374     4012.244      4740.58     83.92043     167.7742     335.3485      1.289     3.14     995.7975     59.10475     480.6124        17     1.161     0.763  66.28   0
       224    922.8713    719.4802 307.5369439  +6.3943122     1376.952     1653.519     1610.156      84.3191      167.974     335.3485      1.289     2.60     997.5557     59.10475     235.0232        11     0.955     0.686  69.67   0
       225    983.7563    718.0335 307.5117020  +6.3969400     513.2296     786.5638     1670.668     83.65359     167.7076     335.1818      1.393     3.88     995.5459     59.10475       89.302         5     0.832     0.519  37.09   0
       226    695.7553    716.9988 307.6313651  +6.3877517     943.5423     1459.391     2358.311      83.3859     167.3072     334.8815      1.588     3.58     1003.253     59.10475     160.1152        11     1.064     0.780  28.38   0
       227   1017.6434    711.6808 307.4978390  +6.4006927     2044.715     2509.289     2598.905     84.05354     167.7076     329.8363      1.248     2.97     994.3353     59.10475     342.2638        13     1.087     0.687  69.98  16
       228    486.6049    712.9615 307.7183744  +6.3824184     784.5854     1041.366      1013.69     83.11734     167.4408     335.0484      1.226     4.17     1008.826     59.10475     145.8502         7     0.795     0.623  69.63   0
       229    416.4787    713.0644 307.7474983  +6.3800255     620.3673     702.2325     738.0618      84.3191     167.7742     335.2819      1.325     4.20     1011.136     59.10475     101.6694         5     0.760     0.664 -13.38   0
       230    643.6238    711.1219 307.6532166  +6.3884347     681.8224     948.0015     468.4912     83.65359     167.5075     335.2819      1.657     4.82     1004.382     59.10475     99.78424         8     1.167     0.563  54.42   0
       231    818.8892    710.1356 307.5804494  +6.3947000     1376.742     1792.385     1872.111     83.92043     167.9074     335.3485      1.332     3.00     1000.317     59.10475     246.4163        12     1.114     0.663  71.13   0
       232    905.1766    707.5327 307.5446949  +6.3986551     1778.199     2419.088     2291.521     83.65359     167.6409     335.2485      1.362     2.87     997.7637     59.10475     310.4052        12     1.076     0.668  50.33   0
       233    879.3431    702.6342 307.5555901  +6.3998156     994.9012     1265.772     1646.431     83.92043     167.7076     335.3152      1.400     4.38     998.6089     59.10475     147.9637         8     1.002     0.544  67.03   0
       234    862.0528    698.8372 307.5628997  +6.4008063     1642.619     2163.497     1742.968     83.92043     167.7076     335.3485      1.330     3.39      999.095     59.10475     272.9763        13     1.158     0.780  72.93   0
       235     61.3684    697.9123 307.8955034  +6.3743544     2804.811     3989.777     4258.709     84.18642     167.5075     335.2485      1.493     3.16     1018.301     59.10475     384.0961        20     1.298     0.858  69.96   0
       236    124.9153    696.1774 307.8691687  +6.3772082     1023.176     1782.377     1684.303     83.92043     167.4408     335.2151      1.796     6.39     1016.964     59.10475      152.882        14     1.648     0.696  69.98   0
       237    473.7298    696.6139 307.7242734  +6.3887368      537.488     955.3292     841.6793     83.51985     167.5075     335.2151      1.874     4.82      1008.36     59.10475     80.11139         5     1.040     0.633  62.57   0
       238    578.9576    692.8831 307.6806909  +6.3938016     669.6051     964.4554     692.0596     84.05353     167.7076     335.2485      1.500     5.25     1005.529     59.10475      105.377         7     1.260     0.618  -1.77   0
       239    673.8604    686.3461 307.6414909  +6.3996761     6862.749     9640.588     9972.556     84.18642     167.6409     335.2819      1.497     3.11     1002.573     59.10475     964.7573        28     1.350     0.954  65.99   0
       240    620.4957    685.6205 307.6636817  +6.3981905     1524.581       2179.1      2097.64     83.92043     167.5075     335.1151      1.524     2.99     1004.401     59.10475     239.0029        13     0.974     0.850  64.28   0
       241    542.3842    685.8682 307.6961188  +6.3954736     730.5929     1136.675     921.7177     83.51985     167.6409     335.2151      1.655     4.21     1006.086     59.10475      118.873         6     0.781     0.648  33.13   0
       242    531.1958    686.0216 307.7007609  +6.3950355     801.6123     1049.139     655.0671     83.65359     167.4408     335.0817      1.443     3.10     1006.345     59.10475     127.4504         6     0.865     0.482  58.31   0
       243    136.9404    682.2798 307.8646443  +6.3833506     3980.038     5716.896      5845.89     84.18642     167.7076     335.2485      1.523     3.19     1016.109     59.10475     643.3463        23     1.277     0.940  69.51   0
       244    647.5958    681.9879 307.6525473  +6.4005971     2273.079     3280.224     3439.995     83.65359      167.374     335.1818      1.452     3.21     1003.316     59.10475     315.6718        15     1.156     0.756  55.61   0
       245   1010.8881    681.5251 307.5016564  +6.4129191     3133.169     4004.217     4078.513     84.05353     168.0405     335.4152      1.366     3.21     993.7823     59.10475     463.0232        16     1.209     0.723  49.07   0
       246    323.5823    681.7157 307.7871414  +6.3898530     704.1326     1140.081     1108.748     83.65359      167.374     335.2485      1.341     4.55     1013.194     59.10475     115.5912         7     1.235     0.475  51.00   0
       247    790.6961    678.4255 307.5932259  +6.4068516     23673.91     30868.03     31276.37     84.18642     167.4408     335.1818      1.394     2.85     1000.068     59.10475     3366.614        37     1.295     0.947  63.94   0
       248    920.7552    678.1620 307.5392097  +6.4113022     4262.574     5569.121     5607.659     83.78712     167.6409     335.2151      1.351     2.94     995.7201     59.10475     651.8006        23     1.218     0.854  58.07   0
       249    473.3378    680.1285 307.7249920  +6.3955305     621.3628     841.0431     930.8111     84.18642     167.7076     335.3819      1.470     4.87      1007.43     59.10475     88.98126         7     1.194     0.562  34.59   0
       250    518.1462    678.1522 307.7064466  +6.3978477     900.3059     1320.671     1409.395     84.05353     167.7076     335.3485      1.514     5.18     1006.333     59.10475     127.6584        12     1.154     0.794  56.92   0
       251    489.9054    678.6498 307.7181602  +6.3966962     1424.037     1956.172      2108.77     83.92043     167.5742     335.4818      1.418     3.33     1006.942     59.10475      183.197        11     0.977     0.725  65.50   0
       252    335.7983    677.9642 307.7821940  +6.3918119      680.541     801.5373     453.3618     83.11735     167.5075     335.1151      1.300     3.89     1012.481     59.10475       116.46         6     0.893     0.486  59.65   0
       253    292.6904    678.0903 307.8000950  +6.3903131     582.9334     962.2152     278.4068     84.05353       168.24     335.4152      1.638     4.64     1014.301     59.10475     122.2079         6     1.233     0.572   2.96   0
       254    264.2707    672.0753 307.8121025  +6.3918424     6528.179     9368.594     9398.876     84.31911     167.8409     335.3152      1.535     3.28     1014.146     59.10475     904.3951        29     1.327     1.007  62.80   0
       255     99.9398    673.9653 307.8802937  +6.3855393     570.6638     712.2923     765.0153     84.05353     167.7076     335.2819      1.364     3.61     1017.405     59.10475     90.81128         5     0.995     0.377  32.24   0
       256    671.2335    671.2463 307.6430902  +6.4058230     7678.753     10597.36     10823.43     83.78712     167.7076     335.2485      1.440     3.03     1002.065     59.10475     1165.125        26     1.252     0.954  64.95   0
       257    653.4700    672.1959 307.6504369  +6.4048367     977.6326     1344.241     687.9586      83.3859     167.3072     335.1485      1.349     4.19     1002.781     59.10475     130.1225        11     1.079     0.767  24.87   0
       258    366.1113    670.5837 307.7698523  +6.3958763     678.5877     982.7886     1281.888     83.78712     167.4408     335.1485      1.539     5.56     1010.908     59.10475     113.2691         8     1.095     0.795  40.48   0
       259    931.0479    663.8140 307.5354159  +6.4175700     1537.802     1848.476     1836.214      83.3859     167.6409      335.015      1.207     2.92     994.9068     59.10475     275.4276        10     0.919     0.673  71.60   0
       260    742.9970    659.7095 307.6136688  +6.4129858     4026.526     5711.521     6113.201     83.38589      167.374     335.0484      1.505     3.29     1000.007     59.10475     579.1263        24     1.371     0.935  72.52   0
       261    947.7830    656.9650 307.5286940  +6.4209562     2682.397     3601.281     3837.775     83.65359     167.5075     335.0817      1.359     3.14     994.3653     59.10475     428.7667        18     1.253     0.780  56.14   0
       262      8.9468    659.1732 307.9185879  +6.3885848     530.8182     769.3486     681.0696     83.78712     167.8409     335.2485      1.311     5.05     1018.585     59.10475     89.18811         8     1.271     0.568  26.38   0
       263   1009.2343    656.3048 307.5031893  +6.4232777     10575.27     13643.62     13508.91     84.18642     167.5742     335.4152      1.342     2.86     992.8749     59.10475     1830.115        28     1.219     0.899  61.25   0
       264    698.0496    660.1285 307.6323253  +6.4113103     1151.499     1665.935     1349.047     84.05353     167.7076     335.3485      1.516     3.78     1000.955     59.10475     166.0374        12     1.039     0.820  20.25   0
       265     28.0506    655.9910 307.9107610  +6.3905417     1913.475     3324.812     3720.298     83.51985     167.5742     334.9816      1.945     4.93     1018.166     59.10475     302.0027        23     1.584     1.115   8.24   0
       266    561.6964    654.3367 307.6891593  +6.4091395     840.5863     1075.696      897.556     83.92043     167.8409     335.3485      1.580     4.79      1004.45     59.10475     127.4046        10     1.119     0.844  75.38   0
       267    445.2112    654.4107 307.7375422  +6.4052066     555.0919     732.8542     289.3419     83.78712     167.5075     335.3152      1.629     5.07     1007.388     59.10475     78.00159         5     1.013     0.718 -81.74   0
       268     86.7077    651.1141 307.8865630  +6.3945291     27341.01      39817.8     41043.26     83.92043     168.1735     335.4152      1.558     3.22     1016.578     59.10475     4188.302        50     1.463     1.103  68.96   0
       269    547.7468    651.9335 307.6950347  +6.4096647      2057.81     2921.244     3372.193     84.05353     167.6409     335.2485      1.492     2.99     1004.703     59.10475     364.8805        15     1.047     0.856  66.99   0
       270    516.5963    649.2159 307.7080656  +6.4097435     1468.827       2064.5     2039.718     83.65359     167.3072     335.1485      1.482     3.18     1005.401     59.10475     213.2941        15     1.068     0.909  51.11   0
       271    937.7730    648.6010 307.5331328  +6.4240759     1102.273     1472.385     1454.256     83.65359      167.374     335.1151      1.260     3.40     994.4289     59.10475     227.5865         8     1.030     0.481  57.55   0
       272    556.9810    645.9592 307.6914002  +6.4124407     1150.773     1465.828     1139.863     83.65359     167.5075      335.015      1.344     3.53     1004.205     59.10475     161.0126        11     1.012     0.717   9.00   0
       273    732.6118    643.3290 307.6185336  +6.4194023     3863.579     5343.143     5566.827     83.51985      167.374     335.1151      1.467     3.18     999.4778     59.10475     539.7308        22     1.233     0.908  62.61   0
       274    754.6388    641.5900 307.6094421  +6.4208565     4507.148     6048.486     5815.392      83.3859     167.5075      335.015      1.432     3.29     999.2284     59.10475     634.4868        21     1.224     0.911  70.06   0
       275    586.2207    639.6516 307.6794669  +6.4160240     3519.049     5026.438      4894.33     83.51985     167.7742     335.1151      1.525     3.57       1003.1     59.10475     528.0001        20     1.271     0.917  82.86   0
       276    422.4497    640.1974 307.7474763  +6.4103122     1333.653     1896.364     2353.152      83.3859     167.3072     334.8815      1.700     3.45     1007.526     59.10475     186.1341        13     1.059     0.809  75.28   0
       277    246.7200    639.2234 307.8205025  +6.4048172     2001.859     3005.332      2626.32     83.65359      167.374     335.2819      1.618     3.49      1012.59     59.10475      289.355        18     1.213     0.922  80.06   0
       278    330.2837    638.5294 307.7858161  +6.4079093     1605.502     2082.842     2042.544     84.31911      167.974     335.3485      1.452     3.27     1010.684     59.10475     253.4164        15     1.126     0.842  38.65   0
       279    992.8714    636.6020 307.5106473  +6.4308677     9679.819     12653.25     12564.69     83.51985     167.2404     335.1485      1.343     3.03     992.5454     59.10475     1577.094        27     1.229     0.902  68.37   0
       280    546.6976    636.9975 307.6959737  +6.4157967     647.9611     723.6641     771.0082     83.65359     167.4408     334.9816      1.091     3.29     1004.089     59.10475     104.8209         7     0.744     0.654  81.95   0
       281    712.8750    635.4818 307.6269961  +6.4219827     1018.234      1500.56     1904.396      84.3191      167.974     335.3819      1.478     4.30     999.5948     59.10475     143.6484         9     1.091     0.577  63.80   0
       282    104.3768    633.5031 307.8798200  +6.4023948     947.4301     1300.128     897.6359     84.18642     167.4408     335.1151      1.468     3.06     1015.245     59.10475     161.2922         8     0.848     0.710  51.01   0
       283    438.2197    630.9692 307.7412370  +6.4146511     3064.145     4554.588     5199.832     83.51985     167.5075     335.1818      1.572     3.48      1006.91     59.10475     451.3497        21     1.240     0.973  63.21   0
       284    151.4520    630.0556 307.8603835  +6.4054012     25216.04     36565.24     37507.93     84.05353     167.7076     335.2819      1.556     3.31     1014.227     59.10475     3476.206        45     1.426     1.097  66.28   0
       285    819.7586    630.6559 307.5827589  +6.4275467     1344.923     1957.871     2100.257     83.92043     167.6409     335.3485      1.475     3.27     997.8628     59.10475     183.3308        11     0.992     0.701  73.09   0
       286    370.6956    624.8959 307.7694902  +6.4148943     839.4373     1287.168     1297.428     84.05353     168.3728     335.1485      1.595     3.93     1008.804     59.10475      133.314         8     0.847     0.687  -5.53   0
       287    987.7205    619.5770 307.5133582  +6.4377258     8074.911     11603.29      12299.7     83.65359      167.374     335.2819      1.527     3.31     992.0787     59.10475     1290.531        33     1.559     0.889  53.89   0
       288     32.6936    618.8886 307.9100890  +6.4060169     1113.825     1602.239     765.3625     84.05353     168.1735     335.3819      1.347     4.00     1017.635     59.10475     180.0897        10     1.107     0.601  69.40   0
       289    581.4016    614.8430 307.6823044  +6.4261062     51646.13     73668.66      76636.1      83.3859      167.374     334.9816      1.521     3.15     1001.912     59.10475     6790.001        64     1.435     1.148  62.87   0
       290    945.9662    616.0197 307.5308228  +6.4378023      768.936     1150.674     868.7325     83.51985     167.5075     335.1151      1.489     4.97     993.4276     59.10475      105.217         8     1.008     0.692  62.31   0
       291    540.3796    614.9915 307.6993397  +6.4246714     731.2199     886.2907     832.7053     83.65359     167.4408     335.0817      1.468     4.95     1003.424     59.10475     119.2189         8     1.163     0.595 -11.71   0
       292    805.9368    614.1497 307.5890553  +6.4339006     630.6777     685.7828      703.521     84.05353     167.6409     335.3819      1.206     3.07     997.8842     59.10475      113.205         5     0.777     0.506  58.53   0
       293    188.9056    611.5013 307.8454540  +6.4143209     2961.661     4507.771     4904.013     84.05353     168.3064     335.1485      1.658     3.44     1012.997     59.10475     440.0197        22     1.298     0.979  53.42   0
       294    992.2452    611.2308 307.5117586  +6.4413229     779.2139     1112.752       1183.2     83.65359     167.7742     335.1818      1.474     5.05     991.6055     59.10475     121.4904         9     1.057     0.682  70.19   0
       295    511.7605    611.7744 307.7113363  +6.4250411     711.3878     1034.449     1568.779     83.65359     167.5075     335.1151      1.678     3.48     1004.447     59.10475       108.61         5     0.722     0.708 -84.75   0
       296     81.6775    605.7430 307.8901881  +6.4130928     1553.976     2369.864     2266.638     84.05354     167.6409     335.2819      1.636     3.92     1014.804     59.10475     220.1578        16     1.291     0.868  62.57   0
       297    478.6652    598.6583 307.7255261  +6.4293478     66655.46     96223.97     99465.78     84.18642     167.6409     335.3485      1.575     3.16     1005.275     59.10475     8778.012        69     1.454     1.185  66.67   0
       298     22.3734    600.2499 307.9150069  +6.4133651     1676.025     2461.827     2480.537     83.65359     167.7742     335.2485      1.518     3.41     1017.817     59.10475     264.7276        16     1.168     0.859  75.57   0
       299    664.5924    596.1924 307.6483748  +6.4365908     985.7844     1468.808     1742.893      83.3859     167.5075     335.1818      1.585     3.05     999.0026     59.10475     162.7548         9     0.865     0.746  67.55   0
       300    153.2705    593.7939 307.8608547  +6.4204343     1656.826     2554.893     1993.362     83.51985     167.3072     335.1818      1.650     3.95     1013.497     59.10475     231.7023        17     1.201     0.933  70.02   0
       301    431.9396    591.1469 307.7451890  +6.4308830     848.4933     1173.405     1477.639     84.05353     167.6409     335.3152      1.399     3.87     1005.912     59.10475     138.5438         8     1.033     0.643  48.35   0
       302    948.4111    591.0328 307.5306458  +6.4482011      733.892     838.9341     723.9606     83.51985     167.4408     335.1485      1.303     4.99     992.3247     59.10475     114.7366         8     1.094     0.645  56.20   0
       303    624.5645    590.4420 307.6651962  +6.4376260     1120.108     1772.255     1793.774     83.78712     167.7076     335.1485      1.792     5.96     999.4058     59.10475     132.6337        13     1.326     0.862  17.86   0
       304    324.0346    587.9228 307.7901208  +6.4285946      1959.85     2944.421     3167.256     83.92043     167.7742     335.3152      1.592     4.00     1008.525     59.10475     260.5876        18     1.320     0.861  56.92   0
       305    476.1986    586.4088 307.7269638  +6.4343229     896.5371     1158.401     1908.328      83.3859      167.374     335.0817      1.535     4.81     1004.805     59.10475      112.084        11     1.070     0.833 -66.93   0
       306    750.6598    582.0903 307.6130959  +6.4452913      5667.12     7652.227     7441.083     83.92043     167.7076     335.3819      1.424     3.22     997.3386     59.10475       812.63        24     1.289     0.866  59.27   0
       307    804.2494    577.4054 307.5909913  +6.4490162     15620.35     21272.44     22083.97      83.3859     167.5075     334.9149      1.456     3.04     996.1726     59.10475     2397.639        38     1.347     1.014  54.26   0
       308    546.6567    577.4568 307.6979970  +6.4403796     1326.048     1935.154     2300.098     84.18642     167.7076     335.3819      1.636     5.10     1001.564     59.10475     150.6319        14     1.195     0.847  85.05   0
       309   1021.5708    577.7708 307.5006985  +6.4561163     1223.013     1543.353      903.571     83.51985     160.7649     285.9009      1.327     3.97     989.4967     59.10475     190.4781        10     1.071     0.643  46.95  16
       310    628.1285    575.6168 307.6642149  +6.4438666     3065.294     4247.106     4106.053     83.51985     167.6409     335.2151      1.451     3.29     998.7552     59.10475     412.3196        19     1.189     0.877  57.66   0
       311     49.2468    576.8036 307.9046386  +6.4239502     761.2486     1024.249     1227.076      83.3859     167.4408     334.9483      1.252     3.19     1015.891     59.10475     147.1725         5     0.905     0.348  48.04   0
       312    945.2860    571.5804 307.5325970  +6.4561289     1318.839     1780.096     2254.157     83.65359     167.4408     335.2151      1.544     3.95     991.5024     59.10475     188.3318        10     1.108     0.646  55.51   0
       313    386.7100    569.0851 307.7647217  +6.4384755     1050.787     1725.962     1644.785     83.78712     168.0405     335.4485      1.739     5.15     1006.335     59.10475     138.4471        10     1.092     0.829  66.45   0
       314    240.8572    569.0275 307.8253102  +6.4336034     1310.816     1779.339     2108.288     83.65359     167.7742     335.2151      1.505     3.88     1010.024     59.10475     188.3882        12     1.212     0.635  69.06   0
       315    880.2929    560.8380 307.5599577  +6.4583960     3216.143     4384.549     4732.285     84.18642     167.6409     335.3819      1.440     2.97     993.3931     59.10475     485.1189        19     1.181     0.893  83.61   0
       316    175.7501    560.4072 307.8526464  +6.4349749     580.3906     895.1832     1414.093     83.51985     167.4408     334.9483      1.570     3.52      1012.13     59.10475     119.7203         5     1.246     0.287  53.29   0
       317    838.8978    558.2137 307.5772425  +6.4580976     2876.116     3810.341      4235.77     83.92043     167.4408     335.0484      1.425     3.16      994.475     59.10475     428.1011        21     1.273     0.876  57.34   0
       318    547.9622    554.1183 307.6982412  +6.4500597     4199.628     8261.463     9158.604     84.05353     167.7742     335.2819      2.193     6.39     1000.565     59.10475     1397.014        22     2.459     0.467  77.91   0
       319    809.9865    553.9639 307.5893959  +6.4588869     2722.421      3858.97     5700.227     83.51985     167.5075     335.0484      1.576     3.23     994.8765     59.10475     458.9758        16     1.198     0.820  59.11   0
       320    267.1107    553.1570 307.8149410  +6.4410380     8000.714     12000.08     11847.99     84.05353     167.5742     335.3485      1.595     3.38      1009.16     59.10475     1039.182        33     1.357     1.120  61.05   0
       321    819.6190    549.3201 307.5855503  +6.4611260     177676.9     240806.7     249752.2     83.65359      167.374     335.2485      1.460     3.04     994.4692     59.10475     25268.91        98     1.442     1.138  64.73   0
       322    752.5208    554.2410 307.6132593  +6.4568525     709.0976     936.3151     916.2032     83.92043     167.7076     335.3152      1.943     4.20     996.5693     59.10475     123.5017         7     1.098     0.457  40.77   0
       323    201.3121    547.6582 307.8424593  +6.4410979     59985.18     90173.34     94670.36     84.05354     167.7076     335.4485      1.631     3.34     1010.652     59.10475     7692.146        69     1.505     1.232  64.29   0
       324    125.2763    543.8357 307.8741733  +6.4401200     6323.602       9477.6     9636.814     83.92043     167.7742     335.3485      1.587     3.28     1013.145     59.10475     822.5213        32     1.362     1.124  56.27   0
       325    990.4937    541.3706 307.5148300  +6.4701104     1475.172     2004.828     1785.035     84.18642     167.4408     335.2151      1.370     3.65     988.9966     59.10475     274.7786        10     1.076     0.670  81.94   0
       326   1011.2098    539.9462 307.5062715  +6.4713891     928.8596     1080.411     865.2083     83.38589     167.6409      335.015      1.309     3.07     988.4515     59.10475      190.524         7     0.933     0.514  71.98   0
       327    239.5248    539.4636 307.8268629  +6.4457653     756.0361     967.7804     331.9032     84.31911     167.7076     335.2819      1.421     3.78     1009.005     59.10475     116.3626         7     0.874     0.650 -67.51   0
       328    856.2010    536.5701 307.5707814  +6.4676121      5063.25     6736.461     6676.978      83.3859     167.5075     335.1151      1.405     2.93     993.3509     59.10475     747.3529        21     1.213     0.864  65.72   0
       329    374.6805    534.7738 307.7708770  +6.4522389     17200.08     25761.33     26762.63     83.92043     167.5075     335.3485      1.617     3.35      1005.08     59.10475     2201.245        42     1.407     1.144  67.59   0
       330    465.0904    534.6936 307.7333223  +6.4553037     766.8215     917.5283     373.0802     84.05353       168.24     335.3485      1.347     4.29      1002.93     59.10475     104.3425         7     0.911     0.575  30.93   0
       331    176.5112    533.7256 307.8532327  +6.4460169     1990.672     2817.509      3069.75     84.05354     168.0405     335.3819      1.544     3.56     1011.268     59.10475     249.0801        17     1.158     0.898  76.56   0
       332    810.1902    529.9410 307.5901187  +6.4688129     6411.712     8903.293     8861.177     83.38589     167.5742      335.015      1.455     3.14     993.7361     59.10475     1022.032        29     1.335     0.965  67.90   0
       333    541.0508    529.6597 307.7019365  +6.4599272     6597.735      9729.46     9890.267     84.05353     167.6409     335.3152      1.575     3.46     999.8331     59.10475     823.6982        30     1.349     1.072  66.57   0
       334    251.6819    531.4431 307.8220839  +6.4494852     1053.551     1625.668     1174.075     84.05354     167.7076     335.2819      1.638     3.41     1008.515     59.10475     166.2307        11     0.926     0.843 -65.33   0
       335    181.9546    531.0496 307.8510620  +6.4473048     700.2635     1075.315     1367.708     84.05353     167.5742     335.3485      1.629     4.85      1010.91     59.10475     101.9072         7     1.028     0.649  59.83   0
       336    113.9777    530.8398 307.8793064  +6.4451057     1042.748      1507.66     1375.727     83.65359     167.5075     335.1151      1.564     4.07     1012.829     59.10475      161.423        11     1.099     0.875  67.24   0
       337    399.3735    526.2587 307.7609066  +6.4565830     1294.323     1891.558     1836.996     83.65359     167.7742     335.1151      1.802     3.90     1004.298     59.10475     169.1943        12     1.026     0.890  12.36   0
       338    585.6779    522.9377 307.6836238  +6.4641970     2435.862     3926.975     4151.985      84.3191     167.7742     335.3152      1.766     3.93     998.0402     59.10475     309.7644        24     1.429     1.083 -32.87   0
       339    188.0695    522.8205 307.8488002  +6.4509080     6837.911     10319.33     10531.26     83.65359     167.5742     335.2485      1.596     3.35     1010.312     59.10475      923.484        28     1.364     1.029  64.73   0
       340    868.9612    522.9349 307.5659384  +6.4736682     588.0783     880.6118      1074.81     84.05353     167.6409     335.4152      1.426     4.50     992.2939     59.10475     111.2275         6     1.208     0.477  78.81   0
       341    827.0044    522.2969 307.5833904  +6.4725307     1527.928     2254.947       2217.5     83.78712      167.374     334.9816      1.503     3.48     993.0674     59.10475     240.6871        14     1.155     0.823  77.14   0
       342    283.2983    519.3004 307.8093606  +6.4555606     87116.02     132423.2     137968.5     84.05354     168.1071     335.1485      1.616     3.51     1007.412     59.10475      10927.5        78     1.536     1.240  64.81   0
       343     59.7286    521.5720 307.9021549  +6.4471071     5090.911      7726.17      7406.34     83.78712     167.7076     335.2485      1.629     3.40     1014.422     59.10475     691.5606        27     1.376     1.024  65.84   0
       344    573.0042    516.8927 307.6890925  +6.4662687     866.0587     1012.645     1225.454     83.65359      167.374     335.0484      1.386     4.43     998.2857     59.10475     124.2036         8     1.049     0.531  53.70   0
       345    267.2340    514.4009 307.8161995  +6.4570441     1475.814     2035.709      2649.74     83.11735     167.5075     335.0817      1.499     4.20     1007.469     59.10475     187.6206        15     1.227     0.837  57.52   0
       346    982.7302    513.0251 307.5190064  +6.4815556     1814.885     2371.581     2414.612     83.65359     167.5742     335.2485      1.359     3.28     987.6475     59.10475      259.662        13     1.179     0.653  60.88   0
       347    806.3716    511.7061 307.5923181  +6.4762146     18180.94     24680.45     25666.12     84.18642     167.4408     335.2151      1.451     3.02     992.9677     59.10475     2670.989        40     1.357     1.025  60.22   0
       348    510.0244    510.1071 307.7154848  +6.4669611      41072.2     66429.62     70483.31     84.18642     167.4408     335.1485      1.719     3.55     999.9059     59.10475     5195.384        74     1.614     1.357  43.46   0
       349    660.6918    508.6939 307.6529404  +6.4725886     950.0361     1805.375     1736.952     84.05354       168.24     335.3152      2.091     6.05     996.0975     59.10475     156.0519        13     1.755     0.587  54.15   0
       350     58.1061    506.7869 307.9033295  +6.4531570     1342.489     2159.214     1669.426     83.78712     167.4408     335.1485      1.620     3.76     1014.273     59.10475     225.8031        16     1.270     0.882  61.48   0
       351    669.9935    505.1905 307.6491941  +6.4743463     3288.261     4941.319     4976.988     83.51985     167.5075     335.1485      1.558     3.47     995.8177     59.10475     441.3737        21     1.251     0.968  70.16   0
       352    222.5076    506.2604 307.8350544  +6.4589028     1933.637     3191.576     3202.896     83.92043     167.6409     335.4152      1.775     4.40     1008.142     59.10475      246.124        21     1.375     1.039  58.36   0
       353    732.2016    504.3784 307.6233777  +6.4767618     1369.079     2014.823     1660.885     83.65359      167.374      335.015      1.617     5.21     994.2223     59.10475     216.0834        17     1.540     0.756  67.10   0
       354    680.2300    505.1620 307.6449424  +6.4747005     1483.376     2162.108     2417.256     83.65359     167.4408     335.1818      1.533     4.15     995.5851     59.10475     229.9237        15     1.265     0.823  47.25   0
       355     88.9063    502.7754 307.8906710  +6.4558497      822.379     1263.863     1933.231     84.18642     167.4408     335.1485      1.984     6.04     1012.512     59.10475      114.152        11     1.460     0.704  52.80   0
       356    407.6520    500.9109 307.7583230  +6.4673266     1823.684     2820.299     2715.119     84.05353     167.5075     335.4152      1.574     4.04      1002.67     59.10475     230.9413        16     1.204     0.881  66.40   0
       357    339.2236    499.1299 307.7868098  +6.4657662      3763.23     5832.318     6167.639     83.65359     167.5742     335.2819      1.643     3.63     1003.803     59.10475     491.2962        25     1.365     1.020  64.94   0
       358    154.4082    497.6933 307.8636332  +6.4601511     26116.59     39436.75     41281.12     83.65359      167.374     335.1151      1.651     3.45     1010.589     59.10475       3343.4        52     1.498     1.166  68.63   0
       359    519.1033    498.2991 307.7121112  +6.4721407     2236.196     3325.133     3617.764     84.05353       168.24     335.1485      1.549     3.42     999.0298     59.10475     295.6617        22     1.270     1.010  64.04   0
       360    882.1781    497.5462 307.5613004  +6.4845925     1618.245     2215.137      2391.97     83.51985     167.7076     335.1151      1.411     3.26     990.5261     59.10475     247.0527        11     1.040     0.666  54.56   0
       361    119.5749    495.8522 307.8781655  +6.4597399     2676.764     3919.384     3960.596     83.65359     167.7076     335.2151      1.594     3.75     1011.276     59.10475     339.9648        20     1.315     0.911  60.61   0
       362    356.6262    494.1884 307.7797473  +6.4683905     1026.572     1383.655     2015.966     83.65359     167.5075     335.2485      1.494     4.31     1002.796     59.10475     152.9133        11     1.060     0.826  85.33   0
       363    979.8992    492.3174 307.5208774  +6.4900116     5819.449     7648.654     7723.064     84.05353       168.24     335.4152      1.374     3.17     986.6339     59.10475     923.8595        23     1.219     0.855  61.00   0
       364    553.0276    484.6126 307.6984792  +6.4789281     1365.138     1767.186      1362.22     83.51985     167.5075     335.2151      1.430     3.81      997.659     59.10475     205.3031        13     1.156     0.771  59.85   0
       365     18.6919    482.0037 307.9205416  +6.4620627     25893.78     38490.57     39938.94     83.65359      167.374     335.0817      1.566     3.27     1016.508     59.10475     3843.155        50     1.463     1.130  65.99   0
       366    451.3540    478.8257 307.7409132  +6.4779108     42678.19     64801.75     67557.77     83.65359     167.7742     335.1818      1.634     3.44     999.9287     59.10475     5424.359        58     1.496     1.179  61.18   0
       367      1.8096    476.3453 307.9277462  +6.4638305     172386.5     222123.8     227667.8     78.69594     140.9819     260.4046      1.340     3.81     1017.367     59.10475     28665.09        69     1.448     0.938  81.62  24
       368    659.3677    478.4712 307.6545079  +6.4850233     12943.89     18402.16     18625.83     83.92043     167.7076     335.2819      1.558     3.20     995.2064     59.10475     1717.274        35     1.336     1.071  65.46   0
       369    299.1611    479.0691 307.8041302  +6.4727044     825.5445     1366.765     272.6768     83.92043     167.7076     335.4152      1.698     5.34     1004.542     59.10475     110.1601         9     1.167     0.689  83.83   0
       370    216.5727    476.3917 307.8385297  +6.4710358     19066.01     30251.65     32027.79     83.65359     167.5075     335.1485      1.735     3.67      1007.35     59.10475     2519.755        50     1.606     1.168  57.39   0
       371    182.3467    477.3184 307.8527165  +6.4695029     1625.713     2551.515     2404.995     84.05354     167.7076     335.3819      1.668     4.22     1008.722     59.10475     214.8853        17     1.364     0.792  62.44   0
       372    833.4567    476.3187 307.5822550  +6.4917308     1085.284     1335.842     1284.724     84.18642     167.7076     335.3152      1.331     4.38      990.662     59.10475      180.434        11     1.222     0.664  60.73   0
       373    993.1494    476.6279 307.5158990  +6.4969317     1360.719     1923.641     1994.994     83.65359     167.8409     335.2151      1.423     3.57     985.2709     59.10475     241.6484        10     1.134     0.643  61.77   0
       374    581.1452    475.2076 307.6871149  +6.4837530     2842.086     4242.089     4104.667     83.51985     167.5075      335.015      1.594     3.86     996.6108     59.10475     394.1097        21     1.319     0.948  63.05   0
       375    921.6473    475.6934 307.5456367  +6.4949328     907.7016     1287.441       832.87     83.92043     167.6409     335.4485      1.527     4.94     988.2568     59.10475     126.6848        11     1.158     0.743  55.58   0
       376    955.0540    472.3690 307.5318691  +6.4974199     5427.326     7086.727         6850     83.92043     167.7742     335.2151      1.380     3.00     986.7033     59.10475     864.1284        21     1.190     0.852  53.12   0
       377    628.1816    470.8070 307.6677221  +6.4871444     6686.665     9864.544     9801.786     83.65359      167.374     335.1485      1.557     3.30     995.4365     59.10475     840.4925        28     1.327     1.021  59.16   0
       378    116.0634    471.3898 307.8804521  +6.4697219     1270.623     2054.041     2209.113     83.51985     167.5075     335.1151      1.659     3.94     1010.518     59.10475     170.1653        13     1.112     0.856  84.00   0
       379    528.1867    470.5136 307.7092743  +6.4839176     607.8817     1145.659     1645.942     83.65359     167.5075     335.2151      2.210     4.92      997.209     59.10475     91.66718         6     1.174     0.584 -30.31   0
       380    977.6046    464.7647 307.5227554  +6.5013118     3955.788     5327.634     5428.229     83.11735     167.5075     335.0817      1.411     3.01     985.3076     59.10475     623.7212        21     1.131     0.980  58.05   0
       381    540.3587    462.0596 307.7045025  +6.4878160     7687.597     11586.07     11745.01     84.05353     167.7076     335.3819      1.607     3.37     996.3159     59.10475     992.0389        33     1.358     1.099  59.20   0
       382    386.2793    462.2702 307.7685061  +6.4825642     2656.635     4380.163     4312.138     84.31911      167.974     335.2819      1.736     3.72     1000.656     59.10475     305.4634        23     1.253     1.120  84.35   0
       383   1007.7569    460.5713 307.5103689  +6.5040486      669.269      1038.05      1069.46     83.65359     167.7742     335.2151      1.536     3.04     983.6953     59.10475     99.42352         5     0.728     0.447  21.71   0
       384    549.9323    459.1707 307.7006225  +6.4893294     731.5203     809.7382     734.2516     83.78712     167.7076     335.2819      1.240     4.60     995.9318     59.10475     101.0837         8     0.988     0.607  61.23   0
       385    896.8531    457.9730 307.5565327  +6.5014223     3722.476     4835.792     5398.238     83.78712     167.8409     335.2485      1.366     3.12      988.228     59.10475     589.4739        16     1.129     0.744  57.62   0
       386    244.2015    457.0137 307.8277072  +6.4799650     603.7396     971.4177     852.0361     83.65359      167.374     335.0817      1.639     4.34     1005.545     59.10475     89.88477         5     1.086     0.493  50.18   0
       387    904.4012    452.3395 307.5535860  +6.5040003     2481.068     3290.709     3084.511      83.3859     167.5075      335.015      1.387     3.05     987.7543     59.10475      371.596        16     1.134     0.822  47.60   0
       388    943.7733    451.6387 307.5372518  +6.5056033     1397.009     1764.904     1536.829     83.65359     167.5075     335.1485      1.373     3.30     986.2783     59.10475     209.9363        11     1.007     0.685  66.87   0
       389    123.1765    451.6860 307.8781641  +6.4780965     743.8303     1024.493      1054.43     84.05353     167.5075     335.1818      1.571     4.65     1009.827     59.10475     125.2812         6     0.809     0.760 -18.42   0
       390    728.2215    448.1697 307.6269223  +6.4998374     3148.674     4494.201      4766.35     83.51985     167.5075     335.1818      1.504     3.00     991.9236     59.10475     495.6752        21     1.217     0.954  85.03   0
       391    399.2097    446.5467 307.7636651  +6.4894901     3506.729     5324.684     5680.569      83.3859     167.6409      335.015      1.657     4.03     999.6484     59.10475     408.5096        25     1.407     1.038  61.39   0
       392     89.9993    447.1458 307.8921003  +6.4788550     1893.408     3017.841     3238.143     83.25173      167.374     334.9149      1.630     4.46     1010.973     59.10475      282.714        14     1.241     0.740  75.11   0
       393    439.4583    446.9403 307.7469309  +6.4906773     900.9587     1297.781      1592.06     84.05353     167.6409     335.3485      1.578     3.90     998.1924     59.10475     132.1271         8     0.821     0.699  12.63   0
       394    626.8431    443.0254 307.6692138  +6.4985706     10301.59     15101.24     15575.19     83.65359     167.7076     335.2151      1.541     3.28     993.4475     59.10475     1425.413        33     1.372     1.033  66.80   0
       395    789.5287    439.6093 307.6017394  +6.5054210     17890.53     24470.55     25702.09     83.51985     167.3072     335.1485      1.459     2.97     989.4963     59.10475     2543.004        38     1.374     0.998  65.78   2
       396    793.4975    434.6661 307.6002567  +6.5075946     1469.756      2111.79     2534.044     84.05354     167.7742     335.3485      1.694     3.75     989.0901     59.10475      225.781        14     1.119     0.909  11.20   3
       397    309.3147    440.0817 307.8012293  +6.4891427     2611.508     3858.652     4099.043     83.78712     168.0405     335.3819      1.568     3.84     1001.506     59.10475     339.0944        19     1.291     0.919  72.01   0
       398    432.4084    438.8194 307.7501337  +6.4937940     650.3914     897.8707     651.1656     83.78712     167.4408     335.1151      1.451     4.42     998.0502     59.10475     111.5514         6     0.995     0.557 -23.74   0
       399    918.9788    436.4930 307.5480616  +6.5110299     561.7653      978.131     997.5071     83.92043     167.5075     335.1151      1.298     3.72     986.6083     59.10475     99.73572         6     1.179     0.338  50.32   0
       400    818.5088    436.6625 307.5897982  +6.5076058     1501.025     1889.521     1852.541     84.05354     167.8409     335.4152      1.371     3.69     988.7034     59.10475     232.1367        10     1.088     0.623  47.59   0
       401    392.4855    436.6495 307.7667927  +6.4933510     1624.468     2444.515     2945.884     84.05354     167.6409     335.3819      1.639     4.11     999.2035     59.10475     202.3345        14     1.094     0.877  25.46   0
       402    974.7283    434.5839 307.5249633  +6.5136778     2364.926     3046.706     2740.261     83.51985     167.6409     335.2151      1.289     3.23     983.9038     59.10475     385.6078        12     1.035     0.668  60.65   0
       403    722.6531    432.8405 307.6297515  +6.5059808     704.4785      957.421     1067.795     83.92043     167.7076     335.3152      1.362     2.26      991.546     59.10475     137.6772         5     0.710     0.444  72.01   0
       404    126.9579    431.5214 307.8772757  +6.4865493     4374.532       6721.9     7168.692     83.92043     167.7076     335.3152      1.655     3.60      1009.14     59.10475     600.0187        30     1.376     1.159  51.84   0
       405    765.0360    430.6542 307.6122164  +6.5083002     2474.687     3652.378     3922.604     83.92043     167.7076     335.3485      1.608     3.51     990.1068     59.10475     333.6863        21     1.236     0.992  48.14   0
       406    381.0281    432.0837 307.7717067  +6.4948518     672.3482     1067.187     1166.612     84.05353     167.5075     335.1818      2.270     4.50     999.1099     59.10475     100.3717         7     1.163     0.494  38.66   0
       407    284.5988    428.5770 307.8118860  +6.4930630     1526.071     2108.038      2285.99     83.65359      167.374     335.0817      1.567     4.01     1001.664     59.10475     179.3647        14     1.010     0.930 -76.60   0
       408    363.1527    426.2915 307.7793285  +6.4966436     3124.061     4684.721     4487.753     84.05353     167.6409     335.4485      1.631     3.81     999.0948     59.10475     379.3434        21     1.232     1.030  74.61   0
       409    718.7624    423.8575 307.6316702  +6.5095598     1673.294     2405.097     1836.187     84.05353     167.7742     335.3152      1.488     3.97     991.2799     59.10475      211.073        13     1.134     0.771  69.76   0
       410    992.7369    422.6945 307.5178802  +6.5191875     892.7618     982.6617     1208.103     83.92043     167.8409     335.3819      1.344     3.26     982.3235     59.10475     145.5009         8     0.992     0.535  53.66   0
       411    250.8919    422.2865 307.8261018  +6.4945282     789.6548     1422.877     1351.103     83.92043     168.1735     335.4152      1.942     6.28     1003.526     59.10475     116.2379         8     1.202     0.923  23.11   0
       412    560.2039    416.7076 307.6977863  +6.5072063     881.8282     1234.607     1394.793     83.65359      167.374     335.0817      1.705     5.34     992.6595     59.10475     148.3387         9     1.296     0.689  55.98   0
       413    844.9314    414.2346 307.5795742  +6.5177488     1707.031     2522.679     2708.851     83.92043     167.7742     335.4152      1.580     4.03     987.3405     59.10475      239.337        14     1.218     0.819  66.97   0
       414    482.4657    414.8555 307.7301458  +6.5053666      1365.92     1957.126     2259.313     84.18642     167.5742     335.3152      1.645     3.65     993.1324     59.10475     194.5427        14     1.114     0.866  31.77   0
       415    830.6057    413.1591 307.5855623  +6.5177145     2172.269     3095.302     2474.845     83.25173      167.374      335.015      1.471     3.26     987.3815     59.10475     314.6191        19     1.291     0.838  58.97   0
       416    629.9966    413.1060 307.6689113  +6.5110298      707.788     995.0399     1402.499     83.78712      167.374     335.0484      1.540     4.58     991.3297     59.10475     131.9133         5     1.217     0.490  73.17   0
       417    728.0358    411.3026 307.6282398  +6.5150537     15702.78     22061.58     23034.24     84.05353     167.5742     335.4818      1.507     3.29     990.6248     59.10475     2244.469        35     1.332     1.044  64.34   0
       418    649.1443    407.3088 307.6611513  +6.5140642     2722.722     4104.191     4750.876     83.92043     167.5742     335.4485      1.603     3.48     990.7562     59.10475     329.2116        22     1.303     0.916  67.87   0
       419    721.9706    405.9907 307.6309385  +6.5170442      741.142     1220.443     1524.068     83.51985     167.5075     335.1151      1.805     4.00     990.2927     59.10475     108.6082         7     0.899     0.521  45.52   0
       420    621.4694    402.4794 307.6728120  +6.5151322     13320.45     26171.14     31291.03     84.31911      167.974     335.2819      2.253     6.61     990.8597     59.10475      1891.31        60     2.371     1.173  37.24   0
       421    430.3771    398.8098 307.7523277  +6.5102456     586.4985     980.4281     506.9114     83.65359     167.4408     335.1485      1.287     3.48     995.5124     59.10475     82.95868         5     1.227     0.285  35.14   0
       422    908.9695    396.9128 307.5535496  +6.5270387     1628.947     2168.416     1808.825     84.18642     167.5075     335.2485      1.466     2.93     985.0681     59.10475     307.3421        12     1.079     0.654  76.84   0
       423    138.5407    396.6411 307.8736443  +6.5013404     2252.293     3550.009     3769.487     84.05354     167.7076     335.3819      1.715     3.90     1007.695     59.10475     277.0922        23     1.344     1.055  53.41   0
       424    953.2562    401.1143 307.5350080  +6.5267815      4316.89     5730.961     5607.137     84.05353     167.7076     335.4818      1.369     2.97     983.3876     59.10475     764.8961        20     1.264     0.787  56.57   0
       425    922.1277    391.6673 307.5482587  +6.5296437     5558.017     7559.565     7317.069     84.05353     167.8409     335.3152      1.425     3.16     984.3668     59.10475     851.5392        25     1.278     0.893  56.80   0
       426     71.8419    392.1457 307.9015057  +6.5009525     1532.678     2505.205     2074.956     83.92043     167.7076     335.3485      1.694     4.37     1010.302     59.10475     196.3561        17     1.182     1.037  74.27   0
       427    977.7667    389.3283 307.5252199  +6.5324654     758.3873     1088.529     1318.025     83.92043     167.7076     335.3485      1.514     4.36     981.5779     59.10475     127.7175         8     0.973     0.609  64.29   0
       428    249.9871    387.6987 307.8276469  +6.5087787     13651.64        21350     21810.36     83.78712     167.4408     335.0817      1.671     3.46     1001.773     59.10475     1792.913        42     1.490     1.161  69.25   0
       429    744.9070    381.2298 307.6222420  +6.5280348     898.9717     1102.334     1308.028     84.18642     167.4408     335.2151      1.389     4.00     988.3234     59.10475     138.5005         8     0.919     0.723  78.47   0
       430    713.0349    380.9809 307.6354927  +6.5270721      828.433      937.168     1146.233     83.51985     167.5075     335.0817      1.315     5.00     988.6384     59.10475     114.1459         9     1.093     0.648  69.73   0
       431     85.7771    381.6728 307.8960711  +6.5057455     842.4779     1271.459     1131.145     83.65359     167.5075     335.2819      1.642     3.61     1009.354     59.10475     145.0255         6     0.902     0.638  18.71   0
       432   1022.5801    380.8980 307.5068831  +6.5374404     639.1722     780.1896     693.4816     83.92043     149.3749     270.6765      1.322     2.70     979.1125     59.10475     126.3756         6     0.774     0.736  75.15  24
       433    973.3214    379.9275 307.5273824  +6.5361988     1105.078     1554.652     2144.392      84.3191      167.974     335.2819      1.474     2.84      981.414     59.10475     224.8798         9     0.952     0.600  37.11   0
       434    363.0583    377.2901 307.7810225  +6.5168727       1290.9     1874.212     1295.271     83.92043     167.7076     335.4485      1.559     4.97     996.3807     59.10475       171.78        13     1.221     0.822  64.98   0
       435    195.8436    377.8076 307.8504753  +6.5110431     705.3987     1100.513     859.4922     83.51985     167.5075      335.015      1.701     4.40     1004.207     59.10475     96.00623         6     1.143     0.482  62.70   0
       436    150.3493    376.3150 307.8694264  +6.5101298       5011.1     7564.591     8222.354     84.05354     167.6409     335.4152      1.680     3.59     1006.797     59.10475     634.6461        29     1.402     1.059  63.51   0
       437    255.0090    375.4338 307.8259752  +6.5140114     1315.649      1949.07     1324.049     83.51985     167.5075     335.1485      1.569     4.55     1000.851     59.10475     161.7718        14     1.265     0.819  80.26   0
       438    447.7695    375.1117 307.7459015  +6.5206136     812.6009     1391.224     1418.002     84.18642     167.5075     335.2485      2.092     5.46     992.8809     59.10475     114.7623         8     1.007     0.835  43.20   0
       439    392.4747    397.2344 307.7681277  +6.5096248     28545.27     43818.09     44889.43     83.92043     167.7076     335.2819      1.678     3.53     996.7918     59.10475     3633.644        52     1.514     1.187  68.29   0
       440    836.1922    372.8206 307.5845971  +6.5345570     732.9297     955.3534     1053.703     83.65359     167.4408     335.1151      1.581     6.11     986.0979     59.10475     99.35388         9     1.273     0.824  43.25   0
       441    172.4631    372.0464 307.8603837  +6.5126358     2382.252     4400.601     4508.575     83.92043     167.5742     335.3819      1.904     4.02     1005.578     59.10475      300.436        27     1.366     1.219  62.78   0
       442    567.6373    371.3760 307.6962257  +6.5261725     893.4514     1347.764     1285.926     83.65359     167.5075     335.0484      1.622     5.38     989.8025     59.10475     130.3994         9     1.068     0.766  43.05   0
       443    395.7080    366.9469 307.7678069  +6.5222387     2016.981     3023.627     2747.586     83.92043     167.5075     335.4818      1.582     3.49     994.6843     59.10475     259.1182        19     1.151     1.025  52.54   0
       444    283.8691    367.0488 307.8142684  +6.5184428     769.8658     1079.846     590.0848     84.05353     167.6409     335.3485      1.536     4.83     999.3712     59.10475      113.678         9     1.091     0.710  67.36   0
       445     15.4043    367.7669 307.9257779  +6.5091180     588.3067     917.7765      561.809     83.25173     167.5742     335.0817      1.440     3.51     1012.422     59.10475      121.403         5     1.210     0.294  36.60   0
       446    984.4001    366.1433 307.5232419  +6.5422598     1071.025     1268.379     1506.871     83.25173     167.3072     334.9483      1.245     3.29     980.2995     59.10475     187.8093         9     0.859     0.786 -89.81   0
       447    449.6314    360.6124 307.7456171  +6.5266626     7282.953     11083.04     11331.77     83.51985     167.5075     335.2151      1.648     3.45     991.9047     59.10475      894.491        32     1.361     1.138  66.33   0
       448     46.0650    361.2427 307.9132612  +6.5128441     3025.437     5057.134      6140.38     84.05353     167.6409     335.3152      1.922     4.92     1010.716     59.10475     468.2847        25     1.569     1.194 -60.83   0
       449    790.1721    357.8857 307.6042201  +6.5391864     13819.96      19332.2        19528     84.18642      167.374     335.1485      1.478     3.19     986.5305     59.10475     1986.897        36     1.358     1.009  63.57   0
       450    782.3801    359.4315 307.6074056  +6.5382877     2018.179     2827.575     2995.466     83.51985     167.5075     335.1485      1.508     3.58     986.6246     59.10475     260.2583        15     1.149     0.855  52.93   0
       451    353.6651    356.2288 307.7856363  +6.5252535     959.6987     1379.416      1007.54     83.78712     167.7076     335.2485      1.572     5.86     995.5429     59.10475     128.5908        11     1.038     0.932 -86.70   0
       452    964.7385    349.3696 307.5319744  +6.5485301      707.099     888.5732     675.2558     83.78712     167.7076     335.2485      1.279     5.90     980.3264     59.10475     112.5559         9     1.028     0.954   8.77   0
       453      3.8427    346.7915 307.9312918  +6.5173889     1006.056     2430.677       3586.2     83.51985     164.2049     291.6686      3.052     7.50     1012.374     59.10475     143.5363        17     1.567     1.170 -22.18  24
       454    497.7405    344.1659 307.7261837  +6.5350659     3225.325     4844.371     4588.375     83.92043     167.7076     335.2485      1.575     3.77     989.1102     59.10475     391.5369        22     1.398     0.912  64.42   0
       455    470.0629    344.9692 307.7376561  +6.5338066     2118.139       3033.6     3282.117     83.78712     167.7742     335.2819      1.547     3.35     990.0032     59.10475     260.6472        19     1.154     0.993  77.69   0
       456    926.3697    344.1251 307.5480928  +6.5494156     732.0236     708.7729     263.8764     83.92043     167.7742     335.3152      1.125     3.39     981.7507     59.10475      130.288         5     0.791     0.420  69.25   0
       457    855.5381    340.8208 307.5776345  +6.5484158     35326.39     51057.64     53122.72     83.65359     167.7076     335.1818      1.546     3.19     984.3322     59.10475     4883.309        52     1.473     1.073  69.79   0
       458    347.4920    336.4518 307.7888690  +6.5332120     774.9915     1058.463     681.9847     83.92043     167.5742     335.5485      1.577     4.58     995.1299     59.10475     98.88531         8     1.009     0.591  46.79   0
       459     73.6463    336.0756 307.9026550  +6.5241634     777.9152     1054.902     1096.105     83.92043     167.7742     335.3152      1.502     4.51     1008.538     59.10475     109.0768         9     1.009     0.905 -64.05   0
       460    627.3461    333.1906 307.6727043  +6.5439381     2763.766     3946.053      4010.67      83.3859     167.6409      335.015      1.541     3.44     986.5699     59.10475     409.1545        20     1.249     0.922  73.78   0
       461     35.7156    333.7842 307.9184910  +6.5238327     1041.493     1528.151     1181.387     83.65359     167.4408     335.2151      1.522     5.26     1010.153     59.10475      157.361        12     1.268     0.964  56.16   0
       462    712.0202    326.8216 307.6377370  +6.5494005     83148.64     120382.7     125257.8     83.78712     167.6409     335.2485      1.544     3.42     985.2752     59.10475     11394.36        76     1.481     1.160  62.64   0
       463    870.2797    328.4266 307.5719258  +6.5540256     1341.892     1765.978     2146.753     83.92043     167.5742     335.3485      1.460     3.75     983.2206     59.10475     212.4019        12     1.104     0.757  63.23   0
       464     91.6060    326.4197 307.8955205  +6.5287546     1500.524     2029.866     2615.652     83.65359     167.4408     335.1151      1.609     3.67     1007.517     59.10475     190.2718        13     0.971     0.932 -12.85   0
       465    574.4534    323.5306 307.6950062  +6.5461559     2785.966     4133.308     4527.425     83.92043     167.6409     335.2151      1.654     3.53     986.5222     59.10475     332.5161        21     1.307     0.949  56.12   0
       466    111.7256    322.3711 307.8872987  +6.5311031     6332.301     9547.749     10353.33     83.92043     167.7076     335.2819      1.650     3.54     1006.781     59.10475     856.1847        29     1.409     1.034  71.61   0
       467    953.1979    323.3968 307.5376416  +6.5588695      1007.71     1309.102     1094.206      83.3859     167.2404     335.0484      1.422     4.08     979.6317     59.10475     152.1887         8     1.055     0.503  55.34   0
       468    557.7225    319.7635 307.7020847  +6.5471510     7321.098     11071.52     11160.37     83.92043     167.7742     335.3152      1.611     3.34     986.4365     59.10475     906.5391        31     1.370     1.108  59.09   0
       469    286.7208    317.2284 307.8147675  +6.5391088     2590.224      3877.27     3631.674     83.92043     167.6409     335.3152      1.606     3.68      997.008     59.10475     325.5264        20     1.289     0.941  62.96   0
       470    420.6644    314.8737 307.7591959  +6.5445764     25510.98     39831.75     41095.14     84.18642     167.7076     335.3152      1.698     3.53     990.6024     59.10475     3252.081        53     1.502     1.232  65.11   0
       471    599.7869    314.0257 307.6848006  +6.5509287     744.2039      1102.12     957.9039     83.78712     167.5075     335.2485      1.578     5.77     985.3702     59.10475     109.9374        10     1.170     0.801  48.65   0
       472    528.3376    313.6745 307.7144993  +6.5486809     1270.888     2044.626     1991.399     84.31911     167.7076     335.3152      1.716     4.15     986.5732     59.10475     174.8998        14     1.147     0.947  81.78   0
       473    400.5016    312.9980 307.7676366  +6.5446746     1160.125     1987.566     3104.952     83.51985     167.4408     334.9816      2.446     5.45     991.5302     59.10475      151.119        14     1.162     0.979  54.50   0
       474    815.6036    307.5659 307.5953453  +6.5608131     972.2347     1156.291     327.2228     83.25173     167.5742     335.0817      1.453     4.97     983.6473     59.10475     155.7647        11     1.248     0.751  48.76   0
       475    509.7792    305.3627 307.7224905  +6.5514909     8692.256     13431.76     14039.64     83.65359     167.4408     335.0484      1.653     3.45     986.3824     59.10475     1174.236        36     1.414     1.137  57.96   0
       476    500.0880    310.4867 307.7263443  +6.5490505     1198.073     1774.765     1840.531     83.78712     168.0405     335.4152      1.558     4.62     986.9221     59.10475     150.4778        14     1.130     0.951  38.61   0
       477    651.5477    306.8494 307.6635357  +6.5556242     622.0501     1071.757     1368.337     84.18642     167.5742     335.2819      1.784     2.06     984.3559     59.10475     128.0386         5     0.678     0.470  70.49   0
       478    778.8726    304.1483 307.6107224  +6.5609970     3197.367     4869.437     5673.681     84.05353     167.7076     335.3485      1.639     3.22     983.8586     59.10475     478.8885        24     1.401     0.987  50.11   0
       479    934.0712    303.7268 307.5462495  +6.5663533     1056.471     1302.395     1688.164     84.31911     167.8409     335.3485      1.386     4.56     979.7314     59.10475     175.9127         8     1.017     0.582  67.50   0
       480    726.7869    303.8578 307.6323742  +6.5593760     860.4514     1104.945     815.0181     83.38589     167.5742      335.015      1.325     3.85     983.9154     59.10475     143.7957         9     0.969     0.765  38.32   0
       481    336.6649    301.9626 307.7945325  +6.5470888      1092.14      1517.37     802.7155     83.92043     167.6409     335.3819      1.544     4.48     994.2896     59.10475     157.7005        13     1.119     0.923 -67.62   0
       482     94.8031    299.9395 307.8950889  +6.5397953      588.332      889.843     773.8682     83.38589     167.4408      335.015      1.676     5.41     1006.882     59.10475     94.79852         6     1.360     0.607 -74.25   0
       483    172.0815    296.2803 307.8631058  +6.5439056     1191.284     1820.094     1907.469     84.18642      167.974     335.4485      1.707     4.44     1003.906     59.10475     183.8255        14     1.182     0.936  60.54   0
       484    272.1891    295.4676 307.8215406  +6.5476055      603.881     966.8026     1119.567     83.51985     167.5075     335.1485      1.737     3.71     996.8896     59.10475     74.63123         5     1.039     0.381 -84.55   0
       485    399.6314    289.4905 307.7687918  +6.5543514     7476.016     11570.65     12153.25     84.18642     167.5075     335.3152      1.727     3.61     990.3781     59.10475     906.8618        36     1.439     1.171  66.54   0
       486    255.7182    290.0145 307.8285684  +6.5493036     2101.689      3232.67      3186.53     83.65359     167.4408     335.1485      1.615     3.92     997.8229     59.10475     294.9426        21     1.281     1.073 -88.54   0
       487    767.5128    285.3753 307.6160740  +6.5683688     57737.83      80975.6     83454.39     84.18642     167.5075     335.1818      1.545     3.21     982.9097     59.10475     7913.109        59     1.421     1.124  60.91   0
       488    752.9781    289.1917 307.6219850  +6.5663072     1120.566     1310.095      1288.95     83.65359     167.5075     335.0817      1.285     4.48     983.0723     59.10475     176.4033         8     0.888     0.643  43.13   0
       489    439.1967    284.9024 307.7525075  +6.5575728     2238.917     3504.605     3931.958     83.78712      167.374     334.9816      1.669     3.59     987.9796     59.10475     322.0803        18     1.180     0.960  60.26   0
       490   1002.1200    282.4644 307.5186876  +6.5774022     1979.628     2693.562     3067.983      84.3191     167.7742     335.2819      1.382     3.17     975.0286     59.10475     362.9028        10     1.018     0.600  62.99   0
       491    585.5373    282.4261 307.6917862  +6.5634990      1254.49     1869.841     1662.194     83.65359     167.6409     335.2151      1.687     3.56     983.2758     59.10475     187.1664        14     1.094     0.874  60.21   0
       492    943.3047    281.5951 307.5431560  +6.5757996     2544.926     3161.476     2925.377     83.78712      167.374     335.0817      1.328     3.15     978.2154     59.10475     384.3336        15     1.125     0.801  43.51   0
       493    476.0851    281.3293 307.7373009  +6.5602849     1025.214     1637.223     1164.302     84.18642      167.974     335.3485      1.713     5.83     985.7617     59.10475     125.1442        12     1.209     0.875  36.83   0
       494    425.6351    280.4100 307.7582939  +6.5589729      1935.63     3034.953     2980.429     83.51985     167.4408     335.0817      1.698     4.02     988.3936     59.10475     269.9886        19     1.315     0.932  81.22   0
       495    305.6089    280.0239 307.8081772  +6.5551044     715.8497      1013.97      440.273     83.65359     167.5075     335.1818      1.469     5.14     994.6968     59.10475     109.1482         7     1.280     0.584  55.72   0
       496    846.7130    274.9655 307.5835149  +6.5753129     1223.444     1773.335     1754.731     84.05353     167.5742     335.3152      1.473     3.95     981.2509     59.10475     193.5496        11     1.148     0.654  55.17   0
       497    475.9674    275.6150 307.7375426  +6.5626403     856.8203      1300.34     714.0161     83.65359     167.4408     335.2151      1.494     5.28     985.4225     59.10475     120.4753        11     1.144     0.821  39.76   0
       498    456.3795    271.9155 307.7458063  +6.5635112     1038.848      1846.75     1808.753     83.78712      167.374     335.2485      1.997     5.28     986.2754     59.10475     138.9634        14     1.127     1.029 -88.46   0
       499    202.4710    271.7771 307.8513085  +6.5550442      2368.57     3898.977     3714.782     83.65359     167.5742     335.3152      1.751     3.74     1001.281     59.10475     317.0203        23     1.279     1.110  23.81   0
       500    765.9460    269.9604 307.6172436  +6.5746813     6525.667     9360.605     9519.704     83.92043     167.7742     335.3152      1.504     3.32     982.3027     59.10475     938.0247        30     1.367     0.985  64.32   0
       501    237.8817    270.3592 307.8366438  +6.5568197     738.4033     1288.693     1119.679     84.05353     167.7076     335.2485      1.901     5.27     998.7897     59.10475     97.39935         9     1.057     0.742  79.54   0
       502     98.5854    268.8048 307.8945718  +6.5527775     1079.353     1753.811     1792.059     83.65359      167.374     335.1485      1.836     6.21     1006.343     59.10475     149.1167        13     1.450     0.748  36.61   0
       503    782.4952    267.6608 307.6104444  +6.5761838     2900.562     4261.049     4374.735     83.92043     167.7076     335.3819      1.599     3.39      982.198     59.10475     404.5922        20     1.192     1.054  81.96   0
       504    371.7710    262.4996 307.7812791  +6.5645609     1491.887     3365.116     3171.606     84.05354     167.4408     335.3485      2.223     6.44     990.5142     59.10475     193.1619        29     1.790     1.349  11.27   0
       505     85.4216    262.9698 307.9002387  +6.5547436     1338.233     2006.217     2090.163     83.51985     167.5075     335.1818      1.733     3.27     1006.661     59.10475     182.6028        13     1.017     0.867 -70.12   0
       506   1020.5728    258.8203 307.5118134  +6.5877801     6870.134     8910.152      9430.23     83.51985     167.4408     299.7211      1.363     3.03      972.806     59.10475     1111.091        24     1.211     0.830  56.28  16
       507    498.7636    258.6646 307.7286425  +6.5704031     2112.555     3067.792      2541.77     83.92043     167.7076     335.3819      1.587     3.91     983.6031     59.10475      274.136        21     1.164     1.148  -3.38   0
       508    659.8173    259.3931 307.6616978  +6.5754955     550.1933     1007.671     1540.129     83.65359     167.4408     335.1485      2.014     4.13     981.9084     59.10475     87.24744         5     0.916     0.531  51.31   0
       509    261.2548    254.2588 307.8274769  +6.5642526     5749.706     8935.326      9292.83     84.18642     167.7076     335.3485      1.691     3.66     997.1339     59.10475     707.9298        31     1.356     1.154  71.01   0
       510    825.4427    252.9412 307.5930936  +6.5836964     760.4385     630.3857     1141.449     83.92043     167.7076     335.4152      1.217     3.82     980.9111     59.10475     121.7753         6     0.805     0.659 -66.87   0
       511    780.7477    248.1464 307.6118270  +6.5841829     900.3225     1297.535      1397.77     84.31911     167.6409     335.3485      1.575     3.85     981.3682     59.10475     141.1527        11     1.007     0.798  55.33   0
       512    238.0415    247.6118 307.8373467  +6.5662172     719.6774     1185.909     1164.702     83.38589     167.5075      335.015      1.581     4.90     998.4462     59.10475     117.2267         8     1.480     0.460  42.99   0
       513    395.3962    244.8607 307.7720584  +6.5726365     1491.176     2271.798     1833.602      83.3859     167.4408      335.015      1.658     4.20     988.2745     59.10475     188.7472        17     1.292     0.853  73.59   0
       514    982.1517    244.1258 307.5282720  +6.5925665     1221.245     1647.041     1939.906     83.92043     167.7742     335.3485      1.472     3.72     974.0467     59.10475     197.4316        11     1.176     0.605  50.99   0
       515    164.8057    240.8487 307.8680045  +6.5665476     1803.743         2905     2650.714     83.51985     167.5075     334.9483      1.671     3.82     1003.085     59.10475     238.5225        17     1.222     0.947  57.08   0
       516    574.8113    236.4476 307.6977926  +6.5821241     2388.051     3447.922     3209.345     83.51985     167.5742     334.9816      1.587     3.46     981.1262     59.10475      303.661        18     1.090     1.030  52.88   0
       517    917.7966    235.5231 307.5553028  +6.5939717     1873.096     3017.018     3282.659     83.51985     167.1735     335.1485      1.730     4.70     976.8275     59.10475     308.4647        19     1.644     0.749  25.14   0
       518    738.3915    234.0458 307.6299016  +6.5885893     5381.494     7970.414     8150.438     83.51985     167.5742     334.9483      1.563     3.20     980.9536     59.10475     792.9852        30     1.391     1.066  58.16   0
       519    679.2196    233.9967 307.6544909  +6.5866307     2204.963     3110.721     3110.647     83.65359     167.2404     335.1151      1.591     3.71     980.9208     59.10475     277.8742        17     1.194     0.884  54.23   0
       520    317.7605    241.1028 307.8044434  +6.5715824     1160.516     1721.851     1630.116     84.05353     167.5742     335.5152      1.588     5.40      993.109     59.10475     161.1705        13     1.278     0.764  38.83   0
       521    394.1123    228.0809 307.7731585  +6.5795216     680.2886     982.4658     879.2839     83.78712      167.974     335.4152      1.479     4.52      987.396     59.10475     100.1398         6     0.810     0.716  79.59   0
       522    934.3722    226.2986 307.5487249  +6.5983336      1198.02     1564.883     1345.061     84.18642     167.4408     335.2819      1.274     2.91     975.5071     59.10475      237.866        11     1.051     0.652  58.98   0
       523    237.8903    219.3240 307.8383662  +6.5778916     2164.861     3612.839      3722.76     84.05353      167.974     335.3485      1.731     5.04     998.1247     59.10475     297.3187        27     1.724     0.995  64.49   0
       524    880.6887    218.4505 307.5712963  +6.5997825     1852.784     2335.937      2228.21     84.05354     167.5075     335.4485      1.372     3.15     977.6041     59.10475     278.9894        14     1.051     0.804  45.52   0
       525    770.9099    217.7181 307.6169385  +6.5964180     1886.078     2571.333     2320.622     83.78712      167.974     335.3819      1.439     3.82      980.174     59.10475     276.6631        15     1.162     0.858  67.50   0
       526    471.8282    209.2277 307.7415025  +6.5899123     22587.59     35311.96     36968.46     83.51985     167.5075     335.1151      1.665     3.51     981.6946     59.10475     2887.702        55     1.516     1.237  64.48   0
       527    333.1006    211.2402 307.7990785  +6.5844273     833.7663      1192.01     642.3934     84.05353     167.5742     335.5485      1.635     6.53     991.3607     59.10475     103.0583        11     1.157     1.035  15.87   0
       528    797.8478    208.3553 307.6060596  +6.6011840     14155.17     20230.84     21357.97     84.05353     167.6409     335.2819      1.556     3.27     979.5399     59.10475     1951.641        47     1.373     1.247  46.67   0
       529    477.2903    203.5560 307.7394242  +6.5924372     1618.882     2490.474     2207.887     84.05354     167.6409     335.4152      1.687     4.30      981.245     59.10475     194.4789        16     1.342     0.810  55.69   0
       530    736.6764    204.0660 307.6316233  +6.6009105     806.8367     1391.013     1455.476     84.18642     167.7742     335.2819      1.882     4.24     979.9268     59.10475     111.6978         7     0.878     0.585  61.03   0
       531    160.0601    202.5189 307.8712736  +6.5822136     2391.411     3699.213     3555.563     84.18642     167.7076     335.2819      1.666     3.62     1002.192     59.10475     309.4387        21     1.284     0.999  66.40   0
       532    134.4644    201.5169 307.8819426  +6.5817664     1109.327     1649.289     1725.561     84.18642     167.9074     335.3485      1.680     4.87      1003.48     59.10475     149.3478        13     1.234     0.795  78.82   0
       533    791.1424    200.7300 307.6091025  +6.6041085     666.7426     1192.093     1559.426     84.18642     167.7076     335.2819      1.875     6.57     979.2831     59.10475     109.8565         9     1.608     0.753   9.74   0
       534    934.3003    198.6233 307.5496843  +6.6097584     1672.555     2235.787     2331.384     84.31911     167.4408     335.0817      1.437     3.81     974.1942     59.10475     289.7073        13     1.290     0.676  57.46   0
       535    186.9796    200.2087 307.8601665  +6.5840727     662.5272     1115.306     974.5993     83.65359     167.4408     335.0817      1.680     3.78     1000.704     59.10475     87.27051         5     0.811     0.507  54.81   0
       536    558.5429    195.1026 307.7059464  +6.5986503     2261.337     3449.567     3665.159     83.92043     167.6409     335.5152      1.714     3.39     979.5504     59.10475     314.9366        21     1.257     0.999  62.84   0
       537    316.5352    195.8547 307.8064817  +6.5902236     1090.015     1336.205     1345.934     84.05353     167.6409     335.2819      1.373     4.37     993.2438     59.10475     140.4908        12     1.086     0.875 -83.98   0
       538    595.9060    194.9310 307.6904265  +6.5999724     4828.877     7264.525     6949.137     83.92043     167.8409     335.3485      1.589     3.57     979.8497     59.10475     630.1252        25     1.325     1.004  67.20   0
       539    400.2568    194.3100 307.7717457  +6.5936714     1286.141     2080.133     2414.855     83.92043     167.6409     335.4485      1.777     4.99      985.332     59.10475     161.4241        14     1.397     0.833  46.59   0
       540    956.7547    192.0376 307.5405745  +6.6132268     3062.134     3780.188     4255.407     83.78712     167.6409     335.2151      1.322     2.97     973.0566     59.10475     439.7312        15     1.116     0.743  61.94   0
       541    902.8616    191.4926 307.5629883  +6.6116536     12757.34     17026.12     17894.94     84.05353     167.7076     335.3819      1.421     3.28      975.123     59.10475     1942.504        27     1.278     0.877  62.79   0
       542    577.9027    191.7303 307.6980154  +6.6006911     960.3019     1328.926     1694.051     83.92043     167.9074     335.3152      1.404     4.15     979.6185     59.10475     143.1976        10     1.030     0.772  73.27   0
       543    330.2865    191.6916 307.8009084  +6.5924041     853.5036     1402.153     1300.585     83.78712     168.1735     335.4152      1.837     5.84     991.8562     59.10475     98.28058        10     1.233     0.778  53.23   0
       544    989.5452    189.4363 307.5270356  +6.6153945     11280.89     14558.72     15437.96     83.92043     167.7076     335.3485      1.365     2.93     971.8458     59.10475     1808.897        27     1.243     0.865  61.65   0
       545    701.0420    189.3713 307.6469255  +6.6057863     3127.939     4541.272     5073.472     83.65359     167.6409     335.1818      1.562     3.42     979.6605     59.10475     391.5386        22     1.301     0.952  62.93   0
       546     29.1162    188.1207 307.9261688  +6.5837515     26252.35     40272.46     41658.45     84.05353     168.0405     335.4152      1.631     3.41     1008.162     59.10475     3535.633        51     1.500     1.191  66.32   0
       547    275.1935    189.2968 307.8238816  +6.5915427     1123.729     1631.033     1601.033     83.78712     167.3072     335.0484      1.562     4.28     997.0225     59.10475     197.5392        12     1.116     0.866 -57.33   0
       548    509.6406    184.3253 307.7266304  +6.6014617     2027.388     3061.117     2594.949     83.92043     167.7076     335.3485      1.618     3.85     979.8069     59.10475     253.1201        19     1.254     0.980  85.03   0
       549    841.4375    180.9771 307.5888667  +6.6139446     2290.964     3140.738     2961.974     83.65359     167.4408     335.0817      1.426     3.27     976.9725     59.10475     329.2207        16     1.200     0.779  54.56   0
       550    521.5767    180.1335 307.7218119  +6.6035925     2592.653     3795.445     3939.644     83.65359     167.7076     335.2485      1.562     3.83     979.4023     59.10475     333.9172        19     1.304     0.917  59.35   0
       551    893.7936    179.8796 307.5671468  +6.6161459      2262.35     2843.941     3142.009     83.65359     167.2404     335.0484      1.277     3.31     974.9183     59.10475     330.5698        16     1.212     0.755  63.88   0
       552    753.0981    177.4866 307.6256937  +6.6124341     43328.29     60817.83     62785.68     84.05353     168.1735     335.3819      1.529     3.34     978.7955     59.10475      5870.94        55     1.439     1.090  59.93   0
       553    356.2090    176.9666 307.7906345  +6.5993541     5750.782     11987.79      13183.6     83.51985     167.5075     335.1485      2.147     5.56     988.9508     59.10475     591.3903        47     1.989     1.259 -83.64   0
       554    986.7960    176.2028 307.5286223  +6.6207670     3139.441     4132.318     4111.107     83.38589     167.2404     335.1151      1.344     3.04      971.651     59.10475     501.6007        17     1.190     0.745  61.81   0
       555    920.9794    174.5675 307.5560280  +6.6192466      8396.37     11203.19     11779.48     83.51985     167.5075     335.1485      1.405     3.26     973.5054     59.10475     1314.897        28     1.294     0.876  67.10   0
       556   1023.8707    174.4845 307.5132731  +6.6227126     646.8998       722.64     586.0438     70.29243     130.0949     248.6337      0.942     3.05     970.6415     59.10475      170.178         5     0.948     0.327 -85.15  24
       557    464.5147    173.6680 307.7457414  +6.6043494     5119.834     7849.113     8384.118     84.18642      167.974     335.3485      1.702     3.61     980.7574     59.10475     616.9736        28     1.394     1.060  63.49   0
       558    238.4431    170.0858 307.8398017  +6.5982398      626.597     1028.105     806.4615     84.05353     167.5742     335.3152      1.641     4.61     998.4321     59.10475      98.3905         6     1.238     0.487  85.15   0
       559    121.8846    165.0397 307.8884047  +6.5964038     4806.399     7478.508     8253.829     84.05353     167.6409     335.2485      1.636     3.48     1002.959     59.10475     641.3575        29     1.385     1.062  70.63   0
       560    941.2635    164.3398 307.5479423  +6.6241465     949.7894     1304.256     2239.649     84.05354     167.6409     335.3485      1.273     3.75     972.3551     59.10475     166.5682         7     0.933     0.521  58.52   0
       561    292.2088    161.6716 307.8177452  +6.6035203     33766.16     52986.06     55315.13     83.51985     167.2404     335.1485      1.693     3.59     996.9869     59.10475     4029.305        57     1.521     1.241  69.94   0
       562    267.5620    162.7697 307.8279496  +6.6022389     6583.421     10294.77     10135.92     83.65359     167.4408     335.1818      1.688     3.66     997.8063     59.10475     757.9403        34     1.401     1.158  57.94   0
       563     32.7194    164.8114 307.9254616  +6.5934967     2794.017     2833.474     2618.963     83.65359     167.4408     335.1485      0.639     0.59      1008.07     59.10475     1736.126         7     0.761     0.303  20.71   0
       564    618.5200    163.1173 307.6821015  +6.6138652     683.8828     1212.194     1875.672     84.05353      167.974     335.3819      1.876     4.66     979.3091     59.10475     82.14392         6     1.053     0.587  24.25   0
       565    721.4285    161.2947 307.6393991  +6.6180608     918.8693     1077.556     1083.457     84.18642     167.4408     335.2151      1.265     2.82     978.7108     59.10475     161.0585         7     0.788     0.663 -11.71   0
       566    416.2539    157.1630 307.7663527  +6.6095456     50159.81     77647.59     80756.34     83.92043     167.7076     335.3485      1.671     3.61     981.7307     59.10475     6096.004        65     1.519     1.246  66.17   0
       567    172.2659    158.3258 307.8676977  +6.6008706     4051.297     6436.025     7254.648     84.18642     167.7076     335.2819      1.735     3.49      1000.25     59.10475     479.6204        26     1.337     1.066  74.89   0
       568    433.5981    157.6507 307.7591290  +6.6099260     1245.283     1780.933     1564.833      83.3859     167.3072     334.8815      1.591     4.89     981.1055     59.10475     162.7815        16     1.271     0.933  74.02   0
       569    755.5450    153.4227 307.6254867  +6.6224518     35932.55     50144.83     52282.34     83.51985     167.7076     335.1151      1.518     3.10     977.5965     59.10475     4979.098        51     1.383     1.109  64.98   0
       570    704.1893    155.3158 307.6467642  +6.6199529     995.7233     1511.521     1372.034     83.65359     167.4408     335.1485      1.549     5.85     978.4907     59.10475     141.3109        12     1.415     0.681  55.96   0
       571    587.1422    156.6505 307.6953584  +6.6154847     610.5441      946.992     1382.444     84.05353     167.7076     335.3152      1.908     5.63     978.7357     59.10475     83.59747         6     1.161     0.769  33.72   0
       572    320.3019    154.8854 307.8063011  +6.6072656     18218.81     28276.41     30013.49     84.05353     168.1735     335.3819      1.681     3.53     993.5114     59.10475     2180.323        50     1.469     1.254  62.74   2
       573    327.8318    154.9198 307.8031710  +6.6075042     2067.341     3657.635      4898.28     83.92043     167.6409     335.2819      2.262     6.43     992.4838     59.10475     245.2136        25     1.710     1.118 -88.19   2
       574    803.9299    154.0011 307.6053604  +6.6238300     1196.776     1699.132     2355.121      83.3859     167.2403     335.1485      1.415     3.66     976.7102     59.10475     190.5952        11     1.060     0.733  65.71   0
       575     42.6355    153.5233 307.9217239  +6.5984911     637.0718     700.2504      155.505     83.92043     167.7742     335.3485      1.467     3.46      1007.33     59.10475     84.88513         5     1.111     0.311  69.83   0
       576     72.3502    150.6295 307.9094751  +6.6006864     9422.303     14298.22     14643.71     83.65359     167.7742     335.2151      1.635     3.37     1005.437     59.10475     1218.467        37     1.434     1.119  65.70   0
       577    106.4152    148.7153 307.8953853  +6.6026232     1553.485     2372.277      2582.69     83.65359     167.4408     335.2151      1.683     3.72     1003.313     59.10475     230.9699        16     1.199     0.901  45.43   0
       578   1013.8885    147.6055 307.5183235  +6.6334782     1202.763     1427.659     1306.381     83.51985      167.374     335.0484      1.249     3.70     969.7571     59.10475     193.7332        10     1.036     0.627  62.06   0
       579    739.9229    141.1082 307.6323931  +6.6270141     829.6755      1132.06     1072.719     83.78712      167.974     335.3152      1.522     4.41     977.0468     59.10475     115.5554         8     0.847     0.654  51.91   0
       580    589.4703    137.8233 307.6950256  +6.6233362     838.7249     1222.136     1431.871     83.65359     167.5742     335.2819      1.633     5.56     978.0176     59.10475     124.9532        10     1.331     0.656  36.00   0
       581      6.0632    135.8983 307.9375176  +6.6045363     1039.689     1284.311     1314.932     83.92043     167.7742     318.8766      1.399     4.84     1009.432     59.10475     130.9823        10     1.073     0.670  76.15  16
       582   1014.8853    133.7853 307.5183732  +6.6392178     2674.831     3434.697     3495.808     83.65359     167.4408     335.1818      1.351     3.25     968.6266     59.10475     455.3015        16     1.205     0.745  53.74   0
       583    606.1465    129.9854 307.6883599  +6.6271308       1831.6     3051.434     3413.792      83.3859     167.6409      335.015      1.747     4.44     977.7283     59.10475     257.0822        21     1.275     1.151 -61.22   0
       584    598.3190    131.4952 307.6915617  +6.6262454     1109.639     1751.451     2096.312     83.78712      167.974     335.4152      1.801     5.07     977.7601     59.10475     149.1893        11     1.095     0.764 -73.91   0
       585    350.7552    129.9130 307.7944904  +6.6185988     903.2467     1469.004      1518.89     84.05353     167.5742     335.3152      1.740     6.51     989.7216     59.10475     131.9418        13     1.339     0.905  66.64   0
       586    291.1247    127.8964 307.8193375  +6.6174291      30354.6     47597.23        49994     83.65359     167.8409     335.3485      1.668     3.46     997.6517     59.10475     3725.416        55     1.504     1.229  68.27   0
       587     36.3746    126.3201 307.9252473  +6.6095118     4607.588     6957.704     6970.598     83.78712     167.5075     335.2819      1.653     3.46     1007.185     59.10475     604.5815        29     1.418     1.098  80.77   0
       588    722.7939    124.5242 307.6400695  +6.6332888     8678.003     12675.61     13136.83     83.65359     167.1735     335.1485      1.585     3.20     976.1486     59.10475     1127.637        33     1.421     1.028  62.80   0
       589    199.9542    125.4570 307.8573047  +6.6153724     764.9076     1372.518     1395.561     84.05353     167.7076     335.3485      1.939     5.64     999.4294     59.10475     120.2672         9     1.230     0.728  80.58   0
       590    276.4771    123.0965 307.8255865  +6.6189188     907.8502     1568.979     1684.438     83.65359     167.9074     335.3819      1.926     4.54     998.1893     59.10475     136.3534         9     1.044     0.903  18.13   0
       591    133.6261    121.6047 307.8849966  +6.6147322     4924.053     7638.808     7961.202     83.51985     167.5075     335.1485      1.672     3.72      1001.21     59.10475     593.7502        26     1.353     1.044  67.57   0
       592    595.1071    119.8108 307.6932903  +6.6309622     775.1656     1016.565     1160.364     83.78712      167.374     335.0817      1.394     4.53     977.2872     59.10475     91.33575         8     0.865     0.674  44.10   0
       593    472.6276    118.9330 307.7442173  +6.6272208     1459.676     2061.966      2123.39     83.65359     167.6409     335.2485      1.560     4.27     978.8059     59.10475     184.6534        13     1.174     0.783  51.61   0
       594    404.2251    117.8083 307.7726801  +6.6253911     3900.989     6578.205     7567.955     83.65359     167.5075     335.1485      1.873     3.97     983.1746     59.10475     469.2133        32     1.460     1.184  79.47   0
       595    661.4304    118.6527 307.6657678  +6.6336605     982.4185     1440.704     1363.739     83.92043     167.7742     335.2485      1.664     5.10     976.5522     59.10475     154.8502        12     1.322     0.783  57.51   0
       596    368.6379    116.4348 307.7875147  +6.6247640     3210.926     4926.353     4924.597     83.78712     167.5742     335.0817      1.684     4.77     987.5583     59.10475     409.5587        28     1.556     1.038  63.70   0
       597    122.7839    116.4331 307.8896770  +6.6165026     1779.875      2643.52     2311.448     83.65359     167.4408     335.1818      1.618     3.97     1001.466     59.10475     255.7463        18     1.196     1.062  70.90   0
       598    580.3337    116.4637 307.6995424  +6.6318495     647.5345     1218.309     1294.591     84.05354     167.7076     335.3152      1.820     3.87     977.2014     59.10475     86.50372         6     0.912     0.471 -88.80   0
       599    758.8364    114.2655 307.6254366  +6.6387297     689.7292     792.9343     77.96722     83.92043     167.7076     335.3819      1.496     4.62     974.8193     59.10475     100.9264         7     1.073     0.565  77.97   0
       600    684.5571    114.3297 307.6563027  +6.6362192     1006.973     1096.838      660.454     83.92043     167.7076     335.3819      1.201     3.24     975.8986     59.10475     150.9668        10     0.869     0.812  41.45   0
       601    916.1529    113.7326 307.5600776  +6.6442042     493.8871     568.0868     828.4272     84.05353     167.6409     335.3152      1.703     3.42     970.8785     59.10475     87.83337         5     0.968     0.349  45.66   0
       602   1015.1689    110.6531 307.5190318  +6.6487786     1742.479     2192.162     2094.559     83.92043     167.7742     335.2151      1.260     2.81     966.8117     59.10475     290.2797        13     1.053     0.751  55.15   0
       603    740.9204    110.6694 307.6330030  +6.6396155     680.5109     889.9911     558.3481      84.3191      167.974     335.2819      1.545     5.78     974.9009     59.10475     96.33472         6     1.162     0.809  40.31   0
       604    220.5810    105.4148 307.8494116  +6.6243409     5595.434     8539.697      8498.52     83.78712     167.4408     335.2151      1.657     3.66     999.1033     59.10475     744.7032        29     1.460     1.045  72.35   0
       605    103.3051    105.4164 307.8981441  +6.6203957     2276.731     3497.999     3511.169     83.78712     167.5075     335.1485      1.697     3.65     1001.771     59.10475     313.3864        20     1.302     0.946  59.69   0
       606    959.4030    105.9702 307.5423645  +6.6488524     379.8955     626.8731     710.7079     83.51985     167.5075     335.1151      1.896     4.69     968.9269     59.10475     72.73804         5     1.080     0.578  16.70   0
       607    682.3325    104.3063 307.6575648  +6.6402833     6802.514     9811.362     10365.38     83.92043     167.9074     335.3485      1.564     3.36     975.2541     59.10475     962.0488        28     1.341     0.990  62.67   0
       608    859.5211    105.2838 307.5838966  +6.6458022     717.4979     1035.366     1485.518     84.18642     168.0405     335.4485      1.540     4.31     971.5928     59.10475     116.2545         7     0.960     0.551  32.25   0
       609    830.2100    104.0220 307.5961201  +6.6453442     1055.581     1661.936     1909.457     83.65359     167.4408     335.1485      1.580     3.61     972.5113     59.10475     172.1006        10     1.035     0.720  68.99   0
       610    634.4829    101.5825 307.6775414  +6.6398068     9926.162     14430.74     15516.46     83.65359      167.374     335.2485      1.614     3.29     975.9162     59.10475     1270.867        36     1.448     1.050  58.98   0
       611    268.8901    101.7756 307.8294602  +6.6274669     703.7784     1230.233     1189.668     84.18642     167.5075     335.1485      2.021     4.94     998.5533     59.10475     99.79095         6     1.092     0.632 -88.75   0
       612    572.6229    100.7694 307.7032759  +6.6380713     795.3159     1022.321     1371.235      83.3859     167.4408     335.1485      1.383     4.11     976.7715     59.10475     105.5544         8     0.934     0.637  71.19   0
       613     33.1187    100.5458 307.9274738  +6.6200437     983.6263     1347.821     1658.839     84.05353     167.7076     335.3819      1.516     4.55     1006.908     59.10475     145.2403        11     1.114     0.736  79.13   0
       614    361.6079     97.3945 307.7910793  +6.6323894     3681.633     6055.897      6364.36      83.3859     167.5075     335.1485      1.772     4.02      988.552     59.10475     398.1866        30     1.408     1.250  85.95   0
       615   1007.5776     96.4761 307.5226626  +6.6543792     1060.193     1274.524     1608.492     83.65359     167.5075     335.2485      1.453     4.53     965.9777     59.10475     142.4232        12     0.961     0.904  14.48   0
       616    543.1316     96.5032 307.7156753  +6.6388448     1672.743     2484.952     2672.659     83.92043     167.8409     335.3152      1.592     5.03     977.0925     59.10475     248.8111        15     1.392     0.774  52.30   0
       617    638.0369     93.1060 307.6763501  +6.6434256     56153.36     81843.78     84982.76     84.18642     167.5742     335.4152      1.549     3.38     975.4771     59.10475     7768.677        62     1.465     1.153  60.69   0
       618    595.1794   1014.2643 307.6631331  +6.2616461     186498.9     246898.1     255699.5     83.65359     167.7076     335.1818      1.395     2.87     1017.806     59.10475     31622.39        93     1.419     1.084  66.49   3
       619    317.0665     86.7374 307.8099488  +6.6352941     3564.874     5405.092     5683.203     84.05353     167.7076     335.3152      1.620     3.56     994.6558     59.10475      453.233        25     1.343     1.115  73.73   0
       620    512.4756     84.4857 307.7288203  +6.6427795     565.0386     866.8305     625.2488     84.18642     168.0405     335.3819      1.628     3.75     977.1885     59.10475     84.03992         6     1.060     0.382  70.99   0
       621    716.9821     81.2672 307.6439410  +6.6509551     1014.013     1505.091     1575.352     83.65359     167.6409     335.2151      1.503     4.87     973.6734     59.10475     144.9531        11     1.118     0.766  78.21   0
       622    688.4189     80.5000 307.6558371  +6.6503164      1580.82     2215.717     2316.639     84.05354     167.5742     335.0817      1.409     3.58     974.2983     59.10475     240.1025        16     1.253     0.771  60.52   0
       623    702.3751     76.9452 307.6501570  +6.6522510      3499.85      5103.12     5235.641     83.65359     167.7742     335.1151      1.564     3.30     973.8903     59.10475     473.1042        21     1.224     0.961  62.80   0
       624    444.2297     68.0902 307.7577345  +6.6472609     4249.146     6515.419     6546.129     84.18642     167.4408     335.2485      1.627     3.35     980.2249     59.10475     562.8319        27     1.326     1.049  50.04   0
       625    898.6948     64.4960 307.5689876  +6.6639512     2408.875     3127.108      2687.04     84.05354     168.3728     335.1818      1.407     3.45     968.4577     59.10475     360.7042        16     1.248     0.787  55.90   0
       626    916.6659     63.4646 307.5615535  +6.6649769     4418.404     5799.715     5980.974     84.05354     167.7076     335.3152      1.360     3.04     968.2162     59.10475       698.59        22     1.276     0.835  64.25   0
       627    608.7079     61.9101 307.6895898  +6.6553243     1881.777     2659.018     2640.895     84.05353       168.24     335.3819      1.527     3.54     975.2623     59.10475     232.1484        15     1.128     0.860  72.53   0
       628    254.9939     61.4904 307.8365972  +6.6436330     846.3555     1549.666     2361.423     83.65359      167.374     335.0817      1.819     4.69     998.9457     59.10475      111.543         7     1.018     0.613  59.45   0
       629    407.6341     59.9152 307.7732186  +6.6494086     2191.988     3200.451      2674.71     84.05353     167.5742     335.2819      1.532     3.12     983.2823     59.10475     352.2906        19     1.203     0.922  76.29   0
       630     98.4121     61.0325 307.9016808  +6.6385560     468.8894     409.5032     119.0912     83.51985     167.4408     335.2151      1.217     4.67     1000.805     59.10475     71.27679         5     1.034     0.598  14.41   0
       631    155.3827     56.9734 307.8781441  +6.6421488     3314.285      5194.91     5536.559     83.65359     167.4408     335.2151      1.661     4.02     999.5067     59.10475     408.1013        27     1.465     1.105  69.65   0
       632     37.3774     54.6485 307.9272598  +6.6391368     12870.72     19441.12     20735.49     83.65359     167.7076     335.2151      1.636     3.42     1005.104     59.10475     1708.568        38     1.441     1.097  69.35   0
       633    303.6777     55.2859 307.8165758  +6.6478302     1310.637     2111.348     2947.758     84.05354     168.0405     335.4152      1.745     4.43     996.7067     59.10475     160.5156        14     1.105     0.938  61.08   0
       634    995.1613     53.2085 307.5292753  +6.6718303     547.6768     925.1954     557.8264     83.25173     167.4408      335.015      1.304     3.62     963.6626     59.10475     94.23816         5     1.167     0.323 -80.97   0
       635    958.2737     53.5903 307.5445931  +6.6704423     601.5645     718.9799     1245.141     83.65359     167.3072     335.1818      1.273     3.71     965.9071     59.10475     120.1982         6     0.859     0.504  42.19   0
       636    577.0986     54.5680 307.7029736  +6.6572972     713.7809     963.1898     664.6567     84.05353     167.5742     335.4485      1.339     4.10     975.4144     59.10475     108.3522         6     0.986     0.488  -5.83   0
       637    784.2047     49.6060 307.6170698  +6.6662752     3627.214     4986.776     5526.414      83.3859     167.4408     335.1485      1.475     3.34      970.373     59.10475     564.2086        20     1.287     0.842  62.90   0
       638    429.2061     50.3827 307.7645757  +6.6540682     1148.163     1603.521     1453.014     83.65359     167.4408     335.1485      1.601     3.89     981.5363     59.10475     168.3837        10     1.050     0.717 -87.57   0
       639    838.9808     49.1902 307.5943190  +6.6682770     6816.938     9293.162     9955.772     83.65359      167.374     335.1818      1.443     3.21     968.6424     59.10475     1001.033        24     1.251     0.893  53.21   0
       640    929.7434     49.3709 307.5565921  +6.6712326     620.1973     842.3756     587.7598     83.65359     167.7742     335.2151      1.438     4.10     967.2849     59.10475     107.9532         6     0.938     0.511  41.75   0
       641    770.9257     48.5858 307.6226228  +6.6662526     696.8161     1211.119     2901.269     83.51985     167.4408     335.1485      4.281     5.18     970.7074     59.10475      105.853         9     1.046     0.724 -88.41   0
       642    546.1597     47.4370 307.7160717  +6.6592052     1198.661     1740.281     1789.315     83.78712     167.7076     335.1818      1.476     4.14     975.4696     59.10475     149.2942        12     1.032     0.848  45.43   0
       643     77.6534     46.4827 307.9108000  +6.6438644     3517.298     5127.647     4991.053     84.05354     167.7076     335.4152      1.601     3.21     1001.858     59.10475     487.8322        24     1.299     0.988  60.39   0
       644     62.6340     47.3582 307.9170116  +6.6429973      1092.74     1548.756      1426.66     83.78712     167.7076     335.1485      1.563     4.98     1002.965     59.10475       155.33        11     1.122     0.865  43.96   0
       645    666.6032     46.4326 307.6660509  +6.6636527     679.3187     874.2114     1043.112     83.25173     167.5075      335.015      1.527     4.87     974.1825     59.10475     120.4351         9     1.365     0.746  61.90   0
       646    438.9148     45.8868 307.7606928  +6.6562501     1060.436     1556.707      1702.68     83.78712     167.9074     335.3819      1.563     4.40     980.8466     59.10475     157.0934        11     1.031     0.784 -79.31   0
       647    601.4960     43.4066 307.6932107  +6.6627227     1256.831     1818.544     1495.841     83.78712      167.374     335.1151      1.661     4.61     974.8765     59.10475     161.1031        14     1.164     0.808  48.91   0
       648     20.0819     42.0564 307.9348738  +6.6437531     2621.322     4301.638     4952.419     84.05353     167.7076     335.3485      1.792     3.68      1005.88     59.10475     359.3131        24     1.312     1.135  53.64   0
       649    778.8239     36.9291 307.6197326  +6.6713296     2174.179     3012.248     3121.173     83.65359     167.5742     335.2485      1.428     3.19     969.7478     59.10475     330.6085        16     1.194     0.815  61.09   0
       650    419.3365     37.1753 307.7691233  +6.6591902     1285.188     1875.403     1332.914     83.65359     167.7076     335.2485      1.604     4.22     982.5199     59.10475     157.1469        15     1.101     1.004  39.66   0
       651     92.6390     37.3669 307.9048815  +6.6481325     850.0532     1270.376     1413.038     83.78712     167.5075     335.0817      1.683     4.79     1000.574     59.10475     134.5532        11     1.166     0.802  77.21   0
       652    116.7353     35.8323 307.8949201  +6.6495771     916.5842     1339.618     1623.541     83.92043     167.7076     335.2819      1.616     6.25     999.9122     59.10475     120.4835        12     1.247     0.880 -80.42   0
       653    105.3763     30.7437 307.8998128  +6.6512958     9629.965      14565.3     14565.01     83.65359     167.7076     335.1151      1.634     3.53     1000.022     59.10475     1189.739        38     1.495     1.090  67.88   0
       654    434.7243     30.5690 307.7629515  +6.6624340     2501.677     3904.104     4404.987     83.92043     167.7742     335.2819      1.752     5.91     981.3558     59.10475     315.7347        27     1.702     1.107  41.07   0
       655    677.9684     24.4453 307.6620682  +6.6731113     578.9042      497.802    -223.0303     83.65359     167.7742     335.1818      1.156     4.69     973.5184     59.10475     88.02625         7     1.020     0.613  55.43   0
       656    596.9208   1007.0890 307.6626515  +6.2646670     86549.61     115295.2     119987.7     83.78712      167.974     335.4152      1.398     3.07     1017.413     59.10475     13800.25        71     1.425     1.050  60.79   3
       657    272.1729     24.6657 307.8307036  +6.6594143     1496.085     1958.126     2520.175     83.65359     167.6409     335.2151      1.525     3.66     999.1493     59.10475     191.8403        14     1.073     0.877  30.69   0
       658    229.1209   1017.0363 307.8150465  +6.2482311     4376.368     5715.644     5755.189     83.92043     167.7742     333.5101      1.355     2.93     1021.485     59.10475     720.9467        20     1.174     0.836  64.45  16
       659    266.2113     19.3063 307.8333623  +6.6614268     1886.792     2644.683     3388.994     83.78712      167.374     335.0817      1.576     3.22     999.1824     59.10475     256.6226        15     1.081     0.870  72.43   0
       660    770.7177   1016.5569 307.5901605  +6.2665680     924.3597     1203.456       805.97     84.05354     167.7076     335.2819      1.401     3.76     1012.943     59.10475     156.1716         7     1.069     0.425  60.63  16
       661    635.9370     17.2183 307.6797799  +6.6746886     987.0588     1235.628     2255.151     83.65359     167.6409     335.1818      1.349     3.50     973.9645     59.10475     167.5771         6     0.889     0.603  57.92   3
       662    412.7381   1016.9893 307.7388016  +6.2544109     872.7906     831.9872     841.4417     83.51985     167.5075     333.6776      1.214     2.91     1019.433     59.10475     153.5096         7     0.759     0.613  69.34  16
       663    784.0302     17.1417 307.6182347  +6.6796736     557.0762     1000.508     1352.084     83.78712     167.7076     335.2151      1.818     3.84     968.3515     59.10475      96.0177         5     0.839     0.505  58.58   0
       664    703.4997     17.0544 307.6517064  +6.6770171     536.8546     848.0358     1879.765     83.78712     167.7076     335.6151      2.325     5.06     972.0641     59.10475     80.77246         6     1.367     0.530  52.84   0
       665    976.9591   1013.3339 307.5046214  +6.2747811     730.5387     999.1707     1094.071     84.05353     167.6409     335.4152      1.538     4.29     1007.412     59.10475     108.7986         7     1.209     0.433  56.06   0
       666    805.9976   1011.1188 307.5756924  +6.2699918     7968.419      10743.3      11114.4      83.3859     167.2404     335.0484      1.401     2.94     1011.065     59.10475     1352.865        28     1.275     0.925  57.30   0
       667    334.0214     15.3566 307.8053156  +6.6653353     963.8489     1447.853     988.3168     83.51985     167.5742     335.1151      1.695     4.14      992.546     59.10475     155.8914        13     1.124     0.909  31.70   0
       668    845.6777   1009.7900 307.5592588  +6.2718651     525.5126     615.9886     611.6876     83.65359      167.374     335.1818      1.117     3.40     1010.588     59.10475     94.95233         5     0.764     0.437  74.75   0
       669    903.8867   1007.6802 307.5351566  +6.2746787     1623.514     2254.458      1742.52     83.78712      167.974     335.4485      1.402     3.61     1010.334     59.10475     280.1201        14     1.249     0.720  58.82   0
       670    763.5255   1005.9975 307.5935020  +6.2706878     703.7736     1716.878     1939.149     83.51985     167.1735     335.1818      2.940     8.10      1012.83     59.10475     122.3489        14     2.119     0.865  57.88   0
       671    226.7071   1006.4171 307.8164075  +6.2525346     2758.564     3498.398     3874.415     83.78712     167.5075     335.1485      1.408     3.08     1021.349     59.10475     416.3086        16     1.117     0.816  84.87   0
       672    586.0148   1002.8039 307.6673246  +6.2660714     4714.775     6462.861     7560.722     83.65359     167.3072     335.1485      1.440     3.21     1017.595     59.10475     774.0275        24     1.378     0.932  77.89   0
       673    729.9119   1003.5875 307.6075419  +6.2705598     8789.074     11627.22     11821.27     83.65359     167.4408     335.1818      1.383     3.25     1014.067     59.10475     1303.215        26     1.240     0.903  62.46   0
       674    444.8602   1003.8207 307.7259066  +6.2609247     4710.812     6119.715     6684.184     83.65359     167.6409     335.2485      1.412     3.40     1019.141     59.10475     734.4213        19     1.183     0.796  65.44   0
