#   1 NUMBER                 Running object number                                     
#   2 X_IMAGE                Object position along x                                    [pixel]
#   3 Y_IMAGE                Object position along y                                    [pixel]
#   4 ALPHA_J2000            Right ascension of barycenter (J2000)                      [deg]
#   5 DELTA_J2000            Declination of barycenter (J2000)                          [deg]
#   6 FLUX_APER              Flux vector within fixed circular aperture(s)              [count]
#   9 FLUXERR_APER           RMS error vector for aperture flux(es)                     [count]
#  12 FLUX_RADIUS            Fraction-of-light radii                                    [pixel]
#  13 FWHM_IMAGE             FWHM assuming a gaussian core                              [pixel]
#  14 BACKGROUND             Background at centroid position                            [count]
#  15 THRESHOLD              Detection threshold above background                       [count]
#  16 FLUX_MAX               Peak flux above background                                 [count]
#  17 ISOAREA_IMAGE          Isophotal area above Analysis threshold                    [pixel**2]
#  18 A_IMAGE                Profile RMS along major axis                               [pixel]
#  19 B_IMAGE                Profile RMS along minor axis                               [pixel]
#  20 THETA_IMAGE            Position angle (CCW/x)                                     [deg]
#  21 FLAGS                  Extraction flags                                          
         1     10.0542     97.4048 307.9359355  +6.6322114     721431.8      1629010      1815222     78.29137     157.2108     314.5157      2.285    12.59     855.6755     55.49371     61577.79       453     2.428     1.818 -41.29  28
         2    997.3804     18.4568 307.5282482  +6.6979022      1847.41     3169.447     3388.734     78.54272     157.3988      314.641      1.824     4.77     831.5618     55.49371     272.3417        20     1.611     0.815 -36.65   0
         3    716.7537     15.0211 307.6450029  +6.6899484     7016.925     11336.28     11843.46     78.54272     157.4614     314.6723      1.689     4.11     835.6193     55.49371     1003.403        32     1.614     0.945 -36.54   0
         4    636.8651     14.1647 307.6782360  +6.6876288     3635.569     5873.854     6642.637     78.79325     157.4614     314.8602      1.719     4.43     835.7991     55.49371     540.3909        24     1.573     0.825 -34.25   0
         5    338.8592     13.8664 307.8021041  +6.6777607     915.9491     1635.745     2157.618     79.04299     157.3988     314.8289      1.889     5.92     846.3109     55.49371     163.4207        13     1.535     0.741 -36.04   0
         6    437.1310     10.4522 307.7613755  +6.6824685     5897.881     9620.029     9568.881     78.79325     157.3362      314.735      1.726     4.68     839.5063     55.49371       784.85        34     1.678     0.970 -32.61  16
         7     38.0693      9.9894 307.9272445  +6.6692455     7861.854     13037.38     13771.64     78.41714     157.2735      314.641      1.749     4.56     846.6073     55.49371      1063.04        34     1.663     0.955 -33.77  16
         8    683.8797      9.2139 307.6588613  +6.6912463     806.2961     1267.603     1559.171     78.54272     157.2108     314.6097      1.547     4.38     835.7856     55.49371     131.5031         8     1.069     0.510 -52.20   0
         9    512.6879      7.4930 307.7300717  +6.6862239     811.4127     1340.114     1921.278     78.91822     157.8989     310.7331      1.698     4.66     836.4143     55.49371     129.1239         8     1.261     0.489 -44.82  16
        10    333.6865      5.3702 307.8045400  +6.6810949     12333.39      20028.2     21638.45     79.04299     157.2108     292.0973      1.765     4.41     846.2608     55.49371     1714.399        46     1.782     1.005 -34.77  24
        11    107.3228      5.5242 307.8986136  +6.6734209     2482.388     4093.441     4245.387     79.16757     157.7115     293.9135      1.794     4.66     846.8652     55.49371     387.3199        24     1.607     0.876 -30.02  16
        12    428.7999      6.0829 307.7649850  +6.6839931     856.5656     1278.715     1720.644     78.16541     156.9599     299.1312      1.587     5.07     839.9434     55.49371     122.6495        12     1.186     0.725 -20.24  16
        13     98.4334      4.6671 307.9023370  +6.6734755     1503.857     2230.849     2827.676     78.79325      157.524     284.3705      1.713     5.99     847.1885     55.49371     205.0838        17     1.619     0.748 -32.06  16
        14    467.7413      4.1001 307.7488667  +6.6861178     754.1384      1160.12     1230.256     78.66808     155.9521     277.4952      1.794     3.57     837.6134     55.49371     127.9053         8     1.052     0.716 -57.62  16
        15    801.9359      3.9767 307.6099682  +6.6973562     753.7936     1142.958     1103.012     78.54272     155.2555     275.7496      1.690     5.07     836.6549     55.49371     118.8649         9     1.361     0.567 -22.47  16
        16    399.9695      3.1850 307.7770650  +6.6842222     2163.809     3323.438     3141.805     78.54272     148.5076     265.1833      1.624     5.05     842.1755     55.49371     348.5137        19     1.479     0.806 -35.82  24
        17    994.1796      1.2775 307.5301531  +6.7048886     463.6498     629.6093     922.6376      67.6204     124.2266     235.8789      1.236     4.33     830.1851     55.49371     91.13184         7     1.199     0.444   2.81  24
        18    659.4561      1.1741 307.6692823  +6.6937485     1435.711     1692.719     1861.827     66.29582     122.5494     234.1598      0.952     2.36      835.484     55.49371     418.4203         8     1.055     0.369  -5.14  24
        19   1014.8939    994.9646 307.4883447  +6.2952922     3612.591     7266.339     7288.717     79.04299     157.3362     314.9228      2.085     4.94     865.3118     55.49371     412.0803        41     1.803     1.298 -30.07  16
        20    964.9690   1020.8026 307.5082164  +6.2829595      5254.68     10355.78     10561.27     78.29137     156.3938     278.4524      2.036     4.70     867.5451     55.49371      613.802        46     1.833     1.301 -35.50  24
        21    605.9661    995.9106 307.6581449  +6.2812455     1190.584     1953.732     2177.439     79.04299     157.3988     314.8289      1.635     5.86     872.1567     55.49371     187.7401        13     1.499     0.645 -35.55   0
        22    537.3580    994.6409 307.6866804  +6.2794732     3784.948     6473.757     7262.604     78.66808     157.4614     314.7036      1.896     4.50     872.1866     55.49371     471.9407        37     1.855     1.144 -16.32   0
        23    647.2369    993.7092 307.6410788  +6.2835351     1200.845     2146.731     2241.911     79.04299     157.3988     314.8602      1.735     6.08     871.5347     55.49371     165.9402        14     1.440     0.722 -27.97   0
        24     71.4760    993.5596 307.8801907  +6.2642842     678.5682     1302.288     1597.538     78.79325     157.4614     314.8602      2.182     6.78      867.657     55.49371       91.099        11     1.305     0.987 -25.91   0
        25    490.3199    991.1692 307.7063318  +6.2793311     1965.825     3399.367     3219.387     78.79325     157.4614     314.7976      1.802     4.46     872.4412     55.49371     291.4314        21     1.589     0.826 -37.45   0
        26    924.8693    983.1326 307.5261287  +6.2971759     36479.26      67031.4     73379.95     78.91822     157.5865     314.8289      1.998     4.52     867.5747     55.49371     4150.013        91     1.963     1.361 -33.88   0
        27    232.1541    981.4517 307.8138723  +6.2746838     1611.793     2606.673     2746.302     79.04299     157.3988     314.8915      1.822     4.55     869.9619     55.49371     231.8905        17     1.449     0.791 -35.69   0
        28    631.2427    979.6238 307.6481933  +6.2888158     783.9388      1315.22     1559.858     78.54272     157.3362     314.6723      1.910     5.99     871.5991     55.49371     106.8605        12     1.615     0.625 -45.58   0
        29    822.9474    976.9250 307.5686662  +6.2963374     2001.749     3369.858     3410.597     78.91822      157.524     314.8289      1.839     4.81     869.0366     55.49371     250.5181        20     1.491     0.903 -35.66   0
        30    770.9904    974.8708 307.5903136  +6.2954502     5891.124     10529.54     11856.94     78.41714     157.0854     314.6723      1.898     4.42     869.6591     55.49371     738.4928        40     1.712     1.173 -35.65   0
        31    240.4144    974.0193 307.8106920  +6.2780299     1352.105     2329.163     2247.473     78.54272     157.2108      314.735      1.831     5.31     870.0168     55.49371     187.5674        18     1.690     0.699 -42.02   0
        32    557.6122    974.3959 307.6789478  +6.2885102     911.1873     1562.029     1766.134     78.54272     157.1481     314.7036      2.028     6.06     871.9233     55.49371     134.5653        14     1.389     0.743 -37.62   0
        33    204.8164    973.3608 307.8254975  +6.2771061     805.3206     1444.507     2006.309     78.54272     157.3362     314.6097      1.864     5.64      869.319     55.49371     105.0656        11     1.252     0.754 -36.46   0
        34     65.4948    971.7843 307.8834084  +6.2730735     2241.929     3687.277     3319.301     78.66808     157.2735     314.6723      1.711     4.66     867.0336     55.49371     334.2075        21     1.636     0.779 -28.39   0
        35    959.2379    969.8905 307.5122971  +6.3037898     5594.242     10164.54     10407.33     79.04299     157.3988     314.8602      1.939     4.51     866.2861     55.49371     639.2748        43     1.816     1.177 -28.33   0
        36    215.0695    966.5929 307.8214673  +6.2802448     553.6805     838.4473     1235.771     78.41714     157.0854      314.735      1.559     5.22     869.3354     55.49371     102.0837         7     1.150     0.669 -60.85   0
        37    640.8997    963.8335 307.6447118  +6.2956585     696.2388     1353.134     1495.865     78.91822     157.3362     314.9853      1.897     6.45     871.2565     55.49371     128.5769        11     1.464     0.799 -44.94   0
        38    932.9413    961.6188 307.5234951  +6.3063281     1819.396     3235.884     3316.193     78.54272     157.3362     314.6097      1.834     4.59     866.7957     55.49371     231.0325        23     1.469     1.023 -33.00   0
        39    653.7158    957.5256 307.6396004  +6.2986916     4165.732     6976.768       6867.5     79.04299      157.774     314.8915      1.804     4.42     871.0184     55.49371     556.5988        32     1.681     0.986 -35.07   0
        40    792.4822    958.2646 307.5819433  +6.3030247     1134.154     1936.762     2039.132     79.04299     157.5865     314.8602      1.922     6.11     869.1544     55.49371     156.3553        13     1.415     0.743 -38.51   0
        41    265.8195    957.6949 307.8006906  +6.2856229     3932.084     6459.892     7025.676     78.79325     157.2735      314.641      1.763     4.44     870.2854     55.49371     561.6877        27     1.644     0.890 -32.64   0
        42    476.0887    955.9429 307.7134243  +6.2933988     1041.545      1769.33      1889.33     78.91822     157.3988      314.954      1.931     5.58     871.6851     55.49371     173.5041        13     1.559     0.659 -29.04   0
        43     34.7274    954.9606 307.8967525  +6.2789843     2011.098      3518.68     3963.618     78.79325     157.4614     314.8914      1.886     4.89     865.9478     55.49371     280.3052        24     1.566     0.993 -30.03   0
        44    884.9775    954.4413 307.5436556  +6.3076914     645.2205      1004.23     719.1556     78.54272     157.2735     314.6097      1.403     3.75     867.5629     55.49371      89.4007         6     0.815     0.496  -0.80   0
        45    957.2112    951.0922 307.5137668  +6.3114839     655.7958     1096.401     1374.015     78.66808     157.1481      314.641      1.686     5.94     865.8023     55.49371     93.96692         8     1.197     0.828 -42.58   0
        46    578.4385    949.8351 307.6711221  +6.2993481     1481.281     2672.318     2843.896     78.66808     157.3362      314.641      1.915     5.43     871.5981     55.49371     221.2108        20     1.780     0.809 -33.60   0
        47    301.6576    951.3456 307.7860206  +6.2894475     614.8864     975.1218     993.2821     79.04299     157.4614     314.8602      1.827     4.36     870.7931     55.49371     91.70532         7     1.340     0.403 -25.41   0
        48   1009.5315    949.1428 307.4921016  +6.3140331     739.2054     1300.645     1263.792     79.04299     157.3988     314.7663      2.219     4.76       864.28     55.49371     90.91235         8     0.951     0.677 -36.20   0
        49     67.1167    947.3422 307.8835585  +6.2832195     629.3829     1017.523     1306.282     78.91822     157.4614     314.8914      1.610     4.80     866.4286     55.49371      93.6015         6     1.227     0.532 -39.93   0
        50    617.7589    946.3561 307.6549083  +6.3021005     984.9901     1621.927     1648.537     78.66808     157.4614      314.735      1.858     5.81     871.2997     55.49371      128.899        13     1.572     0.604 -39.59   0
        51    297.4931    944.1068 307.7879936  +6.2922964     1319.538     2189.529     1858.181     78.91822     157.9613     314.7976      1.756     6.33     870.5404     55.49371     177.6591        16     1.668     0.675 -31.09   0
        52    764.5648    940.0086 307.5941490  +6.3096298     767.0222     1283.466     1628.104     78.41714     157.2735      314.641      1.985     5.11     869.2208     55.49371     104.6979         9     1.373     0.538 -27.94   0
        53    901.9789    936.7272 307.5371865  +6.3155728     6076.803     10812.03     11128.04     78.54272     157.2735     314.7663      1.896     4.43     866.8855     55.49371     779.4628        41     1.806     1.105 -30.58   0
        54    111.3325    935.8094 307.8655848  +6.2894681      598.412     736.7175     295.7761     78.41714     157.2735      314.735      1.519     5.69     867.2037     55.49371     86.99152         6     1.160     0.786  53.71   0
        55    437.7000    933.9461 307.7301059  +6.3011944     1903.353     3046.873     2883.361     78.66808     157.4614     315.0792      1.657     5.01     870.5627     55.49371     251.6381        18     1.543     0.725 -39.07   0
        56    339.4461    932.2938 307.7709674  +6.2985817     8972.102     14621.49     15812.03     78.79325     157.3988      314.954      1.790     4.35     870.6646     55.49371     1211.526        41     1.731     1.023 -33.14   0
        57    259.5510    931.2303 307.8041841  +6.2963391     6724.019     10986.33     10945.97     78.54272      157.524      314.735      1.746     4.42     869.4617     55.49371     865.7607        33     1.711     0.925 -33.92   0
        58    587.9427    925.6996 307.6679841  +6.3096315     1091.757     1685.406     1331.265     78.66808     157.4614     315.0479      1.625     4.49     871.2343     55.49371      189.908        15     1.377     0.794 -25.36   0
        59    771.7349    924.9942 307.5916736  +6.3160687     587.2349     938.4675     1118.782     78.41714     157.2108     314.6097      1.621     4.23     868.8544     55.49371      97.3269         5     0.854     0.597   0.65   0
        60    917.4115    921.8387 307.5312744  +6.3222350     862.7224     1615.656     1442.656     78.41714     157.2735      314.547      1.981     6.05     866.1251     55.49371     142.6345        11     1.323     0.777 -28.39   0
        61    220.9130    921.3792 307.8205620  +6.2991088     654.8069      955.023     1371.309     78.91822     157.2108     314.7036      1.655     5.44     868.6079     55.49371     90.15222        10     0.943     0.887  -4.08   0
        62    150.1704    921.8292 307.8499264  +6.2965459     491.8356     922.1888     900.8451     78.41714     157.2108     314.5784      1.929     4.26     867.5635     55.49371      88.3808         6     1.147     0.452 -26.24   0
        63    985.1498    916.8728 307.5033058  +6.3265445     765.8865     958.6347      1418.43     78.91822      157.524     314.8602      1.378     5.15     864.0881     55.49371     123.9402         8     1.035     0.723 -77.61   0
        64    753.9980    914.8931 307.5993784  +6.3196467     1423.521     2362.045     2894.799     78.41714     157.1481      314.547      1.827     4.81     869.0865     55.49371     204.1165        19     1.565     0.880 -36.40   0
        65    577.8707    915.6555 307.6725040  +6.3134415     657.6015     1215.843     1201.501     78.79325     157.3988     314.7976      1.710     5.47     871.1006     55.49371     111.5695         9     1.502     0.562 -17.65   0
        66    985.2272    910.7522 307.5034781  +6.3290742     1056.732     1948.475     1798.516     78.54272      157.524     314.7663      1.821     6.63     863.9167     55.49371      124.823        15     1.527     0.807 -50.53   0
        67    618.2293    910.9820 307.6558986  +6.3167218     716.2703     1264.858     1039.901     78.54272     157.2735     314.7663      1.962     7.06      870.866     55.49371     107.0032        11     1.711     0.815 -52.41   0
        68      4.7499    911.7878 307.9106574  +6.2958002     839.6517     1582.698     2147.244     78.29137     157.3988     285.1318      1.796     6.01     864.2114     55.49371     149.6348        12     1.726     0.588 -47.29  16
        69    628.8073    911.5281 307.6514869  +6.3168502     585.6228     949.0506     745.9543     78.41714     157.0227     314.7663      1.799     5.89     870.7562     55.49371     95.58087         6     1.414     0.690 -28.05   0
        70    539.0568    910.4556 307.6887989  +6.3142890     1014.204     1578.325     1594.034     79.04299      157.524     314.8602      1.695     5.13      870.991     55.49371     173.9384        13     1.443     0.664 -37.64   0
        71    672.4870    908.2726 307.6334544  +6.3196554     2386.968     3894.977     3820.235     79.04299     157.7115     314.8289      1.737     4.52     870.2338     55.49371     316.5398        25     1.575     0.949 -37.72   0
        72     68.9985    904.4123 307.8842239  +6.3010073     2532.002     4277.198     4335.222     78.54272     157.1481     314.6097      1.767     4.71     865.6034     55.49371     337.7479        22     1.622     0.882 -38.54   0
        73    832.9488    904.6131 307.5669311  +6.3265284     668.4504     1243.023      1068.05     78.29137     157.3988     314.5784      1.829     5.00     867.5049     55.49371     103.5077         7     1.147     0.618 -44.19   0
        74     86.6656    903.6284 307.8769131  +6.3019253     1784.027      3016.53     3589.074     78.66808     157.3988     314.7663      1.887     4.98     865.9795     55.49371     266.8768        18     1.489     0.807 -43.29   0
        75    950.7764    903.3514 307.5180343  +6.3309812     671.7357      1004.03     1564.495     78.54272     157.4614      314.735      2.061     4.26     864.7104     55.49371     111.6121         8     0.952     0.757  73.34   0
        76    212.6191    903.2569 307.8246164  +6.3063125     1983.688     3306.732     3271.738     78.41714     157.3988      314.641      1.745     5.21     868.4396     55.49371     277.8579        18     1.550     0.755 -28.48   0
        77    351.4739    899.4728 307.7670752  +6.3125363     802.6892     1349.848     2228.814     79.16757      157.649     314.8914      1.885     6.12     870.1497     55.49371     109.8956        12     1.381     0.763 -25.97   0
        78    246.5296    900.2505 307.8106342  +6.3086927     723.5944     1151.876     1114.298     78.79325     157.3988     314.8602      1.871     4.85     869.0543     55.49371     135.9702         7     1.377     0.484 -19.69   0
        79    804.9683    898.3954 307.5787606  +6.3281612     591.3661     999.2475     1006.295     78.29137     157.3362     314.6097      2.085     5.96     867.6191     55.49371     96.44037         8     1.617     0.618 -35.11   0
        80    667.1368    897.3118 307.6360438  +6.3240021      6383.87     10660.45     11050.67     78.79325      157.649     314.8602      1.774     4.41     870.1485     55.49371     904.1522        36     1.648     1.010 -37.82   0
        81     27.1405    895.5479 307.9019063  +6.3032587     1196.323     1777.458     1767.573     78.91822     157.3988     314.8289      1.601     5.58     864.7147     55.49371     171.1598        13     1.281     0.684 -41.82   0
        82    904.8746    893.8541 307.5374168  +6.3333714     2523.445     4107.396     4346.689     78.79325     157.4614     314.8289      1.681     4.66     865.8304     55.49371     289.7854        24     1.609     0.901 -32.38   0
        83     40.5082    893.8163 307.8964131  +6.3044235     959.0084     1685.004     2115.399     78.66808     157.2735      314.735      1.988     5.34      864.952     55.49371     142.3976        11     1.315     0.612 -29.64   0
        84    350.1544    890.5213 307.7679241  +6.3161880     15338.38     25119.86     26952.19     78.91822     157.4614     314.7976      1.753     4.43     869.9952     55.49371     2048.046        48     1.761     1.016 -31.83   0
        85     84.8863    891.4003 307.8780642  +6.3069140     1197.391     2100.539     2183.084     78.16541     156.9599     314.4844      1.833     6.35     865.6375     55.49371     159.9207        14     1.371     0.827 -27.80   0
        86    220.8706    889.9744 307.8216365  +6.3120737     1104.707      2071.75     1874.337     78.54272     157.3362     314.7663      1.903     6.02     868.5784     55.49371     166.4029        15     1.589     0.851 -29.68   0
        87    400.9371    889.8837 307.7468542  +6.3181545     705.4619     986.4249      1378.15     79.04299      157.524     314.7976      1.507     4.35     869.8398     55.49371     122.5431         7     1.048     0.515 -57.03   0
        88    427.9014    881.4589 307.7359382  +6.3225370     1028.673     1650.986     1450.053     78.66808     157.3988      314.954      1.712     5.16     869.7832     55.49371     135.5774        14     1.348     0.760 -42.04   0
        89    113.4324    881.2476 307.8665508  +6.3120659     1453.723     2731.119     3142.323     78.66808     157.4614     314.7663      1.891     6.15      865.946     55.49371     212.7227        17     1.672     0.675 -33.26   0
        90    681.2441    877.9859 307.6308319  +6.3324534      772.706     1441.138     1910.503     78.29137     157.2735     314.5784      2.104     5.54     869.7234     55.49371     104.5672         9     1.664     0.520 -38.38   0
        91    508.2463    877.9368 307.7026865  +6.3266836     640.2874     1102.445      1545.27     78.79325     157.3988     314.8602      2.086     4.56     870.0165     55.49371      98.1095         8     1.116     0.530 -36.88   0
        92    895.2466    875.3778 307.5420334  +6.3406789     1835.974     3263.659     3143.261     78.54272     157.4614     314.6723      1.847     4.68     865.6454     55.49371     223.8165        21     1.500     0.915 -34.57   0
        93     96.8401    874.8410 307.8736576  +6.3141530     2220.613     3664.129     4545.858     78.66808      157.524     314.7036      1.840     4.48     865.3886     55.49371     318.3155        22     1.689     0.835 -33.77   0
        94    865.9703    874.8815 307.5542100  +6.3399067     1751.298     2858.305     2669.515     78.79325     157.2735     314.8289      1.679     4.68     866.3823     55.49371     232.5823        18     1.344     0.949 -33.20   0
        95    829.4968    874.2069 307.5693820  +6.3389676      2841.71     4766.918     5690.069     78.66808     157.0854     314.5784      1.933     4.50     866.8141     55.49371     383.4249        28     1.734     0.930 -31.45   0
        96    565.2671    865.7413 307.6794127  +6.3336285       312348     506230.2     539599.7     79.04299     157.3988     314.8289      1.759     4.47     870.0044     55.49371     42983.96       191     1.919     1.309 -35.37   0
        97    345.1349    872.6074 307.7706109  +6.3234159     649.9833     861.8719     1065.029     78.41714     157.2108     314.6723      1.583     3.29     869.6541     55.49371     109.6129         5     0.735     0.454 -18.02   0
        98    653.2620    868.8698 307.6427596  +6.3352815     1105.022      1635.54     1808.047     78.91822     157.4614     314.8914      1.591     5.14     869.9704     55.49371     156.7197        14     1.514     0.655 -37.47   0
        99    409.5571    868.3228 307.7439983  +6.3273457     7196.208     11679.48     12646.29     78.79325     157.4614     314.8602      1.756     4.48     869.6465     55.49371     979.0031        32     1.653     0.921 -35.46   0
       100    352.6999    866.7123 307.7676671  +6.3261037     11735.26     18904.34     20190.17     78.91822     157.9613     314.7976      1.717     4.42     869.5505     55.49371     1689.197        42     1.732     0.968 -34.21   0
       101    903.5573    861.9478 307.5390305  +6.3465014      4824.84     8365.399     9607.396     78.91822      157.524     314.8602      1.920     4.39     865.1343     55.49371     599.4329        37     1.664     1.229 -31.06   0
       102    671.1995    863.0193 307.6355053  +6.3382970     3239.354     5064.468     5515.111     78.54272     157.0227     314.5157      1.668     4.43     869.6411     55.49371     462.2783        24     1.593     0.830 -32.57   0
       103    742.9082    859.5593 307.6058369  +6.3421230     744.1765     1235.899     1048.862     78.91822     157.3988     314.8915      1.565     5.20     868.4938     55.49371     118.2316         8     1.498     0.511 -27.98   0
       104    645.9660    857.0623 307.6461856  +6.3399126     3125.507     4974.403     5850.083     78.79325      157.524     314.7663      1.690     4.13     869.8306     55.49371     441.4097        22     1.557     0.803 -39.08   0
       105    834.2794    856.1447 307.5679997  +6.3465851     1554.191      2335.61     2347.322     79.04299     157.4614     314.8602      1.631     5.44     866.3691     55.49371     183.8863        19     1.528     0.852 -43.98   0
       106    755.1888    857.4179 307.6008078  +6.3434175     568.0977     847.7984     510.7842     78.54272     157.1481      314.735      1.649     4.56     868.0904     55.49371     69.21265         5     0.841     0.702 -47.23   0
       107    635.8312    856.4501 307.6504157  +6.3398263     869.0764     1478.021     2208.014     78.66808     157.4614     314.7663      1.888     5.40     869.9376     55.49371     139.8342         8     1.519     0.541 -52.96   3
       108    638.5176    851.7829 307.6494563  +6.3418432     2141.637     3258.504     3811.939     78.54272     157.1481     314.7663      1.672     4.07     869.8069     55.49371       349.02        20     1.401     0.940 -42.35   2
       109    961.2087    854.9123 307.5153194  +6.3513294     928.6533     1422.891     1384.768     78.54272     157.1481     314.6097      1.632     5.39     863.3348     55.49371     113.6512        13     1.323     0.783 -36.85   0
       110    922.5263    849.7805 307.5315582  +6.3521581     3035.049     5085.417      5537.28     78.54272     157.3988     314.7663      1.813     4.42     864.5225     55.49371     401.1856        28     1.571     1.028 -34.38   0
       111    332.6198    850.5322 307.7765509  +6.3321104     921.5565       1481.3     2052.927     78.54272     157.4614     314.7663      1.723     5.50     869.2045     55.49371     153.6213        12     1.409     0.605 -38.97   0
       112    380.6163    845.7743 307.7567761  +6.3356850     2523.693     4065.945     4328.124     78.66808     157.2735     314.7663      1.715     4.72     869.1292     55.49371     371.3925        22     1.594     0.864 -34.48   0
       113    516.8782    835.4757 307.7005262  +6.3445044      3000.74       4609.6     4393.155     79.16756     157.7115     314.9228      1.665     4.34     868.9886     55.49371     448.2674        24     1.534     0.853 -30.64   0
       114    861.3303    834.4160 307.5574905  +6.3564599     868.5428     1352.403     1304.991     78.41714     157.3362      314.735      1.680     6.03     865.4552     55.49371     105.9595        10     1.248     0.819 -20.55   0
       115    581.5641    832.9954 307.6737420  +6.3476945     571.0434     986.9216     775.2363     78.03923     157.2108      314.641      1.691     3.80      869.428     55.49371      103.767         5     0.744     0.635   0.99   0
       116    563.7896    831.5585 307.6811729  +6.3476927     5497.286     9183.877     10064.17     78.29138     157.2735     314.5784      1.809     4.82     869.1878     55.49371     829.0564        32     1.717     0.935 -28.93   2
       117    570.8167    830.9699 307.6782739  +6.3481710     1024.238     1822.529     2378.958     78.54272     157.2108     314.7663      1.980     5.57     869.2485     55.49371     157.1412        12     1.515     0.577 -27.94   3
       118    275.2206    832.2039 307.8010072  +6.3377512     772.0223     1181.325     1075.024     78.54272     157.1481     314.6097      1.592     6.07     868.5867     55.49371     105.6442        12     1.601     0.647 -38.38   0
       119    481.3672    830.4259 307.7154452  +6.3453997     1480.996     2321.145      1782.17     78.41714     157.2735     314.6723      1.614     5.61     868.8173     55.49371      208.426        16     1.623     0.693 -32.56   0
       120    899.3849    829.5344 307.5418471  +6.3597455     1195.586     2073.741      1993.11     78.41714     157.3362     314.7663      1.775     4.88     864.6845     55.49371     214.9487        14     1.597     0.652 -29.40   0
       121    123.1146    829.3112 307.8642793  +6.3338346     1431.005     2321.393     2492.454     78.66808     157.7115      314.954      1.808     4.37     865.4155     55.49371     193.9797        16     1.370     0.807 -20.29   0
       122    699.2415    828.4672 307.6250154  +6.3535010     762.5306     1124.272     734.6492     78.91822     157.3988     314.8915      1.581     4.65     868.3842     55.49371     121.7614         7     1.027     0.597 -21.90   0
       123    534.4166    825.4429 307.6935783  +6.3492342     18702.34     29720.11     31522.65     78.41715     157.3362     314.6097      1.733     4.46     868.7761     55.49371     2454.711        48     1.706     1.026 -32.42   0
       124    375.6185    827.2541 307.7594742  +6.3431641     783.4118     1155.492     826.0284     78.41714     157.4614     314.6097      1.515     5.37     868.6921     55.49371     121.7048         8     1.220     0.697 -38.56   0
       125    948.0013    823.6927 307.5218484  +6.3637794      3363.01     5846.536     6100.496     78.41714     157.0854     314.5784      1.827     4.61      863.435     55.49371     444.5441        29     1.667     0.964 -25.89   0
       126    180.8287    825.1334 307.8404495  +6.3374997     569.9581     780.2865     278.3839     78.66808     157.3988     314.7976      1.255     3.92     866.8159     55.49371     84.08185         6     0.771     0.569 -44.21   0
       127     67.6912    821.7120 307.8875543  +6.3351080     613.0774     789.9924     397.9005     78.91822     157.8989      314.954      1.570     6.08     864.6154     55.49371      72.8847        10     1.244     0.837 -37.76   0
       128    420.7627    821.4120 307.7409200  +6.3470901     497.1396     752.9346     882.1438     78.41714     157.2735      314.547      1.472     4.46     868.5392     55.49371     79.15533         5     1.192     0.474  -6.89   0
       129     44.8398    815.9394 307.8972397  +6.3367224     1404.921     2211.952     2247.928     78.91822     157.4614     314.8914      1.623     5.10     864.5375     55.49371     235.6581        20     1.737     0.757 -37.35   0
       130    590.2329    814.7529 307.6707531  +6.3555167     360.2361      626.954       513.17     78.54272     157.4614     314.7663      1.429     3.90     869.1021     55.49371     75.97528         5     1.359     0.321 -30.03   0
       131    327.1389    814.1053 307.7800520  +6.3469665     3164.764     5227.566     5281.045     78.79325      157.524     314.8602      1.699     4.71     868.3831     55.49371     423.3472        23     1.671     0.782 -32.27   0
       132    792.5482    809.9579 307.5868787  +6.3642616      51665.6     83592.34     88662.29     78.91822     157.4614     314.8289      1.748     4.27      866.378     55.49371     7048.717        78     1.813     1.126 -33.55   0
       133     26.8999    812.2465 307.9048152  +6.3376434     1986.287     3046.553     2850.872     78.91822     157.3362     315.0479      1.633     4.33     864.4978     55.49371     264.3806        20     1.429     0.948 -28.75   0
       134    731.0265    811.8832 307.6123685  +6.3614109     650.5076     939.8737     1458.326     78.79325     157.2108     314.7663      1.460     4.40     867.3884     55.49371     115.0701         7     1.113     0.495 -41.11   0
       135    436.0790    808.4172 307.7349948  +6.3529689     731.4991     1201.048     1243.175     78.54272     157.2108     314.7663      1.724     5.58     868.2364     55.49371     157.8503        10     1.653     0.531 -40.79   0
       136    249.6937    807.8538 307.8124288  +6.3469476     4945.138     8266.667     10340.55     78.79325     157.3988     315.0479      1.863     4.50     867.7858     55.49371     667.8149        30     1.688     0.939 -36.78   0
       137    720.7979    804.6116 307.6168607  +6.3640714     19718.29     33083.66     36161.08     78.54272     157.1481     314.6097      1.789     4.41     867.3837     55.49371     2802.615        52     1.795     1.092 -33.31   3
       138    714.4865    801.0671 307.6196010  +6.3653239     83381.39     133775.7     142383.6     79.04299     157.7115     314.8602      1.731     4.34     867.4124     55.49371     11677.67        89     1.840     1.123 -32.93   3
       139    917.8293    805.2446 307.5349977  +6.3703900     7758.391     12981.48     14100.66     78.54272      157.524     314.7036      1.795     4.19     863.9996     55.49371     982.8098        41     1.767     1.026 -31.84   0
       140    359.3664    801.9337 307.7670755  +6.3530732     19170.32     31428.04     33449.42     78.79325      157.524     314.7976      1.737     4.41     868.1496     55.49371     2784.049        54     1.748     1.085 -34.92   0
       141    421.2290    799.8259 307.7414514  +6.3560183     20652.81     33201.89     35690.39     78.41714     157.2735     314.7036      1.710     4.35     867.9908     55.49371     2983.738        52     1.772     1.024 -32.95   0
       142    408.6492    802.1899 307.7465971  +6.3546204     1273.214     2129.739     2330.998     78.41714     157.2735     314.5157      1.828     4.69      868.071     55.49371     189.1255        17     1.523     0.838 -32.17   0
       143    958.1274    798.9571 307.5184688  +6.3743303     1845.402     3016.163     2858.191     78.79325      157.524     314.8602      1.755     4.52     862.8038     55.49371     224.2607        20     1.491     0.833 -46.96   0
       144    249.4018    786.2550 307.8132769  +6.3558555     745774.5      1803370      2048992     78.29138     157.1481     314.5157      2.392    10.15     867.0524     55.49371     63531.12       594     2.614     2.049 -41.52   4
       145    887.3319    798.1205 307.5479038  +6.3723139     673.1658     1042.356     1084.308     79.04299     157.7115     314.8289      1.667     5.59     864.2676     55.49371     86.83344         9     1.177     0.749 -49.95   0
       146    655.2010    795.7349 307.6444051  +6.3655430      6070.45     9811.562     10141.63     78.16541     157.1481     314.5784      1.682     4.53     868.1732     55.49371     802.0779        32     1.657     0.904 -34.06   0
       147    443.9013    793.7471 307.7322385  +6.3592882     1737.293     2753.051     2273.373     78.79325     157.4614     315.0479      1.624     4.52     867.7233     55.49371     251.4397        20     1.499     0.870 -31.54   0
       148    168.8681    792.9744 307.8465001  +6.3503754     737.7947     928.3093     800.7641     78.54272     157.3362      314.735      1.364     3.58     865.8512     55.49371     117.8935         8     0.843     0.655 -41.06   0
       149    494.1828    791.4756 307.7114297  +6.3619111     376.4726     412.4778    -343.0613     78.41714     157.2108     314.7663      1.249     4.98     867.6222     55.49371     72.60168         6     1.161     0.603 -25.00   0
       150    882.7887    787.7352 307.5501382  +6.3764503     469.4147     743.5557     972.1796     78.41714     157.2735     314.6723      1.133     3.47     864.1786     55.49371     123.1528         5     1.007     0.346 -40.68   0
       151    607.6492    787.9366 307.6644181  +6.3671718     861.2042     1230.267     1013.689     78.79325     157.3988     314.8915      1.501     3.45     868.1374     55.49371      133.153         9     0.913     0.672 -25.54   0
       152    690.3177    785.6247 307.6301573  +6.3708919     2216.051     3522.709     4145.902     78.66808     157.2108     314.7976      1.774     4.60     867.2352     55.49371     302.5358        20     1.561     0.774 -33.86   0
       153    424.1683    782.4866 307.7408130  +6.3632760     50896.14     81732.03     87128.88     78.91822     157.2735     314.7663      1.734     4.45      867.108     55.49371     6798.257        77     1.830     1.080 -33.06   0
       154    159.6847    786.5913 307.8505294  +6.3527021     817.1813     1336.184     1190.001     78.54272     157.1481     314.6723      1.760     6.07     865.3947     55.49371     112.1737        12     1.499     0.692 -22.05   0
       155    135.0373    786.1500 307.8607814  +6.3520557      1021.82      1686.19     1609.114     78.66808     157.3362     314.6723      1.719     6.19     864.8383     55.49371     155.6838        16     1.665     0.671 -32.18   0
       156    541.7970    781.5860 307.6919842  +6.3675893     6632.847     10634.79     11211.06     78.54272     157.1481     314.7036      1.712     4.33     867.1863     55.49371     952.2353        35     1.697     0.946 -37.29   0
       157    967.1390    784.0159 307.5152247  +6.3808000     703.8094     1129.731     1296.096     78.41714     157.3988      314.641      1.544     4.52     862.2808     55.49371     113.9793         7     1.154     0.503 -32.25   0
       158    458.7648    780.0270 307.7265254  +6.3654512       4081.7     6842.194     7690.517     78.41714     157.2108     314.6097      1.810     4.60     867.0197     55.49371     568.1178        30     1.792     0.885 -31.29   0
       159    787.1597    778.0773 307.5901840  +6.3772448      10802.1     17512.67     18281.95     78.79325     157.4614     314.8602      1.699     4.26     865.7291     55.49371      1476.33        40     1.683     0.985 -33.31   0
       160    914.7530    796.6883 307.5365615  +6.3738203     5968.321     10033.91     11255.64     78.91822     157.3362     314.9228      1.808     4.47     863.9102     55.49371      788.532        34     1.691     0.981 -33.08   0
       161    455.2882    773.5829 307.7281859  +6.3679954     2275.071     3776.852     4161.582     78.66808     157.2108     314.7036      1.764     4.67     866.7109     55.49371     308.1066        22     1.614     0.868 -32.63   0
       162     16.5886    774.2520 307.9103791  +6.3529831     980.6481     1545.049     1372.756     78.29138     157.3988     314.5784      1.660     5.11      863.538     55.49371     140.4601        12     1.350     0.630 -40.72   0
       163    808.7554    772.1105 307.5814131  +6.3804299     1167.901     1825.595     1696.704     78.91822     157.3362     314.8602      1.622     5.11     865.2716     55.49371     204.4199        13     1.321     0.698 -28.58   0
       164    144.8645    770.0887 307.8572407  +6.3590174     10445.89     17432.33     19534.76     78.91822     157.7115     314.8602      1.786     4.53     864.4211     55.49371     1417.567        46     1.786     1.036 -31.75   1
       165    153.0731    770.3042 307.8538241  +6.3592044     2781.282     4785.799     5176.521     78.66808     157.5865     314.8289      1.866     4.69     864.5537     55.49371     399.4437        27     1.686     0.869 -34.45   0
       166    932.7049    766.6667 307.5301080  +6.3868149     5784.603      9532.78     10304.52     78.91822      157.649     314.8289      1.789     4.43     863.0562     55.49371     775.6044        32     1.672     0.943 -33.58   0
       167    137.1887    767.3716 307.8605204  +6.3598812     2542.892     4429.425     5430.055     78.41714     157.2735     314.6723      1.805     5.15     864.1777     55.49371     373.8029        22     1.618     0.789 -33.42   0
       168    981.9059    766.3176 307.5096820  +6.3886000     1211.604     2043.968     2315.824     78.66808      157.774      314.954      1.735     4.33     861.5639     55.49371     175.9078        15     1.273     0.859 -20.52   0
       169    687.9294    764.4177 307.6318599  +6.3795681     1609.012     2586.416      2823.49     78.41714     157.3362     314.7663      1.658     4.52     866.2996     55.49371     248.0168        18     1.349     0.877 -46.44   0
       170    574.9344    763.4961 307.6788267  +6.3761680     2244.961     3433.799      3573.24     78.91822     157.5865     314.8602      1.666     4.86     866.3152     55.49371       296.15        19     1.490     0.787 -34.98   0
       171    422.7103    763.4174 307.7420592  +6.3711004     1133.424     1923.387     2459.756     78.66808     157.2108      314.735      2.030     5.22      866.172     55.49371     193.4841        12     1.446     0.641 -37.26   0
       172    137.0049    760.8660 307.8608159  +6.3625610     1835.118     2859.854     3004.517     78.41714     157.1481      314.641      1.613     5.07     863.9562     55.49371     250.3943        17     1.408     0.791 -27.60   0
       173    986.9026    757.9803 307.5078849  +6.3922090     1686.745     2751.362     3206.592     78.79325     157.2735     314.5784      1.798     4.62     861.3122     55.49371     219.0114        20     1.402     1.070 -47.68   0
       174    927.0324    758.7392 307.5327293  +6.3898989     2589.196       4257.5     4806.419     78.66808      157.524     314.7663      1.742     4.28     863.0599     55.49371      389.437        22     1.542     0.875 -30.29   0
       175    956.4481    758.1026 307.5205314  +6.3911430     2860.771     4814.555     5016.234     78.91822     157.3988     314.9853      1.795     4.57     862.2188     55.49371     395.6619        23     1.636     0.857 -29.33   0
       176    679.1871    757.9239 307.6357089  +6.3819570     1302.019     2128.489     2151.456     78.54272     157.1481      314.641      1.644     4.05     866.0944     55.49371     225.7451        14     1.371     0.679 -32.12   0
       177    826.5391    756.2341 307.5745572  +6.3875790     915.5089     1438.549     1280.331     78.79325      157.524     314.7663      1.539     6.06     864.6226     55.49371     142.9446        13     1.651     0.627 -25.33   0
       178    901.8683    754.0312 307.5433397  +6.3910033     596.4901     971.9189      1445.21     78.79325     157.4614     314.7976      1.382     3.56     863.3896     55.49371     115.5259         5     0.984     0.371 -32.79   0
       179    251.6245    752.7958 307.8134795  +6.3697447     1660.032     2923.458     3233.041     78.41714     157.2108     314.6723      1.990     5.02     865.8019     55.49371     220.7988        22     1.677     0.824 -36.61   0
       180    944.2310    748.7289 307.5259196  +6.3946059     871.5474     1337.791     870.7834     78.79325     157.4614     314.7663      1.650     5.62     862.4153     55.49371     122.4409        11     1.200     0.760 -66.61   0
       181    688.5998    750.0953 307.6320613  +6.3855041      613.874     1097.689     1498.599     78.41714     157.0854     314.4217      1.795     5.15     865.6811     55.49371     96.54266         7     1.328     0.564 -24.57   0
       182    272.1483    748.3690 307.8051037  +6.3722617     570.8943     979.8904     678.6802     78.79325     157.5865     314.7663      1.600     4.93      865.687     55.49371     104.6799         7     1.415     0.487 -45.66   0
       183    166.9796    748.1384 307.8487945  +6.3688236     749.0779      1398.79     892.4729     78.54272     157.4614      314.735      1.658     5.38     863.9075     55.49371     95.22559        10     1.230     0.664 -39.19   0
       184    971.2072    746.0615 307.5148029  +6.3966069     2284.379     3940.691     3697.879     78.29137     157.2735     314.5784      1.765     4.88      861.608     55.49371     315.6273        24     1.713     0.882 -30.98   0
       185    918.6320    747.0189 307.5366106  +6.3944580     983.1127      1646.25     1428.695     78.41714     157.2735     314.7036      1.681     5.73     862.9789     55.49371     169.9078        12     1.414     0.680 -32.87   0
       186    691.2169    744.6653 307.6311561  +6.3878337     861.6684     1367.125     1743.694     78.41714     157.3362     314.7036      1.591     5.91     865.4583     55.49371     120.4025        10     1.429     0.689 -25.89   0
       187   1013.0872    739.4162 307.4976278  +6.4007470     1505.317     2589.041     2970.675     78.66808     157.2108     314.7036      1.920     5.81     860.3626     55.49371     239.6108        23     1.929     0.814 -27.33  16
       188    481.4110    740.5508 307.7184443  +6.3825093     656.8629     987.6882     1372.277     78.29138     157.3362     314.5157      1.463     4.28     864.9622     55.49371     110.4395         6     1.031     0.507 -30.49   0
       189    410.7912    741.1127 307.7477594  +6.3799100     521.6322     638.7375     704.3212     78.54272     157.1481     314.6097      1.305     4.29     865.1346     55.49371     91.36108         5     0.764     0.687 -80.08   0
       190    814.2440    737.9634 307.5802759  +6.3947123      1122.95     1933.564     2358.305     78.66808     157.3988     314.7036      1.817     6.20     864.4221     55.49371     164.1327        14     1.492     0.724 -31.94   0
       191    638.8997    738.6221 307.6530907  +6.3885789     585.6904     882.9159     912.0356     78.91822     157.2108     314.6097      1.529     4.76     865.0474     55.49371     99.33118         6     0.968     0.663 -68.61   0
       192    900.5204    735.3380 307.5445246  +6.3986766     1320.612     2110.065     2430.523     79.04299      157.524     314.7976      1.780     5.04     863.0811     55.49371     191.5758        15     1.436     0.709 -38.16   0
       193    874.9205    730.4290 307.5553230  +6.3998491     909.8552     1370.527     1979.418     78.79325     157.4614     314.7976      1.700     6.14     863.4097     55.49371      134.074        12     1.517     0.699 -29.74   0
       194    857.3981    726.5763 307.5627307  +6.4008550     1323.233     2000.215     1983.123     78.54272     157.1481     314.6097      1.572     4.08     863.5911     55.49371     219.3844        14     1.358     0.727 -36.74   0
       195     56.4972    725.5455 307.8954456  +6.3744358     2409.691     3646.949     4176.356     78.79325     157.4614     315.0479      1.735     4.33     862.3485     55.49371     336.4367        20     1.493     0.771 -33.08   0
       196    120.5033    724.2476 307.8689038  +6.3771249     682.0056     1951.936       2286.3     78.91822     157.3362     314.9853      2.561     9.02      862.687     55.49371     99.24854        16     1.761     1.291  47.05   0
       197    574.4610    720.3759 307.6804697  +6.3939559     685.0563     1224.061     1226.499     78.54272     157.3988      314.735      1.938     6.46     864.2941     55.49371     92.10596        10     1.424     0.822 -43.33   0
       198    669.1951    714.0369 307.6413302  +6.3997433      6030.46     9784.753     10450.01     78.03923     157.2108      314.641      1.692     4.24     864.5833     55.49371      920.328        30     1.603     0.915 -34.81   0
       199    615.8857    713.3341 307.6634983  +6.3982500     1339.158     2216.601     2376.431     79.04299      157.649     314.8914      1.863     4.16     864.2021     55.49371     190.6971        14     1.270     0.715 -29.43   0
       200    526.7078    713.7593 307.7005280  +6.3950887     715.8422     1232.835     1574.512     79.04299     157.3988     314.9228      1.762     4.92     864.0881     55.49371     125.0707         8     1.412     0.485 -32.44   0
       201   1006.3018    709.4155 307.5014486  +6.4129079     2255.986     3835.777     3753.722     78.91822     157.2108     314.5784      1.797     4.96     860.4473     55.49371     307.0171        22     1.638     0.848 -34.64   0
       202    642.9606    709.7883 307.6523703  +6.4006199     2025.927     3256.619     3548.435     78.41714     157.2735     314.5784      1.652     4.54      864.314     55.49371     277.0437        17     1.403     0.786 -35.34   0
       203    132.2880    709.6849 307.8644995  +6.3835338     3373.113     5780.358     5692.204     78.66808      157.649     314.9228      1.760     4.80     862.4876     55.49371      459.024        27     1.592     0.931 -34.91   0
       204    318.8367    710.1659 307.7869956  +6.3896024     632.8116     1061.952     1259.277     78.66808     157.2108     314.5784      1.677     4.64       863.86     55.49371     109.2286         7     1.197     0.510 -19.67   0
       205    786.1369    706.1154 307.5930176  +6.4069233     18965.59     30375.22     32062.86     79.04299     157.5865     314.7976      1.679     4.25     863.7391     55.49371     2748.488        51     1.713     1.038 -35.30   0
       206    916.0950    705.8675 307.5390401  +6.4113645     3495.852     5802.939     6395.181     78.79325     157.5865     314.8289      1.734     4.71     861.9852     55.49371     439.5057        27     1.603     0.932 -34.53   0
       207    513.5147    706.2437 307.7062606  +6.3977499     846.7175     1502.511     1786.034     78.91822     157.3362     314.7976      1.922     5.18     863.8577     55.49371     136.2827        10     1.368     0.554 -30.42   0
       208    485.2103    706.3260 307.7180152  +6.3967675      1352.62     2282.172     2213.438     78.41714     157.0854     314.7036      1.652     4.66     863.8577     55.49371     191.6556        16     1.462     0.701 -30.84   0
       209    288.1556    705.8416 307.7998854  +6.3903579     421.3417     686.5696     800.9131     78.66808     157.4614     314.7036      1.967     7.34     863.5128     55.49371     89.61157         9     2.113     0.714 -10.97   0
       210     94.6421    702.0807 307.8803927  +6.3854072     565.3896     950.8293      727.024     78.91822     157.4614     314.7976      1.779     3.40     862.1248     55.49371     88.23309         5     0.781     0.429 -70.84   0
       211    666.7180    698.8762 307.6428673  +6.4059202     6594.944     10728.25     11297.95     79.16756     157.7115      314.954      1.709     4.35     864.2356     55.49371     983.6512        35     1.700     0.942 -34.65   0
       212    649.0461    700.1443 307.6501657  +6.4048055     791.6145     1182.584     1645.187     78.91822     157.4614     314.8914      1.779     5.87     864.1224     55.49371     115.0693        10     1.338     0.723 -30.98   0
       213    259.6611    699.6486 307.8119298  +6.3919580     5745.212     9444.948     10348.07     78.91822     157.3988     314.8914      1.782     4.57     863.1945     55.49371     852.6723        37     1.701     0.961 -33.66   0
       214    361.1328    699.3677 307.7697895  +6.3954802     549.2826     928.3589     480.9568     78.79325     157.4614     314.7976      1.522     2.67     863.4557     55.49371     103.3964         5     0.844     0.482   1.43   0
       215    926.7487    691.5350 307.5350935  +6.4176378     1198.875     2186.151     1967.797     78.91822     157.3988     314.8602      1.886     5.73     861.4181     55.49371     172.1648        16     1.361     0.984 -34.36   0
       216    738.3767    687.4308 307.6134832  +6.4130419     3446.277     5681.295     6647.322     78.29138     157.2735     314.6097      1.905     4.25     863.5551     55.49371     481.4917        27     1.609     0.898 -36.21   0
       217   1004.6635    683.9730 307.5029790  +6.4233585     8013.315     13218.11     13725.33     78.54272     157.4614      314.735      1.743     4.16      860.382     55.49371     1086.561        38     1.634     1.041 -37.21   0
       218      3.7906    686.0938 307.9186686  +6.3889502      647.033      1002.41      611.948     78.54272     153.6605     273.2726      1.587     3.91     861.7438     55.49371     96.21259         6     0.974     0.450 -52.74  16
       219    943.1742    684.3421 307.5285105  +6.4211556     2255.028     3987.344     2984.456     78.54272     157.4614     314.6723      1.813     4.62     861.0234     55.49371     302.6993        24     1.567     0.919 -34.36   0
       220     23.2962    683.6797 307.9106480  +6.3906035     1809.954     3491.081     3975.448     78.66808     157.7115     314.9228      2.126     5.88      861.745     55.49371     243.2717        30     1.880     1.097 -28.02   0
       221    693.6809    687.7029 307.6320411  +6.4114353     892.0121     1339.835     1539.775     78.79325      157.774     314.8602      1.525     5.24     863.8937     55.49371     165.7832        11     1.367     0.570 -30.20   0
       222     82.0103    678.7252 307.8864269  +6.3946251     23477.87      38627.2     41236.51     78.54272     157.0854      314.641      1.733     4.42      861.724     55.49371     3208.849        54     1.781     1.032 -32.78   0
       223    543.4495    679.6985 307.6947166  +6.4097127     1720.461     2865.961     3274.185     78.91822     157.3988     315.0166      1.763     6.65     863.1088     55.49371     238.9908        19     1.527     0.869 -28.07   0
       224    512.1614    676.8860 307.7078082  +6.4098259     1269.776     2080.064      2172.55     78.91822     157.4614     314.8289      1.797     4.87     863.0225     55.49371      196.319        15     1.420     0.731 -44.70   0
       225    933.1401    676.1259 307.5329535  +6.4242133     886.0236     1358.963     1224.087     79.04299     157.4614     314.8289      1.732     5.96     860.9185     55.49371     152.8817        11     1.473     0.752 -27.62   0
       226    552.1874    673.4443 307.6912967  +6.4125876     795.9665     1249.669     1831.344     78.41714     157.2735     314.5784      1.600     4.85     862.9315     55.49371     119.1202         8     1.289     0.517 -38.82   0
       227    727.9709    671.1225 307.6183521  +6.4194277     3292.254     5183.503         5484     78.79325      157.524     314.8602      1.608     4.00     863.1287     55.49371     496.4456        24     1.535     0.827 -29.73   0
       228    750.1404    669.2217 307.6092062  +6.4209535     3760.989     6085.488     6133.127     78.54272     157.3988     314.7036      1.669     4.18     862.8767     55.49371     552.0544        27     1.636     0.870 -34.92   0
       229    581.5839    667.1328 307.6792969  +6.4161778      3070.16     4881.104     5382.438     78.41714     157.3988      314.735      1.694     4.71     862.8015     55.49371     457.6948        22     1.570     0.785 -28.93   0
       230    417.8062    667.5107 307.7473184  +6.4105343     1261.265     2115.267     2429.121     78.41714     157.1481     314.6097      1.807     6.22     862.1302     55.49371     184.7781        15     1.428     0.762 -37.29   0
       231    242.0306    666.6340 307.8203644  +6.4049969     1536.581     2605.079     2652.683     78.41714     157.2108     314.5784      1.874     4.95     861.5163     55.49371     250.1267        16     1.578     0.681 -39.38   0
       232   1022.5234    665.6110 307.4961728  +6.4315354     4516.738     6235.158     6250.103     78.54272     140.8098     254.7204      1.541     3.91     859.7296     55.49371      586.777        25     1.327     0.980 -50.47  24
       233    325.4381    666.1035 307.7857353  +6.4080165     1397.637     2063.854     2164.267     78.91822     157.3362     314.9853      1.565     5.48     861.6099     55.49371     193.4594        14     1.311     0.756 -34.22   0
       234    988.3012    664.3029 307.5104333  +6.4309347     7332.409     12059.33     12923.65     78.91822     157.9613     314.6723      1.755     4.12      859.926     55.49371     986.7893        39     1.674     1.043 -32.45   0
       235    708.1338    663.0214 307.6268642  +6.4221093      1025.49     1749.238     1354.848     78.54272     157.4614     314.7663      1.526     5.41      862.946     55.49371      152.457        11     1.381     0.598 -36.70   0
       236    146.7556    657.6639 307.8602426  +6.4054984     22769.83     36760.18     38850.82     78.91822     157.3988     314.8289      1.739     4.28     861.3746     55.49371     3325.226        53     1.785     1.027 -34.46   0
       237     99.3885    661.0677 307.8798035  +6.4025000     708.1733     951.7623     1178.025     78.41714     157.3362     314.7036      1.595     4.64     861.3271     55.49371     104.8015         7     0.896     0.681 -27.58   0
       238    433.7117    658.4828 307.7410145  +6.4147951     2549.661     4217.058     4198.339     78.66808      157.649     314.8602      1.738     4.44     862.0364     55.49371      405.129        24     1.657     0.808 -32.80   0
       239    815.4006    657.9786 307.5824722  +6.4277761     1034.617     1550.714      1537.42     78.54272     157.1481      314.547      1.460     5.10     862.0513     55.49371     157.9746        10     1.217     0.605 -29.17   0
       240    365.8569    652.8723 307.7693902  +6.4148358     735.4889     1244.062     1334.478     79.04299     157.3988     314.8289      1.859     5.65     861.2559     55.49371     120.5936        10     1.292     0.697 -55.19   0
       241    608.5019    652.6605 307.6686002  +6.4230543     525.7842     719.1345     682.9977     78.66808     157.4614      314.954      1.721     4.24     862.2909     55.49371     77.60608         6     1.099     0.467 -34.46   0
       242    983.2621    647.1660 307.5130993  +6.4378424     6062.375     11185.35     12028.84     78.79325      157.524     314.7663      1.963     4.38     858.9873     55.49371     775.7779        44     1.704     1.266 -23.79   0
       243     27.8588    646.4181 307.9100097  +6.4061414     1120.392     1888.838     1895.457     78.54272     157.3362     314.6097      1.676     4.97      861.327     55.49371     186.5068        11     1.436     0.541 -35.14   0
       244    941.3009    644.5740 307.5306180  +6.4375132     582.3185     1011.972     504.5911     79.04299     157.2108      314.735      1.584     6.08     859.5195     55.49371     117.6135         9     1.648     0.632 -47.89   0
       245    576.8076    642.5022 307.6821073  +6.4261876     44988.59      72068.3     75929.88     78.66808     157.0854     314.6097      1.712     4.46     861.8646     55.49371     6923.419        62     1.746     1.042 -32.52   0
       246    219.5953    643.7692 307.8304536  +6.4136835     637.4816     1067.335     1249.266     78.41714     157.3362     314.6097      2.215     4.64     860.5914     55.49371     106.8266         8     1.218     0.501 -67.47   0
       247    535.9810    642.1650 307.6990787  +6.4249596      804.691     1292.375     922.4694     78.41714     157.2735     314.6097      1.881     5.97     861.8523     55.49371     107.5574         9     1.285     0.779 -33.06   0
       248    800.6889    642.0015 307.5891186  +6.4338815     448.5104     642.8952     449.6344     78.16541     157.0227     314.6097      1.413     4.09     861.7686     55.49371     87.19928         5     1.075     0.445  23.98   0
       249    184.2669    639.1873 307.8452831  +6.4143880     2472.826     3763.111     3657.187     78.41714     157.2735      314.735      1.679     4.34     860.6716     55.49371     373.4545        23     1.611     0.806 -35.45   0
       250    506.3266    639.5860 307.7114842  +6.4250311     676.0012     894.5148     806.2101     78.41714     157.2108     314.6723      1.351     5.15     861.8909     55.49371     104.3392         7     1.166     0.644 -51.98   0
       251     76.7942    633.4812 307.8901188  +6.4131296     1272.549      2204.17     2493.646     78.54272     157.0227     314.6097      1.919     5.96     860.7728     55.49371     195.7285        14     1.562     0.639 -35.09   0
       252    474.0732    626.2980 307.7253290  +6.4294367     58431.79      94669.8     100658.1     78.54272     157.5865     314.8289      1.726     4.47     861.5316     55.49371     8520.289        82     1.806     1.104 -33.78   0
       253     17.5258    627.8580 307.9149279  +6.4134564     1535.435     2670.845     2851.542     78.91822     157.4614     314.8289      2.039     4.98     861.2201     55.49371     241.2347        18     1.585     0.739 -33.65   0
       254    659.8342    623.2760 307.6482609  +6.4369045     879.5734     1302.995     1459.629     78.79325     157.4614     314.7976      1.713     5.21     861.1353     55.49371     122.6691        10     1.357     0.565 -39.16   0
       255    148.3455    621.2895 307.8608077  +6.4205700     1584.456     2319.008     2081.917     78.91822     157.2735      314.954      1.551     4.03     860.3315     55.49371     220.0593        17     1.327     0.800 -47.95   0
       256    426.9860    619.4686 307.7451192  +6.4306779     848.5087     1621.926     2002.661     78.41714     157.3362      314.735      1.947     5.62     860.9879     55.49371     133.3544        12     1.630     0.547 -37.47   0
       257    619.4691    618.1526 307.6652015  +6.4376693     758.2313     918.8715     1238.028     78.91822     157.3988     314.8602      1.440     5.07     860.8372     55.49371     114.9266         8     0.964     0.753 -43.19   0
       258    943.7797    618.6161 307.5304559  +6.4483138     619.7014     891.8458     458.1279     78.66808     157.2735      314.735      1.385     3.33     858.2739     55.49371     119.9814         6     1.046     0.625 -20.34   0
       259    319.5992    615.6193 307.7898587  +6.4286645     1950.223     3464.407     3512.742     78.54272     157.0227      314.547      1.867     5.14     858.9873     55.49371     247.3237        19     1.538     0.904 -29.17   0
       260    471.6252    614.2191 307.7267515  +6.4343419     928.9306     1494.924     2010.114     78.41714     157.2108     314.7663      1.742     4.45     861.1845     55.49371     154.6497        10     1.238     0.596 -23.61   0
       261    746.1173    609.8459 307.6128661  +6.4453348     5009.279     7933.007     8101.834     78.91822     157.4614     314.8289      1.645     4.21     860.6802     55.49371     724.4075        27     1.578     0.918 -36.55   0
       262   1016.3085    606.0171 307.5007451  +6.4559344     863.7855     1358.497     932.8021     78.66808     157.2108      314.735      1.651     5.38     855.8817     55.49371      141.509        11     1.521     0.537 -32.84  16
       263    799.6525    605.0616 307.5907857  +6.4490991     12988.34     20780.19     21772.16     78.91822     157.3988     314.7976      1.692     4.30     860.7233     55.49371     1886.458        43     1.709     0.955 -32.17   0
       264    542.3666    604.8732 307.6976776  +6.4405708     1108.493     2015.261     2350.185     78.79325     157.3988     314.8289      1.853     6.12     860.5693     55.49371     168.6068        15     1.696     0.620 -35.40   0
       265    623.5613    603.1946 307.6640030  +6.4439822     2605.887     4218.021     4180.864     78.03923     157.2108     314.5784      1.651     4.41     860.2533     55.49371       436.08        24     1.624     0.856 -35.06   0
       266     44.0113    604.6111 307.9047102  +6.4239460     550.1473     911.0089      941.251     78.66808     157.2735     314.8289      1.892     4.92     860.6462     55.49371     69.91071         5     1.210     0.566 -50.39   0
       267    940.5910    599.3733 307.5324239  +6.4561527      1090.97      1882.22      2543.13     78.54272     157.2735     314.7036      1.848     6.01     857.6202     55.49371     152.1835        14     1.504     0.676 -28.54   0
       268    235.9877    596.9333 307.8252208  +6.4335717     1245.644     2169.833      3082.98     78.41714     157.2735      314.735      2.044     4.84     858.8065     55.49371     191.2031        13     1.542     0.529 -43.10   0
       269    200.1131    597.6008 307.8401011  +6.4320907     516.5449     960.4484     1322.333     78.16541     156.9599      314.547      2.042     4.60     859.2173     55.49371     101.7417         7     1.316     0.457 -40.61   0
       270    381.8020    596.7661 307.7646526  +6.4385360     757.9963     1466.724     927.1844     78.03923     157.2735      314.641      1.652     5.24     859.3481     55.49371     145.2595         9     1.638     0.473 -32.50   0
       271    875.5638    588.3641 307.5598075  +6.4585284     2630.994     3950.767     4077.855     78.66808     157.3362     314.5784      1.644     4.13     859.2968     55.49371     418.0347        20     1.489     0.759 -32.68   0
       272    171.7496    588.0208 307.8522063  +6.4350927      605.268     1104.013     1691.768     78.41714      157.524     314.7036      1.868     5.04     859.3953     55.49371     109.7586         7     1.665     0.432 -23.26   0
       273    834.5533    585.7680 307.5769321  +6.4582310     2304.044     3706.847     4041.562     78.66808     157.4614      314.735      1.676     4.29     859.7994     55.49371     384.3155        20     1.514     0.789 -31.03   0
       274    815.0513    576.9426 307.5853295  +6.4612236       148074     236048.1     250363.7     78.91822     157.4614     314.8289      1.683     4.25     859.6233     55.49371     21969.17       132     1.835     1.222 -35.63   0
       275    805.3488    581.4745 307.5892087  +6.4590283     2471.971     4011.664     4953.503     78.91822      157.524     314.8602      1.891     4.26     859.8535     55.49371     388.7288        25     1.491     1.014 -23.82   1
       276    262.5479    580.6814 307.8147343  +6.4411740     7282.752     11427.47     11323.19     78.91822     157.4614     314.8602      1.709     4.31     858.5439     55.49371     1071.173        32     1.623     0.927 -32.78   0
       277    196.6661    575.2039 307.8422873  +6.4412220     53733.51     88570.38     95466.71     78.29137     157.2108     314.5784      1.766     4.42     858.8892     55.49371     7293.072        91     1.937     1.140 -35.39   0
       278    120.6256    571.4272 307.8740030  +6.4402246     5726.838     9372.319     9279.468     78.41714     157.2735     314.6723      1.765     4.67     859.4984     55.49371     769.3969        34     1.710     0.943 -31.44   0
       279    986.0960    568.7567 307.5145419  +6.4703118     1138.338     1824.507     1840.582     78.91822     157.3988      314.954      1.534     4.55     856.0491     55.49371     185.7833        12     1.399     0.606 -43.34   0
       280   1006.9515    567.8716 307.5059068  +6.4713726      845.248     1090.357     741.5237     78.91822      157.524     314.8602      1.395     4.92     855.6853     55.49371     102.6297         9     1.191     0.574 -23.80   0
       281    235.1082    567.3262 307.8265829  +6.4457663     651.7731     1010.935     1116.633     78.91822     157.5865     314.8602      1.850     5.01     858.5054     55.49371     120.9838         9     1.373     0.517 -18.31   0
       282    851.5552    564.2004 307.5705903  +6.4677039     4053.458     6551.648     6765.178     78.16541     157.1481     314.4217      1.693     4.23     858.7612     55.49371     581.4829        26     1.561     0.889 -37.04   0
       283    370.0449    562.3764 307.7706929  +6.4523404     15692.75     25793.51     26987.39     78.41714     157.4614     314.7036      1.726     4.46     858.5533     55.49371     2333.332        50     1.724     1.071 -33.47   0
       284    171.7237    561.4115 307.8531134  +6.4460781     1978.518     3194.798     3825.996     78.54272     157.0854     314.6723      1.774     4.57     858.8467     55.49371     292.0759        20     1.555     0.787 -41.39   0
       285    460.5408    562.2028 307.7331035  +6.4554470     717.1682     920.1972     1131.195     78.29138     157.2735      314.547      1.312     3.93     859.2836     55.49371     131.7968         6     1.202     0.368 -31.76   0
       286    805.5870    557.5491 307.5899107  +6.4689149     5462.705     8615.688     8943.185     78.29138     157.3988     314.5784      1.703     4.40     859.0258     55.49371     806.8901        29     1.591     0.868 -31.14   0
       287    536.3954    557.2972 307.7017550  +6.4600143     5933.161     9425.208     9465.146     78.66808     157.1481     314.5157      1.711     4.28     859.1541     55.49371     815.0944        33     1.700     0.903 -32.90   0
       288    247.2393    559.2331 307.8218158  +6.4495153     642.1766     1229.465     923.6546     78.66808     157.2735      314.641      1.961     5.52     858.4063     55.49371     118.9249         9     1.555     0.553 -20.57   0
       289    109.6851    558.4208 307.8789863  +6.4452266     986.6183     1592.516     1350.329     78.66808     157.1481     314.7663      1.677     6.42     859.4584     55.49371     113.2729        15     1.710     0.677 -36.34   0
       290    394.6547    553.8945 307.7607543  +6.4566680     1340.978     2024.406     2406.316     78.79325     157.4614     315.0479      1.611     5.17     858.5963     55.49371     208.3833        14     1.524     0.602 -35.34   0
       291    183.3934    550.4562 307.8486346  +6.4509936     6158.866     10072.42     10722.54     78.41715     157.3362      314.547      1.820     4.31     858.5638     55.49371      805.183        38     1.723     1.012 -36.77   0
       292    580.9246    550.5809 307.6834809  +6.4642786     2087.967     3497.357     3933.061     78.54272     157.2108     314.7663      1.758     4.88     858.7448     55.49371     336.6297        22     1.894     0.741 -29.60   0
       293    278.6306    546.8746 307.8091909  +6.4556722     79636.31     130995.6     139598.1     78.79325     157.4614     314.8289      1.760     4.36     858.2921     55.49371     11802.97        95     1.864     1.145 -34.67   0
       294     55.1033    549.1407 307.9019734  +6.4472215       4525.7      7583.24     7433.428     78.66808     157.4614     314.9228      1.744     4.28     859.8174     55.49371     660.3922        34     1.678     1.009 -33.44   0
       295    822.1229    549.7578 307.5833016  +6.4726842     1240.237     2031.045     2338.083     78.79325     157.4614     314.8602      1.795     5.79     858.5471     55.49371      162.639        13     1.481     0.638 -31.34   0
       296    567.8716    544.3478 307.6891129  +6.4664151     853.3416     1558.745     1443.533     78.79325     157.4614     314.8602      1.695     5.33     858.6096     55.49371     133.2106        11     1.409     0.626 -30.88   0
       297    505.4068    537.7294 307.7152861  +6.4670554     37129.16     64982.33     70651.39     78.41714     157.0854      314.735      1.897     4.37     858.5231     55.49371     5055.368        81     1.941     1.252 -27.41   0
       298    262.4677    541.9302 307.8160719  +6.4571708     1375.584     2169.558     916.2608     78.91822     157.5865     314.7976      1.559     5.73     858.1232     55.49371     190.0052        14     1.528     0.605 -32.24   0
       299    978.0901    540.7811 307.5188029  +6.4815958     1652.085     2737.054     2786.309     78.66808     157.2108     314.7036      1.763     4.74     855.6549     55.49371     213.0064        18     1.288     0.965 -36.61   0
       300    801.7730    539.3187 307.5921056  +6.4763147      15138.6     24184.11     24848.43     78.79325     157.2735     314.8602      1.704     4.51     858.4423     55.49371     2153.882        43     1.681     0.985 -32.95   0
       301    655.6770    536.3572 307.6529019  +6.4726532     897.1235     1585.759     1734.808     78.79325     157.4614     314.8602      1.945     5.85     858.1691     55.49371     135.1726        11     1.461     0.659 -31.42   0
       302    217.8276    533.9076 307.8348870  +6.4589834     1624.576     2668.531      2311.58     79.04299     157.2108     314.7036      1.709     5.44     857.9188     55.49371     245.6147        22     1.732     0.884 -36.82   0
       303    103.2445    534.4224 307.8824708  +6.4549182     663.4516     863.7261     780.6207     78.41714     157.3362      314.641      1.690     5.11     859.0541     55.49371     86.75311         8     1.058     0.698 -40.97   0
       304     53.5026    534.2601 307.9031402  +6.4533114     989.9712     1585.774     1977.394     78.66808     157.4614     314.9228      1.769     5.53     859.6175     55.49371     133.1227        11     1.445     0.597 -37.38   0
       305    675.6069    532.6113 307.6447474  +6.4748666     1214.488     1869.915     2145.566     78.54272     157.2735      314.735      1.678     5.79     858.1127     55.49371     181.6832        15     1.609     0.657 -31.54   0
       306    665.2180    532.7103 307.6490602  +6.4744782     2882.493      4604.88      4934.61     78.66808     157.2108      314.735      1.674     4.54     858.0994     55.49371     438.9877        20     1.567     0.731 -30.27   0
       307    727.6262    531.4993 307.6231727  +6.4770653     1175.548     1842.123     1732.818     79.04299     157.2108      314.735      1.694     6.07     858.3007     55.49371     150.1684        15     1.420     0.729 -29.38   0
       308    402.9471    528.5218 307.7581621  +6.4674221     1590.981     2491.114     2174.903     79.04299     157.4614     314.8289      1.701     4.72     857.6485     55.49371     227.0795        18     1.610     0.701 -41.11   0
       309    334.4162    526.6283 307.7866966  +6.4659045     3661.025     6001.686     5989.687     78.54272     157.2108      314.735      1.762     4.44     857.1259     55.49371     532.4262        28     1.621     0.908 -33.98   0
       310    149.7701    525.2610 307.8634515  +6.4602656     23621.79     38830.61      41057.8     78.66808     157.4614     314.7976      1.744     4.46     858.1254     55.49371     3307.042        55     1.798     1.040 -33.18   0
       311    877.4913    525.2676 307.5611174  +6.4846449     1540.478     2298.469     2607.968     78.91822     157.5865     314.8289      1.617     4.34     857.0352     55.49371      216.021        17     1.390     0.846 -51.86   0
       312    514.6022    525.9679 307.7118608  +6.4722196     1984.975      3226.11     3905.246     78.16541     157.2735      314.641      1.653     4.18     858.0648     55.49371     318.4827        20     1.600     0.755 -30.51   0
       313    114.9295    523.4302 307.8779871  +6.4598497     2426.536     3888.455     4435.669     78.79325     157.4614     314.7976      1.791     4.18      858.525     55.49371     358.4705        20     1.509     0.768 -32.80   0
       314    351.6653    521.7622 307.7796942  +6.4684925     932.1743     1486.865       1621.6     78.79325     157.3988     314.9228      1.590     5.80     856.8051     55.49371     144.4713        13     1.508     0.627 -34.80   0
       315    975.2881    519.8792 307.5206656  +6.4901327      4750.26     7548.868     8088.118     78.66808     157.7115      314.954      1.715     4.30     855.2233     55.49371     659.4736        30     1.612     0.923 -27.65   0
       316     48.1973    517.4937 307.9059097  +6.4600552     530.0815     527.2218    -146.7559     78.54272     157.1481     314.5157      1.170     3.80     859.4892     55.49371     88.78796         5     1.072     0.386 -84.39   0
       317    548.4243    512.3533 307.6982662  +6.4789739     1368.647     2001.001     2099.996     78.54272     157.4614     314.7036      1.559     4.76     857.5338     55.49371     199.8655        14     1.309     0.703 -31.64   0
       318     14.0200    509.5772 307.9203749  +6.4621730     22608.31     37396.45     39733.34     78.66808     157.3362     314.7663      1.764     4.35     860.1661     55.49371     3091.523        57     1.809     1.063 -34.06   0
       319    446.7849    506.3588 307.7406944  +6.4780429     39518.14     64538.94     68453.43     78.41714     157.2735     314.6097      1.741     4.44     857.0427     55.49371     5883.546        67     1.787     1.082 -34.31   0
       320    654.7997    506.0813 307.6542815  +6.4851245     11174.35     18192.98     19093.12     78.16541     156.9599     314.5157      1.689     4.32     857.4719     55.49371     1577.929        38     1.685     0.941 -33.81   0
       321    294.4735    506.8485 307.8039560  +6.4727302      861.811     1309.664     1854.947     78.91822      157.524     314.8602      1.790     4.55     855.8427     55.49371       137.53         9     1.207     0.589 -36.08   0
       322    211.9609    503.9932 307.8383316  +6.4711372     16872.14     29896.52     31948.85     78.29137     157.1481      314.547      1.872     4.37     856.8987     55.49371     2205.484        57     1.755     1.238 -29.93   0
       323    177.5596    505.1192 307.8525854  +6.4695160     1412.846     2283.895     2206.891     78.91822     157.4614     314.7663      1.797     5.50     857.2356     55.49371     207.2292        16     1.590     0.676 -32.69   0
       324      1.5335    503.2151 307.9257769  +6.4643792      2895.18     4643.475     5916.807     70.47482     127.9777     240.1025      1.938     4.93     860.5021     55.49371     661.0957        24     1.981     0.765  87.31  24
       325    988.6346    504.3635 307.5156390  +6.4969841     1074.624     1599.449      1938.89     78.66808     157.2108     314.5784      1.701     3.97     854.6363     55.49371     154.7433        14     1.230     0.741 -27.20   0
       326    828.7319    503.9145 307.5820902  +6.4918333     846.2041     1196.274     1644.708     79.04299     157.7115     314.8602      1.569     5.41     857.1355     55.49371     141.7374        11     1.524     0.541 -39.96   0
       327    576.4576    502.9228 307.6869359  +6.4838064     2744.311     4168.574     4331.792     78.91822     157.3988     314.7663      1.611     4.09     857.2908     55.49371     407.9368        23     1.560     0.802 -39.26   0
       328    917.2054    504.1143 307.5453247  +6.4947044     647.2393     960.2502     400.6875     78.41714     157.1481      314.547      1.562     4.38     855.8351     55.49371     88.23126         6     0.939     0.580 -67.61   0
       329    950.4803    500.0174 307.5316366  +6.4975061     4489.437     7034.771      7571.04     78.54272     157.1481      314.735      1.671     4.39     855.2067     55.49371     634.3169        25     1.628     0.833 -34.57   0
       330    623.6018    498.3997 307.6675008  +6.4872522     6036.226     9545.299     9972.792     78.29138     157.0227     314.5157      1.692     4.45     857.2859     55.49371     921.2869        31     1.667     0.872 -31.88   0
       331    111.0320    499.0225 307.8804290  +6.4697959     1118.869     1684.497     1446.315     78.41714     157.2735      314.641      1.614     5.94     857.7812     55.49371     162.4747        13     1.340     0.742 -36.03   0
       332    223.2483    497.6134 307.8338572  +6.4741506     567.5077     1074.304     959.4874     78.29138     157.3988      314.547      1.960     4.94     856.5818     55.49371     88.21545         8     1.262     0.547 -47.86   0
       333    973.1870    492.2580 307.5224618  +6.5014673     3120.539      5169.38     5605.134     78.29137     157.3988     314.5157      1.699     4.35      854.638     55.49371     458.4823        24     1.613     0.832 -31.88   0
       334    535.8494    489.6374 307.7042531  +6.4879318     6624.234     10931.96     11738.35     78.66808     157.3988     314.7036      1.786     4.51     856.6896     55.49371      1029.23        35     1.686     0.946 -33.43   0
       335    751.6447    490.1613 307.6145786  +6.4949363     563.4359     833.7927     1040.196     78.66808     157.3988      314.735      1.930     5.27     857.4008     55.49371      87.7937         8     1.460     0.537 -45.45   0
       336    381.7846    489.8176 307.7682552  +6.4826925     2542.079     4237.755     4149.774     78.66808     157.1481     314.7663      1.678     4.23     855.3893     55.49371     342.1146        23     1.568     0.832 -34.82   0
       337    104.5208    489.6059 307.8834515  +6.4734647     528.0187     653.6466     397.5533     78.54272     156.9599     314.6097      1.430     4.41     857.5475     55.49371     90.45148         5     0.978     0.565 -48.73   0
       338    892.2289    485.5644 307.5563224  +6.5015300     2936.854     4533.061     5307.694     78.54272     157.2108      314.641      1.681     4.45     855.8657     55.49371     388.6646        21     1.519     0.779 -32.15   0
       339    545.2225    486.4752 307.7004651  +6.4895513     682.3057      1258.32     1713.003     78.54272     157.3362     314.7663      1.716     4.04     856.5368     55.49371     123.5983         7     1.564     0.298 -15.13   1
       340    240.1691    484.8736 307.8272564  +6.4799791     485.4251      639.039     408.0066     78.79325     157.4614     314.8289      1.322     3.80     855.6992     55.49371     81.18793         5     0.989     0.419 -43.93   0
       341    899.5920    480.0026 307.5534492  +6.5040722     1922.309     3013.519     2821.781     78.29137     157.1481      314.641      1.669     3.98     855.6137     55.49371     300.0948        18     1.385     0.781 -35.69   0
       342    938.7271    479.4803 307.5372066  +6.5055937     1063.771     1614.202     1597.646     79.16757     157.7115     314.8602      1.820     5.25     854.9877     55.49371     177.7839        13     1.370     0.670 -39.27   0
       343    117.5549    479.2653 307.8783852  +6.4781725     583.2298     783.7064     719.5153     78.91822     157.3988     314.8289      1.339     3.40     857.0658     55.49371     129.2784         5     0.820     0.407 -66.37   0
       344    723.6176    475.7884 307.6267048  +6.4999338     2587.564     4139.485     4249.386     78.54272     157.1481      314.735      1.722     4.75     856.9774     55.49371     384.0029        21     1.597     0.740 -35.30   0
       345    434.1706    474.9090 307.7469920  +6.4906051     938.5189     1625.157     1752.162     79.04299     157.2108     314.7663      1.800     6.05     855.6009     55.49371     144.5375        13     1.480     0.695 -44.70   0
       346    394.5958    474.1804 307.7634584  +6.4895786     3481.243     5601.563      5722.74     78.54272     157.1481      314.641      1.707     4.26     854.9034     55.49371      477.601        24     1.535     0.923 -29.16   0
       347     85.1729    475.0577 307.8919799  +6.4788202      1832.56     2791.746      3061.83     78.54272      157.524     314.6723      1.577     4.61     857.6266     55.49371     275.1973        18     1.509     0.753 -29.45   0
       348    622.2706    470.6527 307.6689845  +6.4986640     9374.425     15374.16     15992.59     78.79325     157.3988     314.7663      1.744     4.59     856.2657     55.49371     1339.042        40     1.743     0.962 -34.80   0
       349    785.1632    466.9393 307.6014300  +6.5056446     14909.65      24261.8     27252.48     78.91822      157.524     314.7976      1.779     4.91      856.313     55.49371     2304.886        54     2.172     0.994 -41.88   0
       350    304.6630    467.6251 307.8010426  +6.4892669     2405.944     3935.011     4209.021     78.54272     157.4614     314.7663      1.726     4.58      853.907     55.49371     353.7607        21     1.690     0.731 -34.15   0
       351    813.5129    464.2798 307.5897401  +6.5076898     1251.702     2014.157     2172.022     78.66808     157.7115      314.954      1.716     4.97     855.9704     55.49371     204.0553        16     1.514     0.718 -24.10   0
       352    387.7183    464.1499 307.7666530  +6.4934892     1427.078     2443.513     3130.548     78.91822      157.524     314.8602      1.770     4.99     854.2822     55.49371     218.1138        18     1.624     0.741 -26.27   0
       353    969.9644    462.2967 307.5248022  +6.5137306     1727.362     2417.654     2427.694     78.91822     157.3362     314.9853      1.489     3.56     853.5032     55.49371     281.2145        16     1.322     0.733 -36.13   0
       354    718.8850    460.8197 307.6291727  +6.5059560     502.6269     779.7497     599.2036     78.54272     157.2108     314.7663      1.790     4.34     856.1571     55.49371     96.78589         7     1.423     0.376 -30.29   0
       355    375.6914    460.3192 307.7717786  +6.4946674     724.3163     981.6671     1428.828     78.66808     157.7115     314.8914      1.492     4.54     853.8555     55.49371     123.7761         8     1.163     0.505 -44.69   0
       356    122.3200    459.0505 307.8770870  +6.4866790     4084.215         6677     7153.964     78.91822      157.524     314.8289      1.745     4.40     856.5479     55.49371     567.5808        26     1.618     0.865 -31.66   0
       357    760.5524    457.9487 307.6119566  +6.5085343     2092.371     3332.429     2872.345     79.04299     157.3362     314.8289      1.664     4.59     856.0434     55.49371     315.8486        20     1.498     0.845 -37.77   0
       358   1023.0654    457.0669 307.5029137  +6.5176605     2866.607     3786.625     3838.245     75.34076     133.9228      246.582      1.447     3.69      851.752     55.49371     393.4662        17     1.152     0.918 -84.16  24
       359    280.6558    456.0524 307.8114061  +6.4932388     1538.646     2499.171     3001.858     78.91822     157.4614     314.7976      1.859     6.06     853.9821     55.49371     198.4962        20     1.828     0.757 -27.13   0
       360    358.2934    453.9525 307.7792210  +6.4967122     2961.264     4806.643     5026.188     78.79325     157.3988      314.954      1.708     4.28     853.2571     55.49371     460.6896        24     1.541     0.888 -34.56   0
       361    714.3679    451.6728 307.6313560  +6.5095816     1419.718     2438.211     2108.807     78.79325     157.4614     314.8602      1.771     4.57     855.6364     55.49371      212.775        17     1.515     0.749 -31.30   0
       362    245.5215    449.6854 307.8262175  +6.4946874     784.1069     1432.157     1559.003     78.91822      157.774     314.9228      2.009     4.26     854.6345     55.49371     143.4253         8     1.121     0.538 -50.96   0
       363    555.6849    444.3086 307.6975336  +6.5073118      841.744     1395.718     1494.268     78.66808     157.8989     314.9228      1.572     4.42     854.1641     55.49371     156.5092        10     1.275     0.542 -39.16   0
       364    477.8722    442.7972 307.7299140  +6.5053286     1278.951     1994.698     1709.945     78.41714     157.0854     314.6723      1.573     4.42     853.8304     55.49371     198.6041        17     1.483     0.745 -45.09   0
       365    840.2912    441.7663 307.5793676  +6.5178799     1449.313     2097.856     2015.012     79.04299     157.3362     314.8289      1.585     5.03      854.915     55.49371     241.8535        14     1.443     0.637 -31.18   0
       366    826.0643    440.9079 307.5853076  +6.5177592     1999.715     2951.607     3256.376     78.91822      157.649     314.8914      1.542     4.51     854.9644     55.49371     287.1516        18     1.527     0.744 -32.71   0
       367    625.3279    440.8103 307.6687153  +6.5110879     513.4605     871.6345     440.1192     78.41714     157.0854     314.6723      1.464     6.12     854.4018     55.49371     82.68091         7     1.858     0.568 -41.41   0
       368    723.4557    438.8967 307.6280082  +6.5151606     13929.27     21807.36     22987.96     78.79325     157.3988     315.0166      1.684     4.38     855.0542     55.49371     2191.978        42     1.723     0.923 -34.50   0
       369    644.6550    434.9695 307.6608810  +6.5141462     2319.338      3851.53     4247.481     78.79325      157.524     314.7976      1.650     4.42     854.1182     55.49371     363.2521        18     1.512     0.727 -34.07   0
       370    717.2134    433.8687 307.6307704  +6.5170279     690.8262     1032.561     1274.717     78.41714     157.3362     314.7036      1.539     5.58     854.7222     55.49371     114.3711         9     1.571     0.558 -42.70   0
       371    619.4335    431.9339 307.6714621  +6.5145555     5122.434     8292.429     9216.258     78.79325      157.524     314.7976      1.730     4.34      853.813     55.49371     734.8483        27     1.708     0.846 -28.95   3
       372    615.8247    429.4026 307.6730464  +6.5154799     13179.45     21615.57     23350.77     78.54272     157.1481      314.641      1.749     4.48     853.6094     55.49371     1895.932        39     1.709     0.959 -30.58   3
       373    948.6198    428.7004 307.5347940  +6.5268904     3558.892     5428.041     5667.901     78.91822     157.3362     314.6097      1.661     4.60      852.655     55.49371     525.4243        24     1.574     0.819 -38.49   0
       374    387.8503    424.7932 307.7679214  +6.5097433     26253.65     43379.94      45724.3     78.41714     157.2108     314.4844      1.727     4.35     852.5037     55.49371       3790.1        59     1.788     1.056 -32.27   0
       375    904.6439    424.2413 307.5532154  +6.5272642     1264.622     2100.357     2755.962     78.66808     157.4614      314.735      1.741     5.09     853.5776     55.49371     195.4626        16     1.618     0.695 -33.42   0
       376    133.9861    424.1917 307.8734152  +6.5014636     2049.534     3395.007     3780.875     78.54272     157.2108     314.7036      1.821     4.86     855.5367     55.49371     322.0446        20     1.574     0.844 -28.80   0
       377    917.4667    419.2141 307.5480556  +6.5297679     4580.376     7400.482     7953.987     78.41714     157.3362     314.7663      1.722     4.46     853.2355     55.49371     636.4179        29     1.639     0.936 -35.97   0
       378    900.1110    421.0993 307.5552039  +6.5284102     736.2276     1317.163     1626.256     78.91822     157.8989     314.7976      1.972     5.81     853.5413     55.49371     95.82141         9     1.198     0.792  46.62   1
       379    598.7437    420.7911 307.6804324  +6.5184637      566.818     1097.273     881.8328     78.29137     157.3362      314.547      1.692     3.84     853.0043     55.49371     90.91583         5     0.884     0.478  43.69   0
       380     67.1988    419.7371 307.9013130  +6.5010556     1344.977     2162.534     2248.656     78.29137     157.2735     314.5784      1.728     5.54      857.134     55.49371     183.1001        13     1.348     0.719 -24.07   0
       381    973.2417    417.3936 307.5249414  +6.5323802     599.5518      834.445    -22.92108     78.29138     157.1481      314.547      1.039     3.47      851.119     55.49371      115.653         5     1.162     0.300 -53.26   0
       382    245.3683    415.3116 307.8274385  +6.5088743     12820.97     20831.07     21925.66     79.04299     157.2735     314.7976      1.756     4.34     853.7875     55.49371       1775.7        45     1.726     1.029 -32.03   0
       383    740.1837    409.3031 307.6220494  +6.5279387     760.2822     1059.166     1637.358     78.79325     157.2735     314.6723      1.632     4.95     853.7645     55.49371     127.0641         8     1.196     0.581 -45.31   0
       384     81.0432    409.3501 307.8959115  +6.5058100     695.2736     1038.803     914.9779     79.04299     157.3988     314.8602      1.817     5.44     856.3254     55.49371     118.7217        11     1.589     0.526 -32.23   0
       385    968.7635    407.4561 307.5271344  +6.5363340      996.963     1443.854     1299.748     78.79325     157.4614     314.8602      1.633     5.11     851.0295     55.49371     168.1758        12     1.244     0.711 -24.79   0
       386    708.6731    408.1325 307.6351814  +6.5273685     586.2073     673.8228     710.8873     79.04299     157.5865     314.7976      1.371     4.50     853.3283     55.49371     106.9296         7     1.034     0.556 -21.09   0
       387    358.1084    405.1490 307.7809393  +6.5168560     1087.222      1675.39      1639.45     78.79325     157.3362     315.0166      1.489     4.95       851.26     55.49371     165.4642        14     1.465     0.643 -36.61   0
       388    191.0550    404.9460 307.8503534  +6.5113287     730.7745     1174.471     1034.823     79.16756     157.3988     314.8289      1.905     4.10     854.2223     55.49371     103.6094         7     0.925     0.520 -37.75   0
       389    145.6051    403.9531 307.8692701  +6.5102104     4742.256     7772.062     8219.794     78.29137     157.2735     314.5157      1.707     4.43     854.9232     55.49371     623.4707        28     1.610     0.895 -29.05   0
       390    250.4040    403.0019 307.8257608  +6.5141259     1445.344     2110.877      2155.54     78.29137     157.0227     314.5784      1.603     4.41     853.1824     55.49371     207.9002        15     1.385     0.762 -39.20   0
       391    443.3225    402.6570 307.7456176  +6.5207435     607.5336     1132.828     1364.593     78.91822     157.3988     314.7976      1.916     5.01     851.4067     55.49371     83.33411         8     1.418     0.501 -41.17   0
       392    831.7609    400.4225 307.5842959  +6.5346655     664.6918     1361.109     1425.161     78.54272     157.2108      314.641      1.992     4.68     853.2449     55.49371     113.9404         8     1.218     0.511 -48.19   0
       393    167.7803    399.7747 307.8601977  +6.5126813     2227.126      3881.14     4422.519     78.54272     157.2735      314.735      1.954     4.99     854.5005     55.49371     304.2567        25     1.605     0.989 -42.46   0
       394    563.3995    398.7709 307.6958567  +6.5263720     1030.282     1532.579     1504.369     78.29138     157.2735      314.641      1.632     5.13     851.3013     55.49371     144.2462        10     1.308     0.568 -24.11   0
       395    391.1465    394.6475 307.7675655  +6.5223005     2010.739     3146.689     2945.143     78.91822     157.4614     314.8602      1.622     4.17     850.9031     55.49371     302.6383        22     1.536     0.918 -39.58   0
       396      9.5167    395.3705 307.9260999  +6.5091737     686.3986     855.0624     134.8297     78.91822     157.2735      314.735      1.457     4.55     858.2844     55.49371     101.6631         8     0.954     0.702 -44.96   0
       397    278.9842    394.9427 307.8141575  +6.5184135     807.3237     1196.281     414.3257     78.29137     157.3988     314.5784      1.474     5.04     852.3781     55.49371     120.4089         8     1.119     0.643 -28.30   0
       398    979.6383    393.7530 307.5230738  +6.5423545     678.5961     880.9722     929.6117     78.79325     157.3988     314.6723      1.447     4.68     850.3268     55.49371     122.4771         8     1.549     0.402 -33.95   0
       399    324.0915    392.8178 307.7954876  +6.5208055     601.0551     1082.601     1184.421     78.66808     157.2108     314.7036      1.802     4.64     851.3373     55.49371     88.13367         7     0.876     0.698 -57.03   0
       400    598.7528    390.5448 307.6814435  +6.5309522     574.8643     870.3817     906.2281     78.91822     157.4614     314.8914      1.620     4.56     850.8737     55.49371     82.57312         7     1.278     0.463 -41.58   0
       401    444.9767    388.1534 307.7454177  +6.5267873     6892.629     11223.61     11728.23     78.54272     157.4614     314.7036      1.694     4.41     850.4351     55.49371      1010.43        35     1.714     0.919 -34.26   0
       402     41.3736    388.7610 307.9130875  +6.5129753     2879.413     5024.003     5285.117     78.54272     157.2735     314.6723      1.893     5.01     857.0487     55.49371     433.1871        25     1.914     0.796 -42.23   0
       403    777.7483    386.9862 307.6071887  +6.5384087     1691.246     2895.401     3386.592     78.29137     157.3988     314.5784      1.877     5.07     852.7545     55.49371     228.8584        20     1.648     0.764 -36.69   1
       404    785.5969    385.4788 307.6039780  +6.5392934     11911.19     18797.16      19872.1     78.29138     156.9599     314.6097      1.698     4.40     852.6523     55.49371      1787.42        42     1.683     0.965 -32.84   0
       405    349.0063    383.9123 307.7854354  +6.5253187     1030.582     1626.633     1903.212     78.41714     157.1481     314.5784      1.709     5.22     850.3586     55.49371     137.9201        12     1.364     0.644 -29.22   0
       406    193.6040    376.8092 307.8502423  +6.5230313     613.6425     841.3061      485.831     78.29138     157.1481     314.6723      1.505     4.13     853.2902     55.49371     112.6713         6     1.102     0.442 -34.11   0
       407    910.7339    375.8468 307.5523037  +6.5474492     570.5104     1043.177     1235.915     78.91822     157.3988     314.8289      1.846     3.46     851.4961     55.49371     76.93878         5     0.995     0.348 -46.53   0
       408    465.2820    372.3236 307.7375128  +6.5340039     2107.885     3334.964     3765.941     79.16757     157.7115      314.954      1.665     4.26     849.3552     55.49371     322.7885        20     1.556     0.797 -31.76   0
       409    493.1845    371.7142 307.7259397  +6.5351908     2900.389      4672.35      4587.78     78.54272     157.2108      314.735      1.687     3.99     849.3301     55.49371     422.2424        21     1.470     0.818 -27.45   0
       410      1.4745    372.8694 307.9302007  +6.5181928     593.2546     1152.566     1583.203     70.47482     127.3602     239.3214      2.257     5.26     857.5763     55.49371      88.6571         6     1.103     0.708  71.67  24
       411    921.9091    371.8779 307.5477929  +6.5494608     782.7593      1382.01     1739.596     78.66808     157.7115     314.8602      1.701     5.46     851.1731     55.49371     136.0651        10     1.535     0.547 -24.96   0
       412    850.9795    368.4167 307.5773816  +6.5485222     30374.55     50560.68     53835.39     78.66808     157.2735      314.735      1.779     4.23     851.8016     55.49371     4119.521        61     1.782     1.115 -38.38   0
       413    996.8346    367.8055 307.5167956  +6.5536415       453.76     544.8333     461.6852     78.16541     157.2735     314.6097      1.686     5.74     849.3904     55.49371     86.08563         7     1.540     0.602 -42.25   0
       414    343.1984    363.9678 307.7885195  +6.5333585     659.7224     1196.051     1352.874     78.29137     157.2735     314.5784      1.750     5.22      849.583     55.49371     98.88678        10     1.444     0.533 -46.78   0
       415     68.1687    364.7153 307.9027660  +6.5238051     588.3157       708.65     357.9928     78.91822     157.2735     314.7036      1.555     4.47      855.485     55.49371     78.09869         6     1.171     0.484 -46.32   0
       416    622.7214    360.9499 307.6724772  +6.5439739     2547.573     3725.591     4278.178     78.91822      157.524     314.8289      1.550     4.48     849.1728     55.49371     340.6396        19     1.474     0.725 -38.22   0
       417     30.7321    361.2705 307.9184364  +6.5239669     1101.946     1833.147     2186.202     78.91822     157.5865     314.7976      1.744     4.48     856.2842     55.49371      190.412        14     1.254     0.904 -35.65   0
       418    707.4433    354.3967 307.6374936  +6.5495142     74828.52     117993.2     125039.2     78.29138     157.0854     314.4844      1.707     4.34      850.968     55.49371     10491.26        86     1.788     1.098 -30.78   0
       419    865.7155    355.7545 307.5716822  +6.5542424     1150.817     1757.998     1365.931     78.91822     157.3988     314.8602      1.669     5.10     851.2628     55.49371     187.0708        17     1.488     0.769 -38.84   0
       420     86.6145    353.9412 307.8954656  +6.5288742     1224.608     1859.531     2222.979     78.29137     157.3988     314.5784      1.648     5.42     854.7173     55.49371     179.5049        16     1.439     0.832 -43.71   0
       421    948.9373    351.3200 307.5372495  +6.5588508     812.8281     1526.601     1271.635     79.04299      157.524     314.8289      1.952     6.22      849.873     55.49371     152.4148        14     1.781     0.610 -31.72   0
       422    569.9109    351.0763 307.6947521  +6.5462824     2376.188      3911.01     4079.588     78.91822      157.774     314.8914      1.716     5.10     848.0452     55.49371     332.9592        22     1.454     0.897 -37.46   0
       423    107.1715    349.9410 307.8870593  +6.5312175     5692.637     9469.658     10641.34     78.54272      157.524      314.735      1.807     4.48     854.3168     55.49371     771.1064        34     1.751     0.941 -33.97   0
       424    553.1514    347.3263 307.7018418  +6.5472694     6715.385     10851.38     10962.14     78.91822      157.524     314.8602      1.705     4.33     847.8638     55.49371      896.291        33     1.677     0.906 -32.61   0
       425    416.1110    342.4572 307.7589474  +6.5446863     24178.64     39300.95     41886.05     78.79325     157.3988      314.954      1.752     4.39     848.0687     55.49371     3287.294        59     1.775     1.077 -34.65   0
       426    282.2397    344.8691 307.8144905  +6.5391970     2467.179     3961.848     4233.621     78.79325     157.4614     314.9228      1.705     4.64     850.2613     55.49371     317.3884        21     1.576     0.797 -33.45   0
       427    594.9789    341.3584 307.6846621  +6.5511342     580.0972     685.9532      922.116     78.54272     157.2735      314.641      1.782     3.74     847.6906     55.49371     110.5381         5     1.226     0.328 -48.11   0
       428    523.7953    341.2108 307.7142451  +6.5488110     1200.327     1931.752     1751.768     78.54272     157.2108      314.735      1.588     4.50     847.6302     55.49371     184.5129        13     1.415     0.731 -29.44   0
       429    396.0042    340.4782 307.7673685  +6.5448289     1203.558     2008.959      2908.24     78.54272     156.9599      314.641      1.792     4.39     848.1948     55.49371     161.0381        15     1.324     0.738 -38.20   0
       430    495.3492    337.8157 307.7261789  +6.5492595     994.6456     1745.556     1963.582     78.29137      157.524      314.547      1.916     4.21     847.5809     55.49371     197.5106        11     1.334     0.588 -31.95   0
       431    505.1197    332.9096 307.7222839  +6.5516126     7926.381     12917.73     13735.88     78.66808      157.649     314.8914      1.695     4.36     847.3641     55.49371     1154.221        37     1.698     0.976 -34.78   0
       432    810.9258    335.2258 307.5951362  +6.5608886      744.841     1278.015      1465.21     78.54272     157.3362     314.7976      2.020     4.53     850.6315     55.49371     123.4316         8     1.224     0.476 -20.16   0
       433    393.6200    334.5535 307.7685584  +6.5471951     797.3663     1258.533      1650.62     78.54272     157.4614      314.641      1.602     5.57     848.1166     55.49371     136.1671        10     1.278     0.685 -16.01   0
       434    774.3130    331.5913 307.6104717  +6.5611659     2964.268     4840.101     5520.642     78.54272     157.1481      314.641      1.726     4.44     850.4601     55.49371     453.5872        22     1.644     0.774 -33.52   0
       435    929.7870    331.3212 307.5458759  +6.5664692     838.9767     1302.114     1439.446     78.54272     157.2108      314.641      1.775     4.90     849.4277     55.49371     143.4691         9     1.401     0.485 -33.01   0
       436    331.5286    329.6165 307.7945240  +6.5471496     890.6582     1534.041     1729.758     78.41714     157.3988      314.735      1.731     4.46     848.7835     55.49371     167.7149        11     1.331     0.622 -30.89   0
       437    265.4964    324.4958 307.8221332  +6.5470462      503.685     1318.711     1195.595     78.91822      158.086     314.6723      2.537     4.87     850.1252     55.49371     89.13708         7     1.019     0.658 -45.09   2
       438    167.2784    323.2540 307.8629850  +6.5442577     1091.732     1886.446     1737.549     79.04299     157.4614     314.8289      1.701     5.66     853.0976     55.49371     139.5692        13     1.464     0.617 -29.11   0
       439    394.9749    317.0538 307.7685839  +6.5544658     6908.631     11443.03     12095.94     78.54272      157.524     314.6723      1.744     4.48     847.7733     55.49371        933.2        34     1.660     0.983 -31.50   0
       440    250.9909    317.5564 307.8283940  +6.5494240     1943.676      3191.26     3121.392     78.41714     157.2735     314.5784      1.670     5.39     850.2833     55.49371     282.0309        18     1.539     0.723 -28.27   0
       441    762.9429    312.9634 307.6158204  +6.5684771     50725.25     80218.53      85218.4     78.91822     157.4614     314.8289      1.671     4.21      849.672     55.49371     7448.039        77     1.777     1.090 -32.81   0
       442    748.7414    316.6081 307.6215995  +6.5664975     875.7523     1532.825     1401.591     78.29138     157.3362     314.5784      1.789     5.12      849.726     55.49371     130.4677        10     1.407     0.526 -31.68   0
       443    434.5018    312.3390 307.7523182  +6.5577383     2191.376     3467.031     3429.639     78.66808     157.4614      314.954      1.714     4.18     847.3472     55.49371      289.701        20     1.399     0.867 -37.69   0
       444    997.6755    309.9816 307.5183789  +6.5775447     1619.463     2422.024     2547.173     78.41714     157.2108     314.7663      1.552     4.49     847.8105     55.49371     239.9304        17     1.496     0.714 -33.08   0
       445    580.5474    309.7220 307.6917205  +6.5637132     1291.513     2029.922     2232.746     79.04299     157.4614     314.8289      1.834     4.67     846.4569     55.49371      190.921        15     1.399     0.708 -43.12   0
       446    938.6998    309.2239 307.5429114  +6.5758904     2192.694     3570.392     3805.029     79.04299     157.2108      314.641      1.752     4.79     848.4972     55.49371     296.3535        20     1.510     0.812 -27.41   0
       447    471.6773    308.6918 307.7369935  +6.5604907     1088.709     1666.876     1827.938     78.66808     157.7115     314.8602      1.659     4.80     846.7521     55.49371      154.865        14     1.382     0.813 -32.49   0
       448    421.0765    307.8888 307.7580463  +6.5591254     1837.002     2911.524     3531.933     78.91822      157.774     314.8914      1.756     4.86      847.469     55.49371     253.0748        16     1.389     0.691 -33.35   0
       449    300.7406    307.8488 307.8080493  +6.5551032     625.3635     1014.118     835.6699     78.91822     157.4614     314.8914      1.620     5.49     849.0004     55.49371     104.3483         7     1.253     0.678 -24.93   0
       450    471.1881    303.3349 307.7373768  +6.5626861     707.9158      1272.42     1226.815     78.41714     157.2735     314.7036      1.828     5.33     846.5783     55.49371     103.2374         8     1.377     0.583 -40.89   0
       451    842.0943    302.4615 307.5832815  +6.5754578     1087.922     1526.915     1464.485     78.79325      157.524     314.8602      1.461     4.02     849.6842     55.49371     180.2098        11     1.149     0.634 -54.79   0
       452    197.6166    299.2753 307.8511873  +6.5551779     2094.195     3569.689     3435.549     78.41714     157.2108      314.735      1.755     5.10     851.5427     55.49371     282.6685        22     1.605     0.881 -37.60   0
       453    451.4665    299.5952 307.7456973  +6.5635689      1167.78     1746.404      2166.31     78.41715     157.1481      314.641      1.586     4.21     846.8242     55.49371     170.3249        14     1.371     0.657 -29.86   0
       454    761.4177    297.4488 307.6169740  +6.5748319     5968.203     9361.621     9553.604     78.41715      157.524      314.641      1.697     4.61      849.011     55.49371     858.0612        28     1.572     0.898 -33.81   0
       455    233.3583    297.4125 307.8363990  +6.5571484     688.2304     981.4118     926.1296     78.29138     157.2735     314.5784      1.475     6.33     850.2787     55.49371     117.3523         9     1.561     0.721 -41.45   0
       456     93.4957    297.0160 307.8945264  +6.5526084      995.426     1815.361     1706.625     78.66808     157.2735     314.7036      1.830     6.69     853.8796     55.49371     136.8252        16     1.604     0.783 -42.21   0
       457    777.5831    295.5457 307.6103204  +6.5761580     2566.308     3940.396     4284.454     78.41715     157.3988      314.547      1.579     3.95     849.2008     55.49371     402.7567        21     1.658     0.698 -32.17   0
       458    351.5703    296.9727 307.7872947  +6.5613002      599.754     1036.167     541.0311     78.41714     157.2108      314.641      1.554     4.56     847.5088     55.49371     88.18793         8     1.239     0.477 -26.15   0
       459    479.4325    294.7609 307.7342391  +6.5665025     543.8029      793.886     567.7064     78.54272     157.2735      314.641      1.472     3.42     846.1796     55.49371     90.56091         5     0.771     0.438 -68.57   0
       460     80.6741    290.6641 307.9000681  +6.5547994     1097.372     1915.295     1851.989     79.04299     157.4614     314.8289      1.893     5.94      853.908     55.49371     153.5801        16     1.750     0.726 -32.46   0
       461    367.1185    290.1035 307.7810652  +6.5646582     1779.902     3348.263     4201.395     78.79325      157.774     314.9228      2.229     7.10     847.2988     55.49371     214.2987        22     2.058     0.744  -9.55   0
       462   1015.8864    286.3808 307.5116002  +6.5878964     5505.682      8798.41     9032.703     78.66808     157.2108     314.7036      1.697     4.35     846.8226     55.49371     782.9653        30     1.570     0.930 -30.63  16
       463    493.9668    286.3355 307.7284827  +6.5704684     2019.093     3050.667     2941.626     78.79325     157.4614     314.7976      1.569     4.11     845.6609     55.49371     312.0953        19     1.415     0.820 -37.69   0
       464    256.6251    281.8095 307.8272567  +6.5643723      5448.21     8678.062     9498.393     78.54272     157.2735     314.7036      1.675     4.27     849.4852     55.49371     812.7807        29     1.637     0.882 -36.59   0
       465    924.1398    280.8535 307.5499107  +6.5871185     502.5536     735.7537     928.5318     78.91822     157.3988     314.7976      1.218     4.27     847.6464     55.49371     105.4622         6     1.115     0.466 -29.02   0
       466    775.9985    275.0872 307.6116642  +6.5845521     582.3019     882.5852     481.3994     78.16541     157.0227      314.547      1.654     5.90     848.0897     55.49371     134.6321         8     1.641     0.598 -41.01   0
       467    390.5164    272.7266 307.7719271  +6.5726180     1598.643     2808.684     2839.268     79.04299      157.774     314.8602      1.758     5.28     846.8162     55.49371     214.2263        16     1.512     0.809 -47.99   0
       468    234.2654    274.4647 307.8367950  +6.5666534      544.132     603.8339     549.1248     78.91822     157.4614     314.7976      1.469     4.53      850.004     55.49371     91.96326         5     1.214     0.480  -7.01   0
       469    977.5631    271.4578 307.5280245  +6.5927801      1086.93      1493.74     2022.916     78.91822     157.4614     314.8289      1.569     4.34     846.5634     55.49371      171.205        15     1.326     0.880 -39.77   0
       470    313.0691    268.5316 307.8042499  +6.5717503      1142.88     1638.232     1565.911     78.91822     157.5865     314.7976      1.515     5.57     847.8873     55.49371     205.5553        12     1.324     0.660 -33.06   0
       471    160.5684    268.1412 307.8676306  +6.5667865     1547.318     2362.777     2503.798     78.66808      157.524     314.7663      1.702     5.55     852.3565     55.49371     243.9801        17     1.670     0.670 -34.90   0
       472    913.9468    263.4180 307.5547298  +6.5939773     1516.463     2733.173     3348.959     78.41714      157.524     314.6097      2.019     5.24     847.0259     55.49371     243.9446        18     1.519     0.788 -39.65   0
       473    570.0956    264.1334 307.6975939  +6.5821859     2183.145     3299.562     3205.836     78.91822     157.5865     314.8602      1.601     3.87     844.6297     55.49371     355.4547        20     1.428     0.786 -33.42   0
       474    733.8361    261.7680 307.6296312  +6.5886420     4797.173      7859.37     8303.088     78.54272     157.2108     314.5784      1.718     4.44     846.7715     55.49371     766.1317        31     1.678     0.912 -31.59   0
       475    674.7289    261.5804 307.6541995  +6.5867425     2130.775     3380.604     3347.021     78.54272     157.3362     314.7663      1.709     4.38     845.8944     55.49371     351.3188        21     1.442     0.938 -41.23   0
       476    971.8995    261.5538 307.5307092  +6.5966805     664.7631     1056.986      1032.08     78.91822     157.3362     315.0479      1.596     3.63     846.2402     55.49371     119.7325         6     1.151     0.330 -51.32   0
       477    389.3893    255.9858 307.7729585  +6.5794921     736.9953     1175.236     918.0408     78.54272     157.1481     314.7036      1.659     4.22     846.3834     55.49371     107.5748         7     1.187     0.428 -32.45   0
       478    929.7772    253.7033 307.5484762  +6.5985167     1006.666     1609.373     1546.103     78.91822     157.2108      314.641      1.693     5.26     846.4428     55.49371     158.8885        10     1.222     0.653 -37.91   0
       479    233.3840    246.8620 307.8380910  +6.5780202     2245.405     3829.857     4034.611     78.41714     157.3988      314.641      1.811     4.56     849.8384     55.49371      291.327        23     1.644     0.820 -32.73   0
       480    876.2019    245.7692 307.5710057  +6.6000043     1479.742      2310.15     2661.902     78.29137     157.2735     314.6723      1.675     5.23     846.5571     55.49371     213.5579        18     1.676     0.702 -32.80   0
       481    766.4411    245.3920 307.6166307  +6.5964934     1527.734     2314.212     2550.873     78.29138     157.2735      314.547      1.677     4.90      846.194     55.49371     232.0149        19     1.549     0.803 -28.27   0
       482    587.1182    241.1829 307.6912906  +6.5922319     579.7674     772.0591       715.33     78.54272     157.1481      314.735      1.427     3.64     844.0504     55.49371     94.40448         6     0.900     0.611 -19.00   0
       483    467.4999    236.5263 307.7411544  +6.5901464     20876.68     34780.12     38019.95     78.41715     157.5865     314.7976      1.877     4.99      843.808     55.49371     3095.625        73     2.459     1.061 -39.19   0
       484    793.2727    235.9328 307.6057974  +6.6012957     12488.45     20109.11     21944.46     79.04299     157.5865     314.8289      1.731     4.30     845.9435     55.49371     1883.687        49     1.824     1.037 -30.64   0
       485    329.0487    237.9321 307.7986397  +6.5849207     684.1327     1088.759     975.7061     78.91822     157.3988     314.8289      1.669     4.49     847.0972     55.49371     98.70642         7     1.156     0.496 -50.59   0
       486    731.9700    231.7684 307.6314121  +6.6009660     680.1154     1058.712     1058.614     78.41714     157.2108     314.5784      1.736     5.07     845.1068     55.49371     78.26196         8     1.112     0.653 -33.96   0
       487    155.5699    230.0270 307.8709924  +6.5823546     2155.462     3691.326     4484.297     78.41714     157.2108     314.6723      1.854     5.16     851.5933     55.49371     299.3595        24     1.888     0.807 -32.34   0
       488    129.4942    229.3710 307.8818497  +6.5817483     1057.584     1398.592     1361.336     79.04299     157.2108      314.735      1.637     3.75      852.214     55.49371     145.9609        13     1.149     0.730 -49.88   0
       489    786.3126    228.3644 307.6089433  +6.6041880     717.9776     1166.756     1792.316     78.91822     157.3362     314.8289      2.032     5.87     845.3881     55.49371     100.9681         9     1.236     0.785  -6.17   0
       490    929.7579    226.3068 307.5494007  +6.6098277     1344.967     2154.012     2405.206     79.04299     157.3988      314.954      1.661     4.81     845.3088     55.49371     209.9881        13     1.439     0.616 -30.21   0
       491    591.2867    222.5191 307.6901849  +6.6000774     4350.679      6948.79     6798.295     78.66808     157.7115      314.954      1.724     4.38     843.5094     55.49371     613.2416        29     1.627     0.876 -34.11   0
       492    553.9554    222.5393 307.7056975  +6.5988188     2048.044     3355.935     3914.399     78.79325     157.4614      314.954      1.805     4.50     842.9307     55.49371     292.0123        19     1.424     0.849 -33.43   0
       493    311.4713    223.5441 307.8064280  +6.5902709     1159.362     1588.746     1384.745     78.79325     157.3988     314.7976      1.539     4.90     847.0699     55.49371     159.6477        10     1.273     0.534 -41.11   0
       494    395.9144    221.5393 307.7714055  +6.5939332     1319.392     2064.462     2022.129     79.04299     157.5865     314.9228      1.523     4.72     845.2776     55.49371     204.1328        14     1.354     0.646 -36.23   0
       495    952.1615    219.5959 307.5403148  +6.6133461     2613.191     4134.838     3836.846     78.03923     157.2108     314.5784      1.644     4.12     844.7148     55.49371      373.809        22     1.560     0.829 -35.82   0
       496    898.2980    219.1854 307.5627129  +6.6117182     10632.33     16754.91     17417.41     78.79325     157.2108     314.6097      1.671     4.20     845.0245     55.49371     1535.844        37     1.655     0.943 -31.66   0
       497    325.6996    219.8250 307.8006407  +6.5922842     892.0004      1487.93     1744.403     79.04299     157.2108     314.7036      1.533     5.68      846.889     55.49371     137.7255        12     1.643     0.552 -34.26   0
       498    985.0090    217.0495 307.5267493  +6.6154931     8733.514     14142.56     15065.91     78.41714     157.2735     314.5157      1.685     4.23     844.1324     55.49371         1294        39     1.720     0.949 -34.22   0
       499    572.5708    219.1598 307.6980752  +6.6008376     919.6149      1651.16     1394.071     78.54272     157.2108     314.7036      1.921     4.97     843.1224     55.49371     144.7802        10     1.226     0.811 -12.33   0
       500    217.2141    219.4376 307.8457340  +6.5887995     589.4272     590.1025     567.0911     78.54272     157.2735     314.5784      1.541     5.25     850.1222     55.49371     91.06665         6     1.254     0.621 -50.12   0
       501    696.3417    216.9571 307.6467145  +6.6058898     2635.967     4287.307     5213.306     78.79325     157.3988     314.8914      1.755     4.67     844.3058     55.49371     404.9006        21     1.543     0.775 -36.35   0
       502     24.4259    215.6819 307.9259703  +6.5838632     24073.38      39446.3     42338.55     78.79325     157.2108     314.8289      1.777     4.47     854.3043     55.49371     3346.372        54     1.768     1.064 -31.99   0
       503    270.8165    216.6583 307.8235536  +6.5917483     906.5008     1201.906     1699.535     78.29137     157.3988      314.547      1.514     5.28     848.0358     55.49371     136.7816        10     1.239     0.634 -33.63   0
       504    504.9208    211.7732 307.7264358  +6.6016208     1935.499     3041.984     2919.586     78.79325     157.3988     314.8289      1.669     5.06      842.494     55.49371     271.5985        19     1.620     0.783 -37.90   0
       505    889.3134    207.6194 307.5668337  +6.6161937     2035.873     3428.242     3353.266     78.66808     157.2108     314.7036      1.813     4.92     844.5024     55.49371     291.1497        22     1.646     0.813 -34.47   0
       506    836.9247    208.5390 307.5885745  +6.6140646     1840.567      3015.54     3025.373     79.16756     157.4614     314.8289      1.726     5.48     844.5673     55.49371     252.0435        14     1.405     0.663 -34.52   0
       507    517.1465    207.7499 307.7214905  +6.6036917     2268.851     3615.803     3985.366     79.04299     157.3988     314.8602      1.697     4.60     842.3864     55.49371     347.0735        22     1.665     0.779 -33.45   0
       508    748.5045    205.1057 307.6254346  +6.6125275     38217.36     59735.76      62949.3     78.91822      158.086     314.7663      1.690     4.23     844.2757     55.49371     5655.593        64     1.748     1.049 -32.13   0
       509    351.5437    204.4924 307.7904172  +6.5994823     5550.141      11458.8     13141.65     78.79325     157.3988      314.954      2.251     6.52     846.3937     55.49371     680.3173        51     2.194     1.227 -59.00   0
       510    982.3305    203.9109 307.5283018  +6.6208286     2469.985     3886.774     3851.276     78.91822     157.7115     314.8289      1.629     4.24        843.7     55.49371     424.4392        21     1.574     0.738 -33.53   0
       511   1020.7812    202.4895 307.5123698  +6.6226976     1616.626     2656.984     2707.576     78.66808     156.4568      279.018      1.744     4.69     843.2131     55.49371     215.9622        17     1.439     0.885 -35.36  16
       512    916.4185    202.2066 307.5557506  +6.6193333     7086.602     11098.33     11691.16     78.54272     157.1481     314.6723      1.696     4.43     844.1974     55.49371     1039.923        32     1.643     0.898 -32.42   0
       513    459.7783    201.1752 307.7455513  +6.6044832     4774.279     7779.715     8022.626     78.54272     157.2735     314.7976      1.699     4.29     842.7922     55.49371     671.1265        33     1.681     0.930 -31.87   0
       514    234.2595    198.2208 307.8393657  +6.5981322     695.8706      1036.93     1030.772     78.54272     157.3362     314.7036      1.692     4.41     849.4089     55.49371      131.465         7     1.122     0.593 -38.40   0
       515    117.2245    192.5452 307.8881901  +6.5965397     4443.221     7643.741     7937.953     78.54272      157.524      314.641      1.810     4.56     851.9217     55.49371     570.0159        33     1.733     0.971 -34.01   0
       516    936.7891    191.9794 307.5476270  +6.6242358     787.5823     1422.275     1832.416     78.54272     157.1481     314.7036      1.804     5.12     843.6459     55.49371     142.4847         8     1.421     0.521 -38.23   0
       517    613.2437    191.4221 307.6821040  +6.6136520     668.5773     988.7626     1154.602     78.41714     157.3362      314.641      1.442     4.93     843.0139     55.49371      100.248         8     1.115     0.618 -36.45   0
       518    287.5576    189.2663 307.8175192  +6.6036201      31763.3     51812.86     55063.84     78.91822     157.3988     314.8914      1.767     4.44     847.3265     55.49371     4247.538        61     1.772     1.096 -32.33   0
       519    262.8566    190.2679 307.8277501  +6.6023768     6095.748     10139.45     11142.89     79.04299     157.3988     314.7663      1.790     4.66     848.2592     55.49371     874.3231        35     1.692     1.023 -34.43   0
       520    716.4689    188.6486 307.6392994  +6.6182512     813.3081     1298.948     1694.589     78.91822     157.3988     314.8289      1.674     4.93     843.7828     55.49371     114.5919         9     1.194     0.604 -41.19   0
       521    411.6517    184.7253 307.7661039  +6.6096608      47256.2     76468.68     80446.09     78.91822      157.524     314.8289      1.743     4.39     843.7441     55.49371     6834.778        66     1.751     1.106 -33.14   0
       522    167.5284    186.0382 307.8675061  +6.6009185     3808.381     6258.593     6428.106     78.79325     157.4614     314.8914      1.731     4.38     850.4454     55.49371     555.7047        25     1.579     0.861 -32.48   0
       523    429.0250    185.2891 307.7588652  +6.6100108     1299.692      1949.13     2286.589     79.04299     157.2735     314.6723      1.542     4.24     843.2098     55.49371     197.1627        12     1.278     0.664 -36.86   0
       524    315.6719    182.4129 307.8060669  +6.6073940     17171.39     28149.26     30160.77     78.41714     157.0854      314.641      1.785     4.40     846.7794     55.49371     2442.105        57     1.836     1.080 -33.96   3
       525    323.0106    182.5362 307.8030131  +6.6075895     2073.303     3749.051     4423.558     78.41714     157.2735     314.7036      2.113     5.00     846.6544     55.49371     265.3326        26     1.645     1.035 -43.12   3
       526    750.9519    180.9993 307.6252254  +6.6225625     30968.08      49582.3     52757.88     78.29137     157.0854     314.3904      1.671     4.24     843.5493     55.49371     4615.044        65     1.733     1.094 -33.27   0
       527    698.8975    182.6595 307.6468025  +6.6201363     881.9613     1399.175     1099.414     78.66808     157.4614      314.954      1.521     5.02     843.6035     55.49371     142.9147        12     1.303     0.805 -27.73   0
       528    582.0685    183.6864 307.6953192  +6.6158020      557.202      731.773     1103.641     78.91822     157.7115     314.8602      1.477     3.39     842.3469     55.49371     97.02026         5     0.793     0.418 -17.34   0
       529    799.3344    181.4200 307.6051044  +6.6240059     1247.493     1879.889      1755.69     78.54272     157.4614     314.7036      1.747     4.51      843.223     55.49371     188.6624        14     1.439     0.678 -33.53   0
       530     38.4538    181.4678 307.9212961  +6.5984615     675.5342     1062.566     1315.068     78.91822     157.3988      314.735      1.741     5.08     853.9778     55.49371     132.3781        10     1.400     0.710 -26.96   0
       531     67.7489    178.1539 307.9092346  +6.6008161     8488.678     13974.88     14720.18     79.04299     157.3362     314.8914      1.735     4.33     853.1096     55.49371     1158.697        37     1.663     1.001 -31.32   0
       532    101.5144    176.1051 307.8952728  +6.6027986     1336.821     2241.396     1799.561     78.91822     157.8364     314.8915      1.693     5.03     852.0964     55.49371     199.6076        17     1.605     0.696 -34.67   0
       533   1009.3494    175.4477 307.5180247  +6.6334817     1004.815     1774.031     1580.008     78.91822     157.3362     314.7976      1.754     4.70     842.5097     55.49371     172.6047        13     1.427     0.637 -31.47   0
       534    735.6865    168.5666 307.6319862  +6.6271853     465.9442     725.4214    -111.4034     78.91822     157.3362     314.8289      1.748     4.98     843.3392     55.49371     70.85284         7     1.388     0.505 -45.02   0
       535   1012.5576    166.7653 307.5169816  +6.6371736     456.1966     734.0955     1037.901     78.66808     157.4614     314.6723      1.123     3.68     842.2504     55.49371      87.1225         5     0.961     0.406  -7.95   0
       536    584.5673    165.3895 307.6948950  +6.6234401     761.2914     1249.829     1301.445     78.41714     157.2108     314.6723      1.748     5.65     841.8994     55.49371     128.5233        10     1.233     0.729 -13.95   0
       537      1.3828    163.2062 307.9373170  +6.6047524     639.9354     1017.999     833.1937     68.63296     125.5679     237.4612      1.329     3.54     855.1454     55.49371     142.8815         6     1.033     0.555 -62.94  24
       538   1010.2917    161.6415 307.5180946  +6.6392136     2023.433     3242.273     2975.852     78.91822     157.4614     314.9228      1.705     4.14     842.1075     55.49371     252.7166        22     1.501     0.879 -35.85   0
       539    593.5208    159.3502 307.6913769  +6.6262335     983.1234     1529.692     1610.944     78.91822      157.524     314.8289      1.740     5.08     841.8619     55.49371      149.859        14     1.423     0.932 -27.95   0
       540    286.4016    155.5607 307.8191345  +6.6174974     28346.02      46747.9     50505.55     78.03923     157.2108     314.5157      1.786     4.41     847.3821     55.49371     4051.476        76     1.969     1.161 -31.84   0
       541    601.6129    157.2487 307.6880845  +6.6273721     1809.345     2776.922     2898.696     78.29138     157.3988      314.547      1.638     4.42     841.9038     55.49371     247.1711        16     1.464     0.681 -40.25   0
       542    345.8558    157.7068 307.7943552  +6.6186080      955.886      1426.85     1324.489     78.79325     157.4614     315.0166      1.659     5.60     845.9763     55.49371     117.0717        12     1.376     0.643 -34.50   0
       543     31.6775    154.0886 307.9250361  +6.6095371     4011.365     6828.458     7331.554     78.91822     157.7115     314.9228      1.825     4.33     854.1218     55.49371     609.2589        33     1.727     1.023 -36.57   0
       544    718.1290    152.1723 307.6398324  +6.6333672     7617.367     12292.57      13020.7     78.66808     157.3988     314.7663      1.687     4.30     842.6707     55.49371     1182.031        34     1.617     0.939 -32.78   0
       545    195.3632    153.3661 307.8570405  +6.6153438     890.1015     1576.259     1373.223     78.66808     157.2108     314.6097      1.939     5.53     849.5191     55.49371     124.0643        12     1.250     0.691 -40.52   0
       546    272.2944    150.8600 307.8251553  +6.6189642     720.6592     1512.386     2114.965     78.79325     157.4614     314.8914      2.117     5.11     847.8068     55.49371      108.197        10     1.410     0.524 -45.89   0
       547    128.8617    149.2168 307.8848155  +6.6148201     4496.025     7411.817     7530.873     78.41714     157.3988      314.641      1.702     4.28     850.5328     55.49371     624.5857        29     1.631     0.883 -31.48   0
       548    656.5406    146.3735 307.6656223  +6.6337010     786.1224     1094.933     953.3118     78.54272      157.524     314.6723      1.549     4.64     842.0662     55.49371     113.2492         7     1.112     0.550 -46.58   0
       549    467.8167    146.6869 307.7440422  +6.6272498     1150.235     1812.258     1957.063     78.54272     157.2108      314.735      1.664     5.24     841.0479     55.49371     145.5655        13     1.279     0.704 -36.77   0
       550    399.6296    145.2436 307.7724277  +6.6255585      3376.08     6536.261     6818.475     78.54272     157.4614     314.7036      2.044     4.95     843.2526     55.49371     441.6602        40     1.778     1.236 -43.15   0
       551    363.9893    144.0433 307.7872792  +6.6248580     2990.892     5077.422     5654.563     78.41714     157.2735      314.547      1.794     4.74     845.2807     55.49371     426.8289        28     1.801     0.857 -31.60   0
       552    118.1134    144.1406 307.8894532  +6.6165542     1505.838     2655.121      2692.51     78.91822     157.5865      314.954      1.982     5.19     850.5987     55.49371     196.5018        20     1.624     0.791 -39.35   0
       553    575.8547    144.4694 307.6992182  +6.6317859     570.1473     930.2666      946.002     78.91822     157.3362     314.7663      1.665     4.33     841.0078     55.49371     120.1934         7     1.137     0.470 -48.36   0
       554    679.7628    141.7375 307.6561270  +6.6363922     784.1594     1296.935     1250.571     78.91822      157.524     314.8289      1.608     4.91     842.0376     55.49371     107.5359         9     1.269     0.538 -38.00   0
       555   1010.9471    138.3121 307.5186020  +6.6488679     1382.011     2161.578     2192.007     78.91822     157.3362      314.954      1.678     5.09     841.0225     55.49371     250.5814        17     1.579     0.721 -37.05   0
       556    215.8571    133.0797 307.8492076  +6.6244085     4997.055     8217.998     8616.132     78.91822     157.4614     314.8289      1.737     4.66     849.0312     55.49371     665.9299        30     1.646     0.924 -34.22   0
       557    677.7625    131.8246 307.6572907  +6.6404181     5755.769     9244.973     9883.001     78.54272     157.2735     314.5784      1.707     4.30     841.4497     55.49371     858.9916        31     1.678     0.883 -33.44   0
       558     98.4297    133.0386 307.8980074  +6.6204754     2060.033     3388.484     3665.878     78.41714     157.2108     314.7036      1.817     4.68      850.506     55.49371     261.2691        22     1.632     0.807 -34.18   0
       559    825.5906    131.4842 307.5958652  +6.6455009     1030.611       1639.3     1419.907     78.54272     157.1481     314.6723      1.739     4.29     841.1915     55.49371     150.0963        12     1.270     0.677 -41.09   0
       560    629.8237    129.1440 307.6773037  +6.6399205     8753.572     14436.69     15536.13     78.54272     157.4614      314.641      1.723     4.37     840.8968     55.49371     1242.452        36     1.655     0.975 -33.80   3
       561    633.3857    120.6824 307.6761073  +6.6435334     50863.88     80688.95     85519.16     78.54272     157.2108      314.641      1.708     4.25     840.5142     55.49371     7550.509        75     1.780     1.091 -32.35   2
       562    568.2215    128.4621 307.7029279  +6.6381393     626.0731     1027.067     1589.118     78.54272     157.4614      314.735      1.890     4.61     840.3444     55.49371     97.24884         6     1.143     0.528 -46.02   0
       563    264.9562    129.4863 307.8289246  +6.6275423     693.0651     1196.508     1016.868     78.91822     157.3362     314.8289      1.756     3.93     847.9006     55.49371     161.4435         7     1.351     0.451  -9.72   0
       564     28.8928    127.8801 307.9270780  +6.6202639     970.1093      1665.11     1333.068     78.66808      157.649     314.8914      1.909     6.20     854.1859     55.49371     147.6049        15     1.619     0.668 -46.30   0
       565    357.1335    124.8275 307.7907749  +6.6325616     3493.055     6208.427     6680.547     78.54272     157.3988     314.7663      1.895     5.29     845.7562     55.49371     486.6849        32     1.881     0.949 -40.29   0
       566    538.9507    123.9938 307.7152426  +6.6390036     1522.662      2445.77     2252.403     78.41714     157.2735      314.453      1.689     4.73       840.04     55.49371     246.1298        18     1.419     0.850 -42.45   0
       567   1003.2175    123.8769 307.5222971  +6.6545703     739.9542     1235.427     1024.809     78.41714     157.2108     314.7663      1.718     4.56     840.4198     55.49371     99.13684         8     1.150     0.513 -34.79   0
       568    312.4845    114.4012 307.8096810  +6.6353671     3338.652     5506.134     6076.812     78.16541     157.0227      314.547      1.785     4.21     846.8488     55.49371     461.5101        28     1.663     0.935 -28.60   0
       569    718.7843   1021.6191 307.6104303  +6.2744037     889.0196     1574.231      2208.84     78.66808     150.3542     267.8087      1.891     4.10     870.4402     55.49371     108.0757         9     0.926     0.743  16.21  19
       570    712.6920    108.6141 307.6435525  +6.6511698     890.8964     1410.864     1563.801     78.66808     157.2108     314.6097      1.878     5.12     840.4006     55.49371     136.1677        10     1.360     0.545 -31.89   0
       571    683.8993    107.6083 307.6555526  +6.6506219     1192.345      1912.54     1705.604     78.66808     157.0854     314.6723      1.651     5.25     840.1037     55.49371     180.2544        14     1.436     0.677 -40.60   0
       572    697.7435    104.6983 307.6498965  +6.6522865     2976.269     4688.112      4952.87     78.66808     157.4614     315.0166      1.673     4.52     840.0566     55.49371     422.5925        24     1.642     0.818 -32.89   0
       573    439.4717     95.6660 307.7575372  +6.6473645     3865.994     6309.637     6213.087     78.91822      157.524     314.8914      1.715     4.25     840.1584     55.49371     632.2719        25     1.611     0.839 -32.24   0
       574    912.0836     91.0584 307.5612714  +6.6650803     3703.183     6117.547     6497.169     78.91822     157.4614     314.8914      1.710     4.49     839.5479     55.49371      489.337        29     1.537     1.090 -37.86   0
       575    894.1635     91.8179 307.5686939  +6.6641685      2032.01     3120.818     2933.973     78.41714     157.2735     314.6097      1.605     4.15      839.661     55.49371     364.4026        16     1.509     0.722 -35.58   0
       576    592.2937     91.2801 307.6941720  +6.6542972     719.1099     1247.005     1151.129     78.66808     157.7115     314.8914      1.772     5.81     838.9941     55.49371     116.2811         9     1.560     0.609 -36.61   0
       577    604.2523     89.5003 307.6892618  +6.6554325     1690.236     2537.187     2034.853     78.91822     157.4614     315.0479      1.649     5.14     838.9414     55.49371     232.8246        17     1.496     0.756 -30.73   0
       578    402.8039     87.4736 307.7730516  +6.6495168     1743.163     2781.857      2555.34     78.41714     157.0227     314.7036      1.647     4.51     841.8702     55.49371     258.3806        16     1.456     0.706 -39.65   0
       579    250.5982     88.5726 307.8362696  +6.6439519     792.9331     1390.505     1008.168     78.41715     157.2108     314.6097      2.227     6.31     847.7513     55.49371     132.0565        13     1.926     0.580 -26.82   0
       580    150.7793     84.2939 307.8778967  +6.6423620     2910.968      4637.98     4763.911     78.79325     157.2735     314.6723      1.694     4.56     847.8027     55.49371     427.0395        23     1.593     0.822 -30.47   0
       581    299.1000     82.7808 307.8163080  +6.6479727     1419.131     2496.518     3455.254     78.91822     157.3362     314.6097      2.053     4.70     846.9301     55.49371     214.1318        16     1.475     0.750 -29.26   0
       582     32.7090     82.1008 307.9270376  +6.6392930      11515.9     19318.95     21141.97     78.91822     157.8989     314.7976      1.778     4.29     852.5502     55.49371     1536.049        45     1.720     1.069 -35.02   0
       583    767.6085     81.4480 307.6216394  +6.6642224     646.5237     1088.067     1307.175     78.41715     157.3362     314.4844      1.552     4.93     839.2665     55.49371     126.7234         9     1.500     0.459 -37.30   0
       584    572.1187     82.1399 307.7028638  +6.6573953     652.7527      951.658     798.3207     79.04299     157.4614     314.8289      1.379     4.02     838.6455     55.49371     133.5758         6     1.208     0.382 -29.71   0
       585    560.2213     81.7781 307.7078205  +6.6571461     549.2009     899.4271     844.1447     78.66808     157.2735     314.8289      1.736     3.87      838.667     55.49371     79.13953         5     1.347     0.318 -31.75   0
       586    161.8248     80.8099 307.8734238  +6.6441720       491.64     823.7087     791.7487     78.54272     157.2735     314.7036      2.043     3.52     847.5876     55.49371     84.02991         5     1.051     0.340 -43.62   0
       587    834.4419     76.9095 307.5940144  +6.6683296     5908.312     9216.045     9729.044     78.91822     157.4614     314.8602      1.680     4.08     839.2249     55.49371      942.927        31     1.626     0.921 -37.39   0
       588    779.6020     77.1850 307.6167976  +6.6663834     3023.806     4853.526     5068.538     78.54272     157.1481      314.641      1.698     4.43     839.1573     55.49371     463.7126        24     1.614     0.789 -34.21   0
       589    901.9396     77.8990 307.5659278  +6.6701750     498.0806     772.2859     706.3945     78.66808     157.3988      314.954      1.727     4.04     839.0848     55.49371     79.61438         6     0.978     0.477 -36.15   0
       590    424.8130     77.4724 307.7642411  +6.6543844     959.2382     1750.405      1701.86     78.41714     157.1481      314.641      2.046     5.66     840.4082     55.49371     136.3403        12     1.520     0.593 -35.56   0
       591    104.6641     77.2641 307.8972982  +6.6437126     534.2965     900.4789     983.5677     78.91822     157.4614     314.8602      1.828     5.79     848.1821     55.49371     84.24792         7     1.613     0.584 -35.81   0
       592    541.9409     75.2221 307.7156381  +6.6592405     1037.569     1678.437     1883.504     78.54272     157.3988     314.7036      1.738     5.30     838.4457     55.49371     160.4091        13     1.513     0.668 -24.93   0
       593     57.1821     75.1588 307.9171016  +6.6429833     882.2402     1711.487     1721.808     78.41714     157.2735     314.6097      2.030     5.67     850.5764     55.49371     149.2365        10     1.235     0.732 -32.90   0
       594     72.9430     73.9687 307.9105919  +6.6440053     2976.079     4777.445     4966.379     78.79325     157.4614      314.735      1.684     4.79     849.6089     55.49371     403.0795        24     1.573     0.865 -31.90   0
       595    434.4082     73.6552 307.7603817  +6.6562824     930.6755     1458.737     1923.131     78.29138     157.3362      314.547      1.634     5.19     840.1182     55.49371      123.779        10     1.182     0.645 -35.99   0
       596    596.7399     70.5153 307.6930213  +6.6630194     1163.737     1763.179     1854.493     79.04299      157.524     314.9228      1.722     4.94     838.1241     55.49371      147.074        13     1.287     0.703 -30.52   0
       597     15.3252     69.5013 307.9346873  +6.6439092     2383.998     3890.405     4815.694     78.41714     157.5865     314.7663      1.762     4.49     852.4963     55.49371     345.2168        26     1.727     0.915 -26.44   0
       598    414.9614     64.7476 307.7687634  +6.6593077     876.8172     1496.713     1461.164     78.66808      157.524     314.8289      1.970     6.45     840.8236     55.49371     133.2621        12     1.601     0.755 -45.50   0
       599     88.0842     65.2154 307.9045950  +6.6481290     838.7477      1379.15     1050.742     78.54272     157.2108      314.735      1.595     4.56     848.5364     55.49371      130.616        10     1.238     0.677 -24.44   0
       600    774.3390     64.5320 307.6194091  +6.6714318     2008.775     3112.098     2948.354     79.04299     157.3988     314.8289      1.667     4.28     838.5818     55.49371     307.2754        19     1.430     0.811 -30.98   0
       601    111.9182     63.3150 307.8947541  +6.6497158      915.438     1536.838     1216.832     78.66808      157.774     314.8914      1.588     5.21     847.8106     55.49371     125.9689        10     1.206     0.643 -33.04   0
       602    100.7757     58.2994 307.8995539  +6.6514116     8831.326     14568.61      15755.8     79.04299     157.2108      314.641      1.786     4.61     847.9291     55.49371     1149.126        38     1.684     1.017 -35.89   0
       603    429.9166     58.0934 307.7627717  +6.6625568      2382.04     4050.195     4001.614     78.66808     157.8364      314.954      1.746     4.64     840.1585     55.49371     337.0378        22     1.581     0.819 -32.21   0
       604    643.5169     50.4319 307.6742542  +6.6728775     17698.96     27721.79      29537.7     78.91822     157.2735     314.7036      1.725     4.39     837.3598     55.49371     2492.016        50     1.764     1.008 -36.26   0
       605    267.4142     52.1011 307.8305096  +6.6595749     1486.209     2654.724     3888.906     78.79325     157.2108     314.5784      2.229     5.11     846.6154     55.49371     205.6058        19     1.585     0.840 -39.65   0
       606    953.4094     50.5431 307.5454510  +6.6831876     520.0135      768.188     923.8266     78.29138     157.3988      314.547      1.774     4.21     836.8622     55.49371     98.91486         5     1.024     0.494  -4.32   0
       607    543.3342     46.4412 307.7160258  +6.6711702     5022.102     8023.937     8754.174     78.91822     157.3988     314.9228      1.698     4.46     837.3759     55.49371     717.6339        28     1.601     0.887 -37.07   0
       608    269.4431     42.4263 307.8299922  +6.6636375     8716.065     14474.59     16063.12     78.54272     157.4614      314.735      1.829     4.44     846.3861     55.49371       1124.1        41     1.753     1.017 -31.85   2
       609     10.6698     44.8211 307.9374553  +6.6539419     920.6562     1516.723     1492.421     78.54272     157.3362     314.7976      1.608     6.17     850.0331     55.49371      139.477        15     1.664     0.694 -31.40  16
       610    700.2690     44.9031 307.6508523  +6.6770593      620.366      903.269     1448.678     78.79325     157.5865     314.8289      1.567     5.13     837.2256     55.49371      93.2113         7     1.023     0.728 -20.61   0
       611    630.5096     44.7166 307.6798521  +6.6748019     900.3213     1493.492     1982.784     78.66808     157.7115     314.9228      1.913     6.59     837.0671     55.49371     111.0721        13     1.396     0.872 -36.02   3
       612    629.7183     40.1117 307.6803355  +6.6766767     3227.374     5294.737      6452.12     78.66808      157.649     314.9228      1.840     4.26     836.8465     55.49371      474.559        24     1.531     1.021 -31.41   2
       613    448.9156     42.0712 307.7554143  +6.6698092     21121.42     34640.68     36794.26     79.04299     157.7115     314.8602      1.748     4.47     839.2363     55.49371     2861.347        53     1.773     1.046 -33.60   0
       614    926.6332     42.2114 307.5568589  +6.6857341     1840.333     2819.162     2372.267     78.41714     157.2108     314.6723      1.590     4.34     837.6732     55.49371     285.6033        17     1.444     0.743 -41.78   0
       615     34.7616     41.9458 307.9275403  +6.6559405     2087.771     3364.678     3167.995     78.91822      157.524     314.8289      1.738     4.50     849.1708     55.49371     289.7618        23     1.582     0.888 -41.42   0
       616    514.1871     43.6694 307.7282329  +6.6713378     473.5332     445.7102     561.3743     78.41714     157.2735     314.7036      1.082     3.43      837.571     55.49371     83.58649         5     0.771     0.440 -15.17   0
       617    329.3906     42.8238 307.8050646  +6.6654871     884.9509     1668.418     1778.681     78.54272     157.2735     314.7036      1.983     6.06     846.3831     55.49371     131.7307        11     1.438     0.719 -25.03   0
       618    261.5551     46.6797 307.8331272  +6.6616164     1956.911     3156.195     4609.208     78.91822     157.4614     314.8289      1.972     4.51     846.4862     55.49371     271.1124        21     1.480     0.900 -32.50   3
       619    257.3512     39.0189 307.8351324  +6.6646380     2874.748      4814.34     6129.807     78.41714      157.524     314.6097      1.877     4.42     846.2513     55.49371     412.0166        29     1.652     1.004 -30.45   0
       620    310.6063     37.3977 307.8130541  +6.6670965     882.2798     1633.059     2152.361     78.29138     157.1481      314.641      2.125     5.63     846.3765     55.49371     107.1343        12     1.273     0.800 -24.15   0
       621    947.3052     32.4620 307.5485931  +6.6904493     1012.986     1253.278     1696.101     78.66808      157.524     314.8602      1.357     3.93     836.1437     55.49371      158.715         9     1.172     0.514 -29.37   0
       622    102.2081     33.1842 307.8998060  +6.6618289      484.499     536.8312     446.9182     78.54272     157.2108     314.6723      1.341     3.39     847.4977     55.49371     87.20795         5     0.961     0.345 -45.06   0
       623    698.6503     31.7305 307.6519668  +6.6824439     1775.851     2658.578     2625.978     78.79325     157.3988     314.8602      1.563     4.38     836.6307     55.49371     230.8388        15     1.361     0.692 -28.98   0
       624    187.0148     24.5079 307.8648533  +6.6682645     10081.52     16638.82     17230.22     78.66808     157.2735      314.641      1.754     4.47      845.514     55.49371     1343.474        43     1.713     1.050 -32.89   0
       625    264.6319     26.7115 307.8325212  +6.6699640     774.0508      1244.07      2069.02     79.04299     157.2735     314.8289      1.989     5.51     845.9997     55.49371     112.1242        10     1.378     0.622 -33.98   0
       626    210.5803     26.9192 307.8549782  +6.6680613     582.5522     1031.115     1058.971     78.54272     157.1481     314.7663      1.852     4.84     845.5798     55.49371      112.621         7     1.373     0.483 -15.26   0
       627    531.2396     22.5008 307.7218568  +6.6806493     2749.167     4319.562     4671.199     78.91822     157.3362     315.0479      1.714     4.81     836.6857     55.49371     353.3834        22     1.578     0.830 -36.59   0
       628    932.5837     22.1692 307.5550563  +6.6942078     3867.401     5915.883     6066.804     78.54272     157.2108     314.7663      1.626     4.15     836.6415     55.49371     564.8685        24     1.560     0.807 -37.48   0
       629    733.5369     20.8357 307.6378323  +6.6881090     1840.019     2859.626     2570.337     78.79325     157.4614     314.8289      1.610     4.58     835.7391     55.49371     292.2324        18     1.554     0.714 -32.08   0
       630    469.3185     21.1365 307.7476384  +6.6791368     1747.939     2826.919     2671.043     79.04299      157.524     314.8289      1.727     4.81     837.9119     55.49371     224.7263        20     1.462     0.907 -32.98   0
       631    724.4025   1019.0139 307.6081843  +6.2756672     2463.079      4698.88     5274.568     78.54272     157.1481     298.3725      2.140     6.36     870.3195     55.49371       296.94        30     2.069     1.027 -27.12  18
       632    564.1937   1022.2126 307.6746111  +6.2689876     429.2336     769.6036     849.4858     78.54272     144.2666     259.2833      1.491     5.58     872.4185     55.49371     70.46509         5     1.196     0.735   7.19  16
       633    249.6025   1020.7239 307.8053052  +6.2590551      1295.75     2367.865     2654.489     78.41714     156.3938      279.371      1.923     5.75     871.4063     55.49371     184.5005        19     1.555     0.876 -42.07  16
       634    447.8248   1019.6109 307.7230249  +6.2661642     735.5427     1169.945     1170.873     78.54272     157.2735     292.4008      1.835     4.03     873.3731     55.49371     108.1879         7     1.324     0.351 -44.69  16
       635    740.2597   1018.0225 307.6016320  +6.2766064     989.1223     1432.388     1771.755     78.54272     157.3988      306.968      1.535     4.71     870.0715     55.49371     127.6109         9     1.023     0.614 -37.97  16
       636    371.2721   1016.1096 307.7549337  +6.2650433     1800.044     2959.386      2830.95     78.91822     157.7115     314.8289      1.729     4.22     873.2624     55.49371     255.5754        23     1.540     0.960 -30.26  16
       637    758.1384   1006.0388 307.5946081  +6.2821518     6813.911     11893.16     12651.76     78.91822     157.4614     314.8602      1.866     4.75     870.0842     55.49371      749.975        42     1.754     1.114 -35.75   0
       638    553.5364   1006.5314 307.6795628  +6.2751054      3787.96     6415.171       7397.6     78.91822      157.524     314.8914      1.877     4.46     872.2462     55.49371     466.7764        30     1.735     0.948 -35.16   0
       639    523.8533   1007.8076 307.6918472  +6.2735846     936.5869     1703.113     1968.579     78.41714     157.2735      314.547      1.712     5.24     872.4475     55.49371     160.1981        10     1.327     0.584 -37.23   0
       640    303.8797   1005.1537 307.7832887  +6.2673058     13531.23     23250.41     25746.06     78.91822     157.4614     314.8289      1.882     4.63     872.3392     55.49371     1794.249        56     2.080     1.048 -33.53   0
       641    819.3372   1005.4556 307.5692113  +6.2844368     1093.687     1826.937     1530.448     79.04299     157.4614     314.8289      1.764     5.68     869.6782     55.49371     141.5955        12     1.248     0.728 -33.20   0
       642    428.0594   1005.6762 307.7317011  +6.2712551      985.584     1479.895     1213.815     79.04299      157.524     314.7976      1.577     5.46      873.013     55.49371     160.1303        13     1.447     0.637 -25.25   0
       643    275.0116   1003.0801 307.7953468  +6.2671930     892.9474     1541.665     1220.919     78.54272     157.1481     314.6723      1.862     5.05     871.7068     55.49371     136.3453        12     1.196     0.782 -38.97   0
       644    919.5093    999.4501 307.5278096  +6.2902597      7317.21     13305.83     14662.82     78.91822     157.2735     315.0166      1.993     4.62     868.0441     55.49371     787.8747        49     1.828     1.245 -35.07   0
       645    550.8385    998.7714 307.6809435  +6.2782191     7543.234      12887.4     13587.52     78.41714     157.1481     314.7036      1.802     4.24     872.1679     55.49371     989.2933        37     1.689     1.043 -36.13   0
       646    893.0904    995.5710 307.5389114  +6.2909799     10355.78     19253.85     21457.75     79.04299     157.2108      314.735      2.022     4.75      868.075     55.49371     1199.449        54     1.931     1.250 -33.65   0
