#   1 NUMBER                 Running object number                                     
#   2 X_IMAGE                Object position along x                                    [pixel]
#   3 Y_IMAGE                Object position along y                                    [pixel]
#   4 ALPHA_J2000            Right ascension of barycenter (J2000)                      [deg]
#   5 DELTA_J2000            Declination of barycenter (J2000)                          [deg]
#   6 FLUX_APER              Flux vector within fixed circular aperture(s)              [count]
#   9 FLUXERR_APER           RMS error vector for aperture flux(es)                     [count]
#  12 FLUX_RADIUS            Fraction-of-light radii                                    [pixel]
#  13 FWHM_IMAGE             FWHM assuming a gaussian core                              [pixel]
#  14 BACKGROUND             Background at centroid position                            [count]
#  15 THRESHOLD              Detection threshold above background                       [count]
#  16 FLUX_MAX               Peak flux above background                                 [count]
#  17 ISOAREA_IMAGE          Isophotal area above Analysis threshold                    [pixel**2]
#  18 A_IMAGE                Profile RMS along major axis                               [pixel]
#  19 B_IMAGE                Profile RMS along minor axis                               [pixel]
#  20 THETA_IMAGE            Position angle (CCW/x)                                     [deg]
#  21 FLAGS                  Extraction flags                                          
         1    118.6795     29.5602 307.8903551  +6.8176252      2609.34     6611.348     10290.27     95.54391      191.012     381.7204      3.138    11.10     1306.165     67.29111     279.9712        60     2.904     1.758 -38.43   2
         2    651.5049     19.9965 307.6680717  +6.8392746     893.1832     2449.519     4197.511     95.39214     190.5563     381.4546      3.538    12.24     1270.018     67.29111     113.6368        15     2.052     2.032  50.70   2
         3    647.6846     23.6539 307.6695434  +6.8376358     912.2996     2153.983     3661.381     95.69545     190.9361     381.9481      3.451     8.52     1270.279     67.29111     104.9946        11     1.668     1.216  34.68   2
         4    955.5519     19.2024 307.5410633  +6.8496545     893.4194     2158.325     3288.853     94.93535     190.5563     381.2646      3.103     7.42     1262.882     67.29111     120.9564        12     1.770     0.871  79.75   2
         5    465.4087     14.9214 307.7459961  +6.8352043     700.9171     1880.612     3363.998     95.24011      190.328     381.5685      2.065     6.10      1279.91     67.29111     115.2635         8     1.952     0.536 -68.89   0
         6    939.9759     13.2180 307.5477742  +6.8516148     903.2106     2562.154     3991.603     95.24011     190.7843     381.6824      3.221     7.00     1263.929     67.29111     140.5049        10     1.607     0.855 -59.89   0
         7    871.3491      8.7523 307.5765994  +6.8511950     1155.004     3105.956     4680.456     95.84675     190.7843     381.7584      3.372     8.97     1264.729     67.29111     175.8464        25     1.995     1.765 -25.92  19
         8    879.8652      5.0118 307.5731681  +6.8530230     3502.629     12461.14     16141.95     95.08785     190.7083     349.7067      3.018     8.52     1264.618     67.29111     386.0366        72     2.331     2.007 -50.31  24
         9    197.8254      6.5425 307.8580763  +6.8297770     1289.317     3594.258     5661.978     95.24012     190.9361     367.9588      3.218     9.80     1303.093     67.29111     162.0098        28     2.408     1.112 -39.97  18
        10    821.8538      5.2385 307.5973988  +6.8510124     2600.261     9608.562     12615.83     95.69545      191.012     352.7595      3.066     8.58     1263.943     67.29111     363.7133        69     2.217     2.145 -41.31  24
        11    184.6064      3.1617 307.8637145  +6.8307349      1023.07     2181.337     3178.988     94.62959     179.7567     320.9271      2.562     6.54     1303.763     67.29111     121.7816        14     1.579     0.759 -44.41  26
        12    216.8577      1.8479 307.8502852  +6.8323514     2041.397     3781.192     4120.595     90.56095     161.1394     297.6429      1.985     7.24     1302.037     67.29111     260.5577        20     1.766     0.831  -5.89  24
        13    976.0877    973.5713 307.5001662  +6.4557139     683.4982     1168.071     1284.577     95.84675     190.6323     381.6065      1.992     4.86     1328.297     67.29111     129.7921         7     1.168     0.764  72.76   0
        14    107.7963   1023.5612 307.8609433  +6.4062804     3786.811     6346.825     7054.799      84.4336     153.3056     288.9979      1.811     6.20     1333.299     67.29111     677.7848        21     1.902     0.633   2.19  24
        15    999.5078    971.9663 307.4904429  +6.4571498     1186.339      2636.75     3043.202     95.84675     190.7843     381.8343      2.547     7.84     1328.094     67.29111     163.1617        18     1.641     1.047 -22.36   0
        16    899.7670    967.8566 307.5322225  +6.4555588     624.0362     1480.353     1879.987     95.54391      191.012     381.7584      2.128     5.59     1327.757     67.29111     108.7234         7     1.586     0.556 -54.31   0
        17    836.0537    956.3370 307.5592122  +6.4582182     1292.922     3271.356     3667.589     95.69545     190.8602     381.7204      2.402     9.44      1327.27     67.29111     201.1055        26     1.873     1.411 -18.14   0
        18    794.9966    955.6957 307.5763748  +6.4571271     658.4816     1284.778     1433.336     95.39214     190.5563     381.3786      1.645     4.20     1327.655     67.29111     148.4246         5     1.734     0.290 -29.66   2
        19    793.2145    953.4788 307.5771939  +6.4579848     1220.348     2136.943       2656.8     95.24012     190.6323     381.5685      2.130     5.37     1327.511     67.29111     158.1129        15     1.243     1.015 -26.39   2
        20    222.9498    949.4739 307.8154010  +6.4407421      3077.31     9266.277     12243.66     95.69545      191.012     381.7963      2.958     7.27     1332.646     67.29111     314.2811        63     2.194     1.867 -39.26   0
        21    775.2512    945.2498 307.5849724  +6.4607938      71876.4     191138.8       237272     95.69545     190.7843     381.6824      2.698     6.46     1327.244     67.29111     8131.358       170     2.624     1.899 -36.36   0
        22    157.2293    944.0534 307.8430214  +6.4407982     22498.47     69157.48     89910.88     95.39214      191.012     381.6824      2.928     7.00     1332.391     67.29111       2356.2       113     2.413     2.077 -42.41   0
        23     81.1480    940.4677 307.8749043  +6.4397494     2406.546     7581.608     8927.611     95.54391     190.8602     381.7204      2.857     7.87     1330.741     67.29111     334.4937        53     2.137     1.770 -55.61   0
        24    172.8885    943.6261 307.8364989  +6.4414956     4762.504     4853.204     4515.638     95.84675     190.7083     381.6065      0.701     1.03     1332.511     67.29111     2205.398         6     0.533     0.483   7.29   0
        25    946.1917    936.0435 307.5139176  +6.4702449     959.0786     1694.723      1889.93     95.08785     190.7083     381.4546      1.991     5.54     1325.037     67.29111     128.8899         8     1.137     0.761 -29.26   0
        26    811.5638    932.3236 307.5702503  +6.4673383     2327.313     5535.161     6869.962     95.54391      191.012     381.7963      2.615     7.26     1326.168     67.29111     275.1257        39     2.042     1.390 -31.05   0
        27    330.5881    931.0067 307.7710951  +6.4519533     6391.727     19936.84     26043.88     95.24011     190.7083     381.6445      2.917     7.11     1331.986     67.29111     697.0385        83     2.339     2.006 -39.58   0
        28    133.8616    929.6653 307.8532675  +6.4459698     971.7347     2355.868     3596.746     95.69545     190.8602     381.7963      2.758     8.44     1331.648     67.29111     121.4884        15     1.669     1.191  64.46   0
        29    765.6688    925.8438 307.5896310  +6.4685010     2577.243     6966.456     9052.419     95.69545     190.8602     381.7963      2.805     7.20       1326.4     67.29111     273.2042        51     2.131     1.627 -37.55   0
        30    496.7762    925.8504 307.7018907  +6.4595982     2303.993      7307.61     9498.905     95.24011     190.9361     381.6445      2.943     8.67     1330.993     67.29111     302.0513        58     2.330     1.798 -37.87   0
        31    144.0210    919.3133 307.8493796  +6.4505880     2700.671     8129.519     10136.84     95.69545     190.6323     381.6065      2.840     7.75     1331.598     67.29111      311.967        54     2.075     1.792 -35.22   0
        32    239.1628    915.6442 307.8097861  +6.4552683     30793.76     100166.4     133604.4     95.39214     190.9361     381.6065      3.007     7.28     1331.996     67.29111     3420.839       131     2.510     2.167 -42.15   0
        33     15.8036    917.9826 307.9029507  +6.4468703     2008.603     5846.629     7081.229     95.24011     190.4041     381.5685      2.736     8.03     1330.015     67.29111      234.308        51     2.119     1.833 -60.79   0
        34    781.9435    918.1435 307.5830975  +6.4722228     786.1722     1795.687     2046.551      95.9978     190.9361     381.8343      2.589     7.38     1325.859     67.29111     113.5151        10     1.623     0.939 -48.95   0
        35    541.0240    918.3396 307.6836733  +6.4641700     981.0298     2745.478     3771.946     95.24011     190.8602     381.6445      2.983     9.06     1330.524     67.29111      123.078        19     1.921     1.193  16.77   0
        36    465.8378    906.2175 307.7154748  +6.4666903     15505.76     48709.16     67520.96     95.24011     190.7843     381.4546      3.088     7.33      1330.66     67.29111     1667.899       121     2.588     2.157 -33.82   0
        37    761.9432    907.6899 307.5918021  +6.4758841      7055.76     19176.73        23562     95.54391     190.8602     381.9102      2.686     6.71     1325.636     67.29111     852.6036        74     2.302     1.752 -38.23   0
        38    224.7312    911.4650 307.8159534  +6.4565167     641.8921     1506.637     2378.698     95.69545      191.012     381.7963      2.630     3.49     1331.866     67.29111     107.0453         5     0.751     0.467 -17.29   0
        39    938.1153    908.6863 307.5182155  +6.4812901     851.1241     1408.557     1361.803     95.39214     191.1636     381.8343      1.884     5.20     1323.681     67.29111     97.06775         8     0.969     0.788 -87.86   0
        40    625.6403    900.8430 307.6489410  +6.4742065     1119.672     3403.812     5090.529     95.39214     190.9361     381.6065      4.330    11.21     1328.021     67.29111     186.1611        34     2.411     1.749 -40.44   0
        41    110.2989    894.1586 307.8643162  +6.4598665     9385.451     29422.04     38670.77     95.69545     190.7843      382.024      2.969     7.22     1329.691     67.29111     1103.161        90     2.357     2.073 -47.73   0
        42    295.3551    895.1073 307.7870272  +6.4656266     1469.316     4465.543     6080.529     95.69545     190.8602     381.9102      3.041    11.00     1331.172     67.29111     194.5861        40     2.331     1.650 -24.90   0
        43   1012.9695    894.3391 307.4874485  +6.4896913     772.9286     1946.285     2678.274     95.39214     190.9361     381.7204      2.869     4.70     1318.664     67.29111     111.0026         6     1.163     0.538 -50.90   0
        44    476.3127    893.8030 307.7115239  +6.4721706     923.6785     2426.874     3865.467     94.93535     190.4802     381.4546      3.317     5.93     1330.343     67.29111     127.2075         9     1.464     0.677 -40.48   2
        45     76.4710    891.2259 307.8785384  +6.4599532     1005.723     2963.673     3615.719     95.24012     190.7843     381.6824      2.927     6.83     1329.177     67.29111     131.4326        13     1.457     0.898 -23.23   2
        46    838.2078    892.0894 307.5604900  +6.4848546     769.3334     1590.318     1516.093     95.08785     190.5563     381.4546      2.201     6.00     1323.833     67.29111     120.4066         8     1.242     0.814  -4.01   0
        47    935.2480    888.0264 307.5201121  +6.4897381     2759.531     6476.241     7213.356     95.24011      191.012     381.6824      2.348     5.70     1322.667     67.29111     326.2676        42     1.902     1.439 -55.82   0
        48    407.2301    874.9594 307.7410067  +6.4776709     14383.49     47870.93     64815.91     95.08785     190.6323     381.5685      3.055     7.75     1330.447     67.29111     1557.489       114     2.550     2.133 -40.10   0
        49    615.0641    874.6763 307.6542453  +6.4846758     4560.728     14378.23     17889.48      95.9978     190.9361     381.7204      2.887     7.54     1327.177     67.29111     475.6536        73     2.361     1.902 -40.25   0
        50    172.4408    872.7922 307.8391026  +6.4707680     6833.267     22271.87     30283.53     94.93535     190.7083     381.3786      3.056     7.39     1330.495     67.29111     781.0325        88     2.386     2.111 -36.67   0
        51    947.9382    872.4725 307.5153402  +6.4965881      673.792      1473.34     1961.477     95.84675     190.9361     381.8343      2.274     5.08     1320.965     67.29111     140.6747         7     1.658     0.440 -54.11   0
        52    539.4033    870.5954 307.6859728  +6.4838573     716.2033     1594.266     2698.563     94.93535     190.4041     381.5685      2.478     7.24     1328.195     67.29111     126.2186        10     2.850     0.515 -56.15   2
        53    535.5906    869.8988 307.6875883  +6.4840191     884.4651     2025.617     2930.884     95.39214     190.4802     381.5305      2.804    10.51      1328.23     67.29111     129.4396        14     2.121     1.453 -81.66   2
        54    910.7607    867.9337 307.5310163  +6.4972380      2357.76     5674.607     6726.925     95.54391     190.8602     381.8722      2.467     7.28     1322.013     67.29111     291.3506        43     2.123     1.460 -36.51   0
        55    583.7836    867.0311 307.6675649  +6.4868011     2271.845     7157.284     9608.405     95.24011     190.6323     381.6445      3.020     8.41     1327.281     67.29111       283.62        56     2.240     1.802 -47.04   0
        56    933.0392    860.6805 307.5219601  +6.5009723     1741.275     4335.482     5329.735     95.69545      191.012     381.6824      2.529     7.31     1321.235     67.29111     252.2538        30     1.700     1.473 -28.47   0
        57    496.0883    858.2012 307.7044785  +6.4875466     2503.107     8146.673     10909.34     94.78259     190.4041     381.4546      3.033     8.56     1328.746     67.29111     284.7494        62     2.360     1.815 -34.18   0
        58    343.5266    859.0416 307.7681448  +6.4821382     918.6247      2359.09     3190.249     95.54391      191.012     381.7963      2.941     8.80     1329.976     67.29111     124.4491        14     2.012     1.075 -44.74   2
        59    852.2228    853.8179 307.5559354  +6.5011420     1402.918     3814.571     5515.177     95.39214     190.8602     381.6824      3.086     9.38     1321.498     67.29111     173.0679        28     1.842     1.334 -48.01   0
        60    859.5942    847.5747 307.5530691  +6.5039669     1023.206     2255.763     3332.573     95.08785     190.7083     381.5685      2.881     4.47     1320.889     67.29111     135.0558        10     1.115     0.796 -19.24   2
        61    682.3607    844.2321 307.6271818  +6.4994910     1078.469     2887.434     3413.643     95.24012     190.7083     381.5305      2.860     7.85     1324.681     67.29111     132.8462        14     1.751     0.985 -51.06   2
        62    356.7847    844.2000 307.7631150  +6.4887149     1009.455     2285.086     3558.367     95.08785     190.5563     381.4546      3.028     5.57     1329.473     67.29111     129.9126        10     1.244     0.703 -66.65   2
        63    355.7498    840.7532 307.7636645  +6.4901057     1042.529     2529.659     3987.104     95.69545     190.7843     381.8343      3.016     7.12     1329.382     67.29111     147.4299        13     2.019     0.703   6.20   2
        64     47.6358    843.7535 307.8921981  +6.4786211     751.6175     1616.659     2790.899     95.24012     190.9361     381.6445      2.886     4.70     1328.128     67.29111     111.3771         6     0.949     0.660  10.20   0
        65    745.2718    835.3365 307.6012168  +6.5052497     6520.373     18852.59     25700.25     95.69545     190.9361     381.7963      2.959     7.32     1322.548     67.29111     707.0035        89     2.634     1.855 -41.61   0
        66    265.9482    835.9765 307.8013197  +6.4890984     981.3459     2840.924     3217.964     95.08785     190.9361     381.6445      2.692     8.48     1329.532     67.29111     116.8374        16     1.683     1.195  19.55   0
        67    774.2168    831.9525 307.5892462  +6.5076058     530.5247     1230.816     1924.314     95.08785     190.8602     381.4926      1.927     3.99     1321.867     67.29111     108.8291         5     1.354     0.336 -25.74   0
        68     83.5910    827.5071 307.8777422  +6.4865355     1575.059     4710.081     6860.215     95.24012     190.4802     381.5305      3.142    10.48      1327.61     67.29111     216.0803        37     1.957     1.564  42.65   2
        69    930.3480    830.4412 307.5241076  +6.5133870      932.722     2126.407     1844.849     95.69545      191.012     381.7584      2.311     6.89     1319.167     67.29111     139.0101        11     1.464     0.912 -14.01   0
        70    582.4377    839.2375 307.6690712  +6.4982486     3351.112     11282.62     15588.55     95.39214     190.7843     381.6065      3.100     8.23     1326.018     67.29111     356.5518        74     2.501     1.933 -51.10   0
        71    984.2639    824.8303 307.5017856  +6.5174857     2151.325     5969.305     7191.776     95.39214      191.012     381.6824      2.740     6.94     1316.497     67.29111     258.2747        46     1.966     1.670 -30.90   0
        72    721.9202    825.6492 307.6112954  +6.5084831     851.9269     2301.174     2852.469     95.69545      191.012     381.7584      2.713     6.21     1322.736     67.29111     108.2863         8     1.271     0.854  69.57   0
        73    320.5874    823.0712 307.7789474  +6.4962493     1183.043     2727.949     4624.242     95.08785     190.6323     381.5305      3.538     8.75      1329.02     67.29111     144.5415        22     2.115     1.010 -75.76   2
        74    242.1097    823.4781 307.8116985  +6.4934739     599.7552     1262.069      2549.98     95.39214     191.2394     381.8343      2.570     4.28     1329.197     67.29111      97.8739         5     1.535     0.341  26.84   0
        75    683.6313    807.3708 307.6279026  +6.5147744     5253.511     16880.29     22191.33     95.08785     190.6323     381.4546      2.989     7.93     1323.076     67.29111     575.2271        82     2.424     1.960 -42.25   0
        76    798.4214    809.8577 307.5798892  +6.5175415     689.2851     1598.472     2380.273     95.24011     190.8602     381.5305      2.479     3.40     1320.223     67.29111      106.483         5     0.762     0.440 -68.92   0
        77    785.1033    808.3735 307.5855004  +6.5177151     968.6359     2098.188     2776.877     95.84675     190.6323     381.6824      2.357     5.64     1320.404     67.29111     110.3878        10     1.224     0.732 -49.35   0
        78    602.9840    803.0365 307.6617226  +6.5138973     791.7692     2311.192     3673.128     95.24011     190.7083     381.4926      3.274     7.66     1324.186     67.29111      104.989        11     1.854     0.885 -57.66   0
        79    578.1327    798.4450 307.6722549  +6.5149728     5481.591     13997.19     23485.68     95.69545     190.8602     381.7963      3.498     8.19     1324.106     67.29111     589.7388        80     2.761     2.058 -69.30   3
        80    574.8063    796.6742 307.6737039  +6.5155948     4667.531     9975.982     12860.95     95.24011     190.4041     381.5685      2.369     7.71     1324.068     67.29111     523.1785        35     2.322     0.993 -55.02   3
        81    908.7656    796.8484 307.5342567  +6.5265648     1508.231     4293.658     5547.005     95.39214     190.9361     381.6824      2.732    10.19     1316.811     67.29111     182.4608        35     2.059     1.480 -37.08   0
        82    348.1988    793.4741 307.7684275  +6.5094035     8209.188      30611.9     43689.96     94.93535     190.2519     381.6065      3.239     8.76     1327.663     67.29111     938.2296       106     2.621     2.217 -43.78   0
        83     96.2535    792.3641 307.8736559  +6.5014872     747.1938     1928.459     2878.383     95.54391     190.9361     381.7963      2.716     7.02     1326.374     67.29111      118.347        10     2.827     0.489  -3.25   2
        84    877.4958    787.5002 307.5476300  +6.5293979     2203.639     5969.395     7021.854     95.69545     191.5423     381.5685      2.625     8.23     1316.308     67.29111     273.3833        49     2.164     1.731 -23.09   0
        85    205.8491    784.0737 307.8281816  +6.5085609     4095.952     14834.76     21191.32     95.69545      191.012     381.7963      3.234     8.18     1326.926     67.29111     498.5665        87     2.533     2.145 -52.90   0
        86   1010.1685    774.1681 307.4926834  +6.5392880     4422.054     11311.43     12992.58     95.08785     190.6323     381.4166      2.504     6.49     1313.154     67.29111     476.4563        57     2.100     1.609 -44.32   0
        87    107.8969    773.0677 307.8694536  +6.5098531     1914.416      4485.29     6518.419     95.69545      191.012     381.7584      2.966    12.21     1325.344     67.29111     234.5479        40     2.677     1.797 -25.27   2
        88    104.6801    770.9977 307.8708674  +6.5106019     1258.421     2328.642     3242.116     94.93535      190.328     381.4546      1.813     5.35     1325.237     67.29111     173.1829        10     1.210     0.668  46.38   3
        89    129.1181    767.5306 307.8607826  +6.5128487     877.8837     2787.422     3923.519      95.9978     191.2394     381.7963      2.970     8.61     1325.077     67.29111     112.3613        16     1.886     1.098  14.41   2
        90    213.1385    769.9152 307.8256211  +6.5146573     520.7861     1323.661     3766.431     95.84675     191.0878     381.7963      4.206     4.89     1326.082     67.29111     88.38513         5     1.519     0.445  66.23   0
        91    352.9180    765.3160 307.7674164  +6.5212028     655.7683     1558.926     3483.675     95.39214     191.2394     381.8343      4.347     5.78     1325.708     67.29111      113.261         6     1.167     0.805 -35.24   0
        92    403.6508    755.6562 307.7465626  +6.5268807     2167.466     4878.065     6634.491     95.69545     190.9361     381.7204      2.609     9.86     1324.156     67.29111     225.1899        37     2.433     1.232 -68.66   3
        93    407.4960    756.8875 307.7449152  +6.5264991     2247.742     4904.818     5698.586     95.69545     191.3909     381.7963      2.466     9.45      1324.17     67.29111     254.9232        30     2.574     0.969 -62.50   3
        94      3.1226    757.9009 307.9137163  +6.5126350     1179.679     2733.953       3298.3     95.24011     179.8373     320.3849      2.337     9.51     1325.811     67.29111     145.2787        21     1.904     1.324 -87.97  24
        95    745.3878    753.9658 307.6039289  +6.5388989     4356.697     14051.16      20082.1     95.08785     190.7083     381.5685      3.224     7.99     1316.708     67.29111     524.1342        84     2.634     1.990 -29.29   0
        96    989.8231    748.7775 307.5020381  +6.5491158     1589.438      4405.24     5332.239     95.24011     190.7843     381.7204      2.624    10.04     1311.913     67.29111      241.722        33     2.062     1.364 -33.56   0
        97    811.0165    736.7730 307.5771081  +6.5481770     12042.44     37584.26     50019.03     95.24011     190.6323     381.6445      2.972     7.49     1314.489     67.29111     1259.344       104     2.566     1.988 -48.31   0
        98    451.7916    738.7366 307.7270378  +6.5354735      966.422     1957.097     4017.655     95.08785     190.6323     381.5305      3.618     7.62     1322.329     67.29111     152.5256        14     1.947     0.834 -66.22   2
        99    455.5170    738.4838 307.7254908  +6.5357016     833.1388     2426.893     4035.763     95.39214     191.2394     381.8722      3.621     6.31     1322.226     67.29111     126.4988        10     1.551     0.721 -48.16   3
       100    583.1888    728.1010 307.6725344  +6.5442259      759.716     2190.824      3376.99     95.39214     190.5563     381.4926      2.665     7.16     1319.355     67.29111     119.8842        11     2.168     0.662  18.28   0
       101    667.5756    722.8104 307.6374776  +6.5492072     23832.55     83227.14     116442.1     95.24012     190.7083     381.6065      3.132     8.20     1317.185     67.29111     2747.811       135     2.694     2.175 -41.72   0
       102     69.4374    718.7614 307.8873662  +6.5310265     2179.897     4709.687     7145.334     95.39214     190.7843     381.6065      2.716    11.35       1322.4     67.29111     217.4441        42     2.709     1.540 -50.29   3
       103     66.3605    717.6699 307.8886883  +6.5313753     1771.286     3678.578     5203.837     95.54391     190.9361     381.8343      2.651     6.99     1322.375     67.29111     193.7692        19     1.524     1.085 -40.07   3
       104     48.2906    722.4132 307.8960708  +6.5288124     663.3893     1138.675     1340.424     95.39214     190.6323     381.5305      2.068     5.63     1322.933     67.29111     107.2684         6     1.395     0.641 -24.26   0
       105    513.4229    715.9377 307.7020792  +6.5469436     2033.614     7529.155        10115     95.24011     190.9361     381.6445      3.159     9.61     1320.065     67.29111     259.9353        67     2.383     2.018 -43.00   0
       106    532.4777    718.6366 307.6940309  +6.5464592     918.3081     2146.765     3120.546     95.54391      191.012     381.7584      2.788     4.77      1319.95     67.29111     132.7086         6     0.977     0.661  14.21   0
       107    528.1243    718.9982 307.6958364  +6.5461654     896.9518      1720.76     3368.306     94.93535     190.2519     381.6065      3.469     5.01     1320.014     67.29111     121.0071         6     0.903     0.787 -10.66   0
       108    378.4515    711.2999 307.7585949  +6.5443845     7699.731     17434.06     23575.78     95.69545     190.9361      382.024      2.723     9.32     1322.121     67.29111     801.8871        60     2.863     1.362 -58.42   3
       109    374.9725    709.5120 307.7601085  +6.5450083     7285.017     16308.43     21368.07     95.84675     190.6323     381.6445      2.563     9.55     1322.107     67.29111     746.9928        48     2.524     1.257 -56.91   3
       110    244.3992    713.5749 307.8144905  +6.5389914     897.4055     2099.491     2817.575     95.24012     190.5563     381.4926      2.656     7.32      1322.59     67.29111     109.4319        15     1.588     0.944 -81.92   0
       111    240.4316    712.8520 307.8161718  +6.5391584     782.2343     1681.437     3131.079     95.54391     191.0878     381.6824      3.019     3.95     1322.453     67.29111     124.8391         5     0.908     0.491 -85.28   1
       112    467.5874    701.5264 307.7217085  +6.5513828     2524.336     5942.983     8382.475     95.08785     190.5563     381.5305      2.926    11.95     1320.048     67.29111     291.8823        49     2.992     1.451 -54.83   3
       113    463.9367    699.9734 307.7232857  +6.5519038     2299.481     5158.975     6860.934     95.24011     190.9361     381.6824      2.794     9.12     1320.042     67.29111     280.8929        29     2.410     0.963 -59.00   3
       114    734.5413    699.9709 307.6102901  +6.5608661     994.9308     3472.987     4900.977     95.24011      191.012     381.6445      3.345    10.04     1313.987     67.29111     130.2955        24     2.105     1.336  39.92   2
       115    357.1887    685.8409 307.7683406  +6.5542053     2065.251     5530.004     7624.906     94.93535     190.7083     381.4166      2.858     9.93      1321.04     67.29111     254.2842        47     2.519     1.670 -72.59   3
       116    353.3882    684.3011 307.7699799  +6.5547158     1793.226     4043.022     5410.941     95.39214     190.6323     381.4926      2.774     8.85     1320.948     67.29111     261.4904        25     2.635     0.830 -69.08   3
       117    723.0329    681.4152 307.6157255  +6.5681580     15922.46     56613.26     78294.14     95.24011     190.6323     381.6065      3.141     8.44     1313.385     67.29111     1810.579       120     2.634     2.140 -40.52   0
       118    392.0757    683.2031 307.7538630  +6.5564540     586.4624     1566.038     2509.606     95.08785      190.328     381.6445      2.216     4.91     1320.779     67.29111     122.4341         5     1.565     0.436  68.57   0
       119    394.3995    679.6044 307.7530152  +6.5580191     811.5758     2240.554     2915.576     94.93535     190.4041     381.4546      3.110     4.52     1320.648     67.29111     170.9696         8     1.390     0.595  13.17   2
       120    898.3712    676.7639 307.5426648  +6.5758749      920.262     2427.497     2600.202     95.24012     190.6323     381.5305      2.448     7.49     1309.228     67.29111     148.7461        13     1.598     0.984 -25.60   0
       121    801.2036    669.4825 307.5834876  +6.5756762     655.1833     1081.504     1505.095     95.08785     190.4802     381.3786      2.653     4.78     1309.841     67.29111      104.671         5     1.057     0.620  66.80   0
       122    723.0509    667.6380 307.6161856  +6.5738552     1187.656     2186.462     3624.954     95.39214     190.8602     381.6824      2.307     6.65     1312.588     67.29111     177.6417        15     2.396     0.517 -29.25   3
       123    720.6236    664.7304 307.6172979  +6.5749772     1881.154      4714.27     6348.623     95.24012     190.7843     381.7204      2.719    10.93     1312.337     67.29111     197.8624        43     2.415     1.572 -22.47   3
       124    160.6526    668.1229 307.8510096  +6.5549995     685.2114      1475.35     2444.097     95.84675     190.9361     381.7584      3.096     5.85     1318.132     67.29111     105.6235         6     1.348     0.713  81.14   0
       125    737.7834    667.2424 307.6100470  +6.5745060     608.4637     1450.554     2152.309     95.08785     190.7083     381.4926      2.239     3.90     1312.383     67.29111     99.81592         5     1.359     0.320 -29.26   0
       126    739.8147    662.4209 307.6093623  +6.5765668      760.086     1764.885     2431.562     95.39214     190.6323     381.6445      2.843     5.98     1311.819     67.29111     99.88147         8     1.182     0.851  -6.89   0
       127    975.6971    654.5680 307.5111256  +6.5876043     2482.836      7150.21       8935.1     95.84675     190.7843     381.8722      2.775     7.60     1305.836     67.29111     280.5502        50     2.130     1.611 -42.13   0
       128    456.7652    655.2491 307.7278023  +6.5701584      576.702     1335.051     1642.638     95.54391     190.9361     381.6824      2.279     5.49     1317.408     67.29111     85.82764         5     1.177     0.723 -78.97   0
       129    219.0746    650.5156 307.8272159  +6.5642226      2006.27     4983.289     9525.902     95.84675     191.3152     381.8343      4.235    14.19      1318.52     67.29111     214.7292        57     3.195     1.996 -34.24   2
       130    871.4941    633.1387 307.5553667  +6.5930259     632.6312     1393.076     2402.794     95.54391      191.012     381.7963      2.816     4.95     1306.333     67.29111     115.2375         6     1.474     0.471  64.58   0
       131    695.3003    631.0449 307.6290162  +6.5880678     1334.503     3063.564     4691.312     95.69545     190.8602      382.024      3.058     9.33     1310.178     67.29111     158.2777        26     2.232     1.088 -55.97   2
       132    692.1490    629.6039 307.6303811  +6.5885594     1513.112     3011.218     4514.699     94.93535     190.6323     381.2646      2.848     6.15     1310.203     67.29111     192.6398        20     1.615     0.980 -62.55   3
       133    195.9217    616.3063 307.8380511  +6.5775971     752.2257     1374.484     1938.763     95.39214     191.1636     381.8343      1.771     4.66     1317.275     67.29111      120.286         7     1.128     0.546 -75.73   0
       134    429.6264    605.4899 307.7408289  +6.5898324     6283.943     16044.77     23790.69     95.84675     190.6323     381.5685      3.144    11.42     1313.499     67.29111     644.9827        70     3.059     1.498 -60.57   3
       135    425.9629    603.7066 307.7424195  +6.5904482     5829.684      13726.6     18830.26     95.84675     190.7843     381.8722      2.813    10.83     1313.432     67.29111      576.103        43     2.671     1.223 -61.53   3
       136    754.9954    603.7514 307.6050138  +6.6013276     3795.852     9594.897     12546.73     94.93535     190.7083     381.3786      2.659     9.22     1306.355     67.29111     372.9309        45     2.311     1.356 -72.59   3
       137    751.2941    603.7574 307.6065593  +6.6012027     4170.888     9774.497     13267.38     95.69545     190.8602     381.9102      2.676     8.39     1306.356     67.29111     505.1152        43     2.413     1.316 -74.35   3
       138    553.8571    591.4808 307.6894272  +6.5997437     1083.548     2407.552     4097.215     95.84675     190.9361     381.7584      2.463     9.32     1311.479     67.29111     156.7719        19     3.035     0.799 -46.37   3
       139    550.4422    589.2826 307.6909280  +6.6005395     1405.046      3413.13     5071.918     95.69545     190.9361     381.6824      3.105    10.79     1311.497     67.29111     151.7087        31     2.481     1.309 -53.17   2
       140    858.2756    587.5740 307.5624313  +6.6114297     3649.807     12588.83     16203.89     95.24012     190.8602     381.7204      2.985     8.31     1303.562     67.29111     409.7954        68     2.351     1.879 -40.45   0
       141    944.9144    585.1334 307.5263319  +6.6152990     3760.955     11667.29     14976.25     95.84675     191.2394     381.7963      2.897     7.56     1301.922     67.29111     409.2522        65     2.285     1.835 -49.39   0
       142    656.9199    585.3518 307.6465958  +6.6056910     860.6757     2939.272     4235.917     95.69545      191.012     381.7204      3.119    11.05     1307.514     67.29111     123.2137        25     2.001     1.699 -16.89   0
       143    912.1780    587.0150 307.5399396  +6.6134406     859.7822     2346.415     3663.144     95.39214     190.7083     381.6824      2.619     5.44     1302.729     67.29111     105.1667         9     1.837     0.455  22.83   0
       144    708.5253    573.6003 307.6254437  +6.6122577     10045.48     39538.13     57410.25     94.78259     190.1757     381.4926      3.278     9.15     1305.061     67.29111     1267.487       114     2.725     2.207 -39.95   0
       145    475.6127    577.1768 307.7225889  +6.6030645     573.0793     1867.405     3334.203     95.39214     190.7083     381.6445      3.887     9.08     1310.801     67.29111     128.1881        10     2.123     1.083  68.83   0
       146    310.1350    572.9818 307.7918352  +6.5993067     1749.782     4636.716     7103.938     95.24011     190.9361     381.6065      3.109    10.62     1312.889     67.29111     187.3522        39     2.432     1.431 -74.45   3
       147    313.8446    574.6132 307.7902305  +6.5987554     1963.807     3709.522     5256.987     94.93535     190.7083     381.4546      2.391     8.10     1312.984     67.29111     253.2446        21     2.126     0.863 -56.07   3
       148    313.7809    571.5948 307.7903600  +6.6000013     1693.274     3722.405     4772.982     95.24012     190.4802     381.5305      2.433     5.58     1312.713     67.29111     191.5758        21     1.493     1.268  59.40   3
       149    940.2497    572.4441 307.5287098  +6.6203920     883.2712     2725.257     4384.296     95.69545     190.7843     381.7963      3.464     7.43     1301.046     67.29111     116.2252        13     1.814     0.853  81.94   2
       150    850.0203    574.8101 307.5663116  +6.6164347     776.4271     2118.303     2710.265     95.24011     190.5563     381.5685      2.610     5.14     1303.067     67.29111     130.6355        10     1.354     0.820  -8.18   0
       151    876.1581    570.5066 307.5555417  +6.6190774     2435.484     8234.595     10614.17     95.84675     190.8602     381.9102      2.958     8.86     1302.334     67.29111     261.4624        60     2.242     1.905 -48.39   0
       152    422.2142    570.2814 307.7451230  +6.6041443     1285.628     3377.527     5193.652     95.24011     190.6323     381.5305      3.108    10.56     1310.962     67.29111     177.3728        28     2.641     1.176 -55.56   3
       153    418.0349    568.6091 307.7469252  +6.6046971      1157.55     2771.371     4394.873     95.08785     190.7083     381.5305      2.962     9.59     1310.951     67.29111     153.4913        22     2.261     1.136 -56.73   3
       154     79.3335    562.2204 307.8885828  +6.5960799     1492.863      4086.49     7627.156     95.24012     190.9361     381.6445      3.818    13.44     1314.458     67.29111     181.3535        49     2.625     2.051 -48.11   2
       155    249.7690    558.6540 307.8175324  +6.6032249     9423.982     23131.14      33652.6     95.54391      191.012     381.6824      3.032    10.25     1312.379     67.29111     1041.489        81     3.147     1.648 -52.96   3
       156    245.9927    556.2852 307.8191902  +6.6040788     7822.359     17392.17     21043.81     95.24011     190.5563     381.5685      2.410     8.04     1312.157     67.29111     842.8932        44     2.069     1.267 -50.94   3
       157    225.2060    559.9587 307.8277453  +6.6018688     1893.862     4638.025     6653.293     94.78259     190.5563     381.4166      2.887    10.55     1312.706     67.29111     229.6313        39     2.866     1.202 -47.08   3
       158    222.3459    557.1456 307.8290357  +6.6029369      1614.23     3910.177     5974.383      95.9978     190.9361     381.7584      2.984    10.92      1312.47     67.29111     169.9028        33     3.053     1.088 -49.57   3
       159    129.5350    555.1038 307.8678625  +6.6006936     1216.357     3543.602     6222.125     95.69545     191.0878     381.7963      3.726    10.93     1313.088     67.29111     184.0958        30     2.347     1.419 -82.38   2
       160    374.1980    553.8391 307.7657348  +6.6093492     12972.92     32293.58     48820.09     94.62959     190.6323     381.4166      3.103    11.98     1310.245     67.29111      1378.74        90     3.283     1.752 -48.60   3
       161    370.2018    551.6020 307.7674799  +6.6101415     11388.49     25695.11      32137.4     94.93535     190.4041     381.3786      2.519    10.25     1310.118     67.29111     1238.065        47     2.388     1.226 -51.09   3
       162    276.3665    551.2789 307.8066769  +6.6071582     4090.463     16684.44     28642.81     95.54391     190.9361     381.7584      3.716    10.08     1311.383     67.29111     575.4512       122     3.021     2.530 -16.47   0
       163    713.2056    549.4567 307.6243088  +6.6223954     8654.552     20460.44     25847.67     95.08785     190.7843     381.4166      2.535     8.82      1302.85     67.29111     907.9352        51     2.501     1.202 -74.26   3
       164    709.4843    548.0083 307.6259121  +6.6228712      9260.32      21630.1     29528.24     95.24011     190.5563     381.5685      2.827    11.85     1302.862     67.29111      961.209        59     2.917     1.395 -79.32   3
       165     28.2695    547.4291 307.9104120  +6.6004946     2427.075     9173.189     14114.15     95.39214     190.9361     381.6824      3.430     9.04     1314.473     67.29111     391.4426        80     2.531     2.218 -55.93   0
       166    969.8817    528.1441 307.5178347  +6.6396872     784.4792     1934.824     2665.882     95.69545     190.9361     381.7963      2.642     4.65     1297.259     67.29111      96.8573         7     1.176     0.523 -51.24   0
       167    248.6060    525.3054 307.8191557  +6.6169749     8414.646     21431.86     32993.89     95.39214     190.5563     381.5305      3.191    11.22     1309.149     67.29111     936.6172        87     3.190     1.945 -42.23   3
       168    244.8179    522.3984 307.8208369  +6.6180509     6811.601        14964     17021.78     95.24011     190.4041     381.4166      2.260     6.79      1308.94     67.29111     712.3104        34     1.804     1.175 -44.90   3
       169    678.5646    519.9149 307.6397791  +6.6334643     1973.378     7296.251     10710.44     95.69545     190.8602     381.7204      3.283    12.03     1301.968     67.29111     256.9681        61     2.267     2.163  77.70   2
       170    675.6493    522.6750 307.6409029  +6.6322266     1619.313     2515.269      3169.07     95.54391      191.012     381.7963      1.715     3.24     1302.221     67.29111     201.6479         9     0.902     0.734 -35.24   3
       171     86.4523    520.1188 307.8870488  +6.6137244     1024.353     2601.293     4135.127     95.69545     190.9361     381.7963      4.085    10.65     1312.373     67.29111      133.574        23     2.177     1.453 -81.21   2
       172     91.6253    519.6300 307.8849052  +6.6140987     1352.428     3002.349     4328.353     95.08785     190.7083     381.5685      2.597     6.98     1312.249     67.29111     168.6465        18     1.860     0.735 -53.73   3
       173     89.9741    516.3212 307.8857078  +6.6154118     1079.262     2923.034     4138.106     95.39214     190.8602     381.7204      3.188     7.42     1312.158     67.29111     128.9799        13     1.679     0.917  32.86   3
       174    362.3251    514.7299 307.7720257  +6.6251256     997.5449     2152.974     4139.808     95.84675     191.0878     381.7584      2.927    10.26     1306.482     67.29111     143.3209        16     2.688     1.092 -33.82   2
       175    358.8055    512.4176 307.7735743  +6.6259648     948.8455     2617.366     4695.133     95.24012     190.4802     381.5685      3.403     9.64     1306.198     67.29111     122.2886        19     2.450     1.059 -37.62   2
       176    325.7768    514.7083 307.7872896  +6.6239208     818.6047     1670.583     2597.703     95.69545     190.7083     381.5685      2.038     5.34      1306.79     67.29111     114.5496         8     1.440     0.559 -53.61   0
       177    178.5795    501.8051 307.8492015  +6.6243628     1566.058     3731.984     5812.677     95.24012     190.5563     381.5305      3.486    10.07     1307.954     67.29111      186.756        29     2.888     0.979 -60.23   2
       178    174.7801    499.8119 307.8508562  +6.6250605     1361.455     3531.454      5426.92     95.24011     190.5563     381.6445      3.140    11.25     1307.816     67.29111     152.7964        30     2.702     1.304 -74.91   2
       179    637.9001    503.2737 307.6573274  +6.6389991     1342.628     3060.409     4766.167     95.08785     191.0878     381.6824      3.473    10.84     1301.775     67.29111     193.1866        28     2.495     1.311 -27.95   2
       180    640.3017    499.3171 307.6564589  +6.6407146     1202.877      2398.41     3948.617     95.69545     191.3909     381.8722      2.195     3.61     1301.506     67.29111     185.3704         9     1.049     0.606 -34.41   3
       181    636.3116    498.6927 307.6581465  +6.6408407     1522.817     3289.984     4320.284     95.69545     191.4666     381.8722      2.308     8.53     1301.553     67.29111     181.3802        23     1.996     1.018 -34.93   3
       182    595.6492    489.9248 307.6754268  +6.6431195     13176.37     33182.26     53556.71     95.54391      191.012     381.7963      3.825    13.70     1301.394     67.29111     1372.419       146     5.309     1.790 -51.46   3
       183    591.7744    487.4166 307.6771303  +6.6440283     12388.32      28456.4     35278.48     95.39214     190.7083     381.6824      2.483    10.09     1301.209     67.29111     1261.853        48     2.323     1.223 -51.40   3
       184    319.5191    494.1477 307.7906039  +6.6322141     1082.003     2963.167     5889.329     95.69545     190.9361     381.7963      3.930     9.61     1304.498     67.29111     144.4584        19     1.994     1.293 -63.20   2
       185    274.0903    484.4524 307.8099066  +6.6347134     1058.462     2586.489     3704.367     95.69545     190.7083     381.9102      2.775     9.50     1304.013     67.29111     130.7622        20     2.277     1.106 -60.36   2
       186    270.4873    481.3516 307.8115171  +6.6358757     979.7852     2177.342     3373.313     95.69545     190.7843     381.8343      2.818     7.44     1303.844     67.29111     125.3717        12     1.640     0.945 -77.97   3
       187    657.8786    471.0649 307.6500779  +6.6529782     763.6124     2328.554     4413.706      95.9978      191.012     381.7204      3.918     7.34     1299.236     67.29111     145.6991        10     1.849     0.817  -7.10   0
       188    401.3828    465.9206 307.7573770  +6.6466035     1025.219     3006.374     4890.844     95.24011     190.5563     381.6824      3.668    10.40     1301.203     67.29111     153.9224        23     2.474     1.218 -61.45   2
       189    398.1382    462.5238 307.7588478  +6.6479003      1037.12     2370.142     3772.095      95.9978     190.9361     381.7584      2.866     6.66     1300.986     67.29111     118.7797        13     1.579     0.788 -36.67   2
       190    870.3377    459.1414 307.5617475  +6.6649331     1328.212     3588.833     5956.291     95.84675     190.8602     381.7963      3.440    11.28     1293.525     67.29111     157.4058        27     2.114     1.678 -61.78   2
       191    852.9003    458.6740 307.5690463  +6.6645504      727.466     1664.617     2442.031     95.08785     191.0878     381.6445      2.957     5.46     1293.851     67.29111     102.3068         6     1.154     0.728 -66.09   0
       192    112.2291    453.2192 307.8785700  +6.6422432     814.9172      2543.98     4860.689     95.24011     190.7083     381.6824      3.750     9.49     1308.048     67.29111     116.3127        17     1.790     1.403  66.82   0
       193    738.5311    446.8251 307.6172160  +6.6656695     931.9649      3100.84     4717.556     95.24012     190.7843     381.6824      3.866    11.46      1294.13     67.29111     142.1914        21     2.153     1.699 -27.22   2
       194    791.9069    445.5686 307.5949656  +6.6679538     1612.744     4283.863      5732.24     95.84675     190.7083     381.7963      2.948    11.77     1293.948     67.29111     191.5269        38     2.770     1.392 -59.69   3
       195    796.3200    446.3285 307.5930966  +6.6677855      1636.37       3400.2     4755.194     95.99781     191.2394     381.7584      2.508     8.39     1293.941     67.29111     194.5884        24     2.118     0.928 -63.81   3
       196     32.9251    446.3357 307.9119244  +6.6424480     881.4109     1995.161     3122.765     95.84675     190.9361     381.7204      2.413     7.20     1311.471     67.29111     121.7982        12     1.707     0.851  -3.30   2
       197     35.5942    441.8261 307.9109639  +6.6444015     940.5083     1971.808     3005.128     95.08785     190.7083     381.5305      2.550     6.26     1311.233     67.29111     138.0684         9     1.196     0.920  83.26   2
       198     61.2099    427.4355 307.9007581  +6.6512048     2241.016     9444.908     14256.28     95.08785     190.6323     381.4926      3.396     9.15     1309.315     67.29111     373.4496        82     2.463     2.328 -55.06   0
       199    392.2107    427.7429 307.7625083  +6.6620845     618.8112     1691.372     2912.321     94.93535     190.9361     381.4166      2.774     3.97     1298.123     67.29111     99.57483         6     1.439     0.314 -64.46   0
       200    605.7850    419.7108 307.6735805  +6.6724873     4607.329     10386.58     15421.31     95.39214     190.7083     381.5685      2.861    12.01     1294.118     67.29111     475.7194        58     3.111     1.357 -48.99   3
       201    602.2371    417.4205 307.6751402  +6.6733168     4546.046     10838.32     13724.57     95.24012     190.6323     381.4546      2.546    10.43     1293.863     67.29111     459.8824        41     2.534     1.197 -48.11   3
       202    501.4283    412.9456 307.7173967  +6.6718263      1139.12     2809.332     5249.143     95.39214      191.012     381.6445      3.223     4.85     1295.114     67.29111     136.2505         9     0.953     0.699 -16.07   3
       203    505.0630    416.4631 307.7157588  +6.6704924     1339.251     3457.678     6248.011     95.69545     190.9361     381.7963      3.627     9.19     1295.376     67.29111     168.4669        26     2.389     0.986 -59.81   2
       204    230.7072    412.3972 307.8304833  +6.6630638     2397.855     7400.497     13120.51     95.08785     190.5563     381.4166      4.284    13.39     1300.082     67.29111     307.4366        80     3.602     2.019 -35.16   2
       205    227.2402    409.7136 307.8320229  +6.6640581     1913.494     3363.846     6364.776     95.69545     190.9361     381.7584      2.152     4.15     1300.167     67.29111     277.7666        15     1.208     0.940  75.42   3
       206    407.1507    408.8334 307.7569127  +6.6703990      4989.78     11067.02     13107.45     95.54391     190.9361     381.6824      2.447    10.25     1296.582     67.29111     534.8966        43     2.464     1.190 -57.29   3
       207    587.1766    409.4652 307.6817009  +6.6761072     801.6049       2411.9     5580.051     95.24012     190.9361     381.6445      4.158     8.89     1293.314     67.29111      113.311        12     2.018     1.094 -30.17   2
       208    411.0923    411.8028 307.7551653  +6.6693021     5609.017     13926.43     20651.62     95.08785     190.5563     381.4546      3.044    11.77     1296.811     67.29111     616.9143        68     3.224     1.599 -47.94   3
       209    220.4828    408.6902 307.8348800  +6.6642565     769.7444     2355.225     6227.556     95.39214     191.2394     381.8722      6.470    12.41     1300.467     67.29111     114.6321        14     2.920     1.468  38.36   3
       210    149.1938    394.1765 307.8651492  +6.6678858     2916.959     7702.034        11900     95.08785     190.6323     381.6065      3.183    12.21     1303.253     67.29111     343.5541        61     3.087     1.718 -37.07   2
       211    145.7126    391.0215 307.8667109  +6.6690744     2149.372     4388.927       5759.7     95.69545     190.7083     381.6065      2.224     8.81     1303.234     67.29111     233.0361        24     2.327     0.930 -46.92   3
       212    891.3445    390.2983 307.5553072  +6.6940924     1363.372     3943.115     4865.715     95.54391     190.9361      382.024      2.872     9.85     1288.661     67.29111     153.8679        26     1.873     1.445 -85.14   2
       213    955.5830    386.4437 307.5286060  +6.6978067     745.4088     2135.593     3177.696     95.08785     190.7843     381.4926      3.162     8.86     1285.879     67.29111      104.517        11     1.927     1.138 -71.27   2
       214    959.9321    386.3510 307.5267926  +6.6979885      638.319     1404.651     2577.804     95.54391     190.8602     381.7584      1.788     2.53     1285.653     67.29111     93.23413         3     0.901     0.212 -29.23   3
       215    677.0829    385.0906 307.6449778  +6.6891626     1783.918     5635.368     8640.087     95.39214     191.2394     381.8722      3.195    12.16     1290.469     67.29111     199.8467        48     2.843     1.447 -32.06   3
       216    675.5084    381.8427 307.6457458  +6.6904534     1857.212     4333.814     5338.318     95.69545     190.9361     381.8722      2.378     7.14     1290.224     67.29111     179.3223        22     1.678     1.069 -28.62   3
       217    596.5993    383.6487 307.6786432  +6.6870940     770.9639     3243.674     4858.402     94.93535     190.4802     381.2266      3.382     9.72     1290.662     67.29111     132.7412        14     2.351     1.121  27.63   0
       218    395.5314    377.7556 307.7628245  +6.6828632     1335.827     3351.944     6298.745     95.69545     190.8602     381.7963      4.090     9.54     1294.251     67.29111     174.4203        24     1.979     1.283 -63.49   3
       219    399.0750    380.5466 307.7612493  +6.6818268     1518.649     4011.091     6876.375     95.69545     190.9361     381.7204      3.466    12.11     1294.457     67.29111     192.4919        41     2.946     1.386 -51.78   2
       220      1.5272    378.7122 307.9273499  +6.6693613     1757.531     2855.201     3012.107      86.3007     155.6506     291.0961      1.677     6.17     1311.977     67.29111     327.4396        17     1.729     0.690 -81.55  24
       221    295.7082    375.2989 307.8046010  +6.6805636     3606.785     9240.921     14915.45     95.69545     191.5423     381.7204      3.288    10.85     1296.291     67.29111     434.3683        70     3.213     1.779 -36.07   3
       222    292.2941    372.0013 307.8061394  +6.6818135      2507.39     5477.788     7490.746     95.08785     190.4802     381.3406      2.494     7.49     1296.335     67.29111     292.5391        27     1.843     1.061 -27.68   3
       223    612.5305    362.5946 307.6727048  +6.6963271     1885.928     8242.849     15633.38     95.08785     190.4802     381.5685      4.095    15.60     1288.376     67.29111     277.0015       105     3.328     2.696 -28.90   3
       224    622.5340    368.5775 307.6683231  +6.6941846     2645.237     6519.575     8274.336     95.24012     190.9361     381.6445      2.756     9.51     1288.996     67.29111     289.3495        44     2.943     1.064 -56.83   3
       225    619.1711    366.0879 307.6698124  +6.6951026     2775.457     7834.235     11258.34     95.84675     190.6323     381.6065      3.193    10.47     1288.692     67.29111     299.6758        51     2.763     1.375 -61.37   3
       226    363.2180    372.5977 307.7764965  +6.6839230     619.0772     1234.214     2590.964     95.24012     190.4041     381.4546      2.289     4.49     1294.161     67.29111     91.06421         5     1.167     0.491 -57.36   0
       227    223.2670    365.4548 307.8351929  +6.6822256     1769.851     4260.824     6626.044     95.69545     190.8602     381.6824      3.042    11.73     1298.339     67.29111     202.6299        41     3.029     1.266 -47.12   3
       228    217.5629    366.2389 307.8375485  +6.6817117     1153.398     1950.033     2588.747     95.39214     190.7843     381.6065      1.549     5.27     1298.615     67.29111     166.5076         9     1.319     0.594 -20.79   3
       229    219.3473    362.8276 307.8369196  +6.6831815     1379.333     3311.504     4937.009     95.39214     191.0878     381.6445      2.750     8.22     1298.433     67.29111     144.0707        23     1.673     1.129 -20.99   3
       230    383.1383    364.1336 307.7684649  +6.6880841     1774.191     6387.417     11190.36     95.69545     190.8602     381.7584      3.710    12.09     1293.328     67.29111     213.2314        71     2.816     2.182 -38.78   2
       231    380.3205    361.0054 307.7697484  +6.6892840     803.5392     1958.383     2672.296     95.24011      190.328     381.4926      1.786     3.68     1293.141     67.29111     185.6094         5     1.051     0.370  70.39   3
       232    644.8296    362.5010 307.6592171  +6.6974353     4859.897     11265.21     18102.21     95.69545     190.6323     381.7963      3.332    12.12     1288.493     67.29111     463.7505        65     3.719     1.269 -50.10   3
       233    642.9901    359.8164 307.6600767  +6.6984845     4607.355      12991.8     20805.45     95.39214     190.6323     381.6065      3.317     9.81     1288.204     67.29111     464.1633        64     3.286     1.443 -54.15   3
       234    624.5280    358.2534 307.6678412  +6.6985194     708.6711     1711.558     2880.515     95.54391     190.8602     381.6824      2.983     7.14     1287.935     67.29111      111.251        10     1.878     0.759 -88.66   1
       235     29.9010    358.0451 307.9162066  +6.6788520     1030.979     2749.304      4010.87     95.69545     190.8602      382.024      3.084     8.30     1309.255     67.29111     136.8807        17     1.666     1.157 -46.21   0
       236    121.2552    355.2942 307.8781461  +6.6830322     1428.203     3301.538     5503.221     95.54391     190.9361      382.024      2.847     8.82     1302.769     67.29111     186.1569        25     2.400     0.905 -49.47   2
       237    118.8415    352.2599 307.8792579  +6.6842065     1089.311     3202.094     4972.137     95.69545     190.9361     381.8343      3.287     9.78     1302.788     67.29111     152.4519        22     2.682     0.994 -49.23   3
       238    764.4304    341.2113 307.6099836  +6.7101955     875.9141     2224.979     3313.143     95.08785     190.6323     381.6065      3.295     7.48     1286.003     67.29111     126.5613        11     1.669     0.939 -72.21   0
       239    759.6022    342.8125 307.6119460  +6.7093738     724.2168     1286.419     2647.496     95.24012     190.5563     381.5305      2.096     4.55     1286.237     67.29111     108.1844         5     1.359     0.432  60.26   0
       240    589.6699    336.7056 307.6831337  +6.7062744     3049.867     8253.889     12432.91     95.54391      191.012     381.7584      3.203    13.34     1286.091     67.29111     346.6189        60     2.905     1.823 -39.96   3
       241    585.5304    333.9680 307.6849559  +6.7072692     2776.289      5520.27     7255.839     95.54391     190.9361     381.7584      2.365     8.31     1285.839     67.29111     307.8939        27     2.164     0.891 -54.25   3
       242    727.5104    331.8176 307.6257241  +6.7128586     1182.822     4455.552     7797.056     95.39214     190.6323     381.6445      3.787    14.34     1285.538     67.29111     144.9258        43     3.144     1.818 -49.49   2
       243    215.9172    326.9509 307.8395770  +6.6979013     2942.104     7515.698     10997.05     95.69545     190.9361     381.8343      3.012    11.21     1297.478     67.29111     319.7585        64     3.069     1.642 -42.16   3
       244    212.1590    323.3334 307.8412702  +6.6992720     2061.778     4436.403      5346.62     95.69545     190.8602     381.8343      2.332     8.89      1297.61     67.29111     207.0239        29     2.193     1.005 -57.75   3
       245    463.1535    313.1829 307.7367794  +6.7118064     1786.786     3904.232     5334.839     95.08785     190.7843     381.4546      2.463     8.60     1285.982     67.29111      204.561        27     1.726     1.198 -78.39   3
       246    462.5128    318.5128 307.7368655  +6.7095813     1629.083     2961.118     4047.052     95.39214     191.3909     381.8722      2.101     5.86     1286.512     67.29111     204.0194        13     1.454     0.664  48.06   3
       247    467.3621    316.4193 307.7349113  +6.7106078      2044.76      5064.68     7343.382     95.24012     190.7083     381.4546      2.966    10.75     1285.954     67.29111     225.2732        37     2.389     1.348 -63.81   3
       248    173.8868    311.7431 307.8576514  +6.7027909     2680.094     6925.613     10354.67     95.69545     190.9361     381.9102      3.074    11.72     1299.717     67.29111     316.2738        59     2.957     1.487 -45.66   3
       249    170.3557    309.1282 307.8592155  +6.7037546     2059.623     4703.867     5935.849     95.54391     190.9361     381.7963      2.454     8.89      1299.95     67.29111     234.6724        27     2.235     0.986 -57.89   3
       250    316.9586    306.0000 307.7980886  +6.7099227     645.7056     1505.238     4209.562     94.78259     190.4802     381.3406      4.279     4.81     1292.786     67.29111     102.4431         5     1.176     0.558 -45.69   3
       251    314.1711    308.0435 307.7991832  +6.7089852     942.6368     2750.123     5976.958     95.24011      191.012     381.6445      3.692     5.57      1292.95     67.29111     115.9685         9     1.409     0.621  68.73   2
       252    814.1274    305.6151 307.5904328  +6.7265568     1015.408     3004.854     4891.202     95.08785     190.7843     381.6445      3.834    10.37     1281.703     67.29111     144.6093        23     2.083     1.440  51.88   2
       253    761.6877    301.0785 307.6124916  +6.7266990     1592.143     4918.316     8792.813     95.39214     191.2394     381.9102      4.171    14.05     1282.203     67.29111     183.3708        46     2.523     2.175 -62.01   2
       254    282.3473    300.1421 307.8127452  +6.7111946     707.0449     1936.059     3280.448     95.69545     190.9361     381.7584      3.040     4.86     1293.599     67.29111     125.3199         5     1.008     0.664  31.14   2
       255    374.2971    296.7025 307.7744558  +6.7156715     704.9895     2817.045     5013.711     95.69545     191.5423     381.5685      3.630    11.89       1290.5     67.29111     144.1553        19     2.755     1.430  66.66   2
       256    378.4757    294.3113 307.7727919  +6.7167989      901.442     1935.457     3520.144     95.69545     191.3152     381.8722      2.969     5.86     1290.177     67.29111     141.2035        11     1.402     0.812 -79.37   2
       257    862.6090    289.3337 307.5707334  +6.7348908     1283.586     4138.986     7527.014     95.08785     190.7083     381.6445      4.152    13.14     1279.834     67.29111     157.6223        48     2.833     1.697 -83.13   2
       258    497.7704    287.5535 307.7231925  +6.7235517     5271.354     15907.37     23985.29     95.08785     191.0878     381.6445      3.177    11.38     1281.923     67.29111     571.1006        77     3.079     1.888 -37.42   3
       259    495.1080    284.1295 307.7244212  +6.7248791     4765.564     10348.51      12628.2     95.54391     191.0878     381.7963      2.330     6.28     1281.515     67.29111     517.9924        33     1.826     1.226 -28.02   3
       260     46.3943    290.4255 307.9116305  +6.7073596      596.596     1266.883     1589.791     95.08785     190.7083     381.5685      2.648     4.33     1307.872     67.29111     77.55469         5     0.993     0.538 -43.52   0
       261    641.3823    283.0057 307.6633589  +6.7301909     510.5528     1175.251     2667.783     95.24011     190.4802     381.5685      2.549     4.46     1280.772     67.29111     90.43652         5     1.418     0.399 -78.25   0
       262    791.8677    278.2604 307.6006594  +6.7371318     11928.54     45299.09     70179.35     95.84675     190.8602     381.7584      3.440     9.01     1279.339     67.29111     1219.071       133     2.783     2.398 -36.78   0
       263    836.9495    275.2208 307.5819307  +6.7398785     542.6723     1312.335     3773.503     95.08785      191.012     381.6065      4.625     4.61     1278.865     67.29111     93.60144         5     0.935     0.645 -28.99   0
       264    195.4293    259.9203 307.8504231  +6.7249346     4050.114     10269.09     15636.92     95.54391     190.9361     381.7204      3.094     9.99     1298.122     67.29111     446.2292        67     3.131     1.615 -40.19   3
       265    192.4988    256.6136 307.8517601  +6.7262044     3114.691     7472.183     8775.017     95.54391     190.6323     381.4546      2.472     6.82     1298.382     67.29111     301.7051        35     1.960     1.269 -37.86   3
       266    800.7422    261.6979 307.5975144  +6.7442734     780.8599     1984.663     3461.477     95.39214     190.8602     381.9481      3.435     7.04     1277.989     67.29111     132.1282        11     1.775     0.783 -42.69   0
       267    961.1758    256.8753 307.5306593  +6.7515661     13543.81     46184.72     61652.23     95.24011     190.7083     381.6824      3.048     8.37     1276.157     67.29111     1338.748       105     2.519     2.071 -47.20   0
       268    242.7309    254.9711 307.8308342  +6.7285543     1212.836      2263.81     3164.779     95.39214     190.9361     381.6824      2.214     6.26     1294.747     67.29111     153.4182        18     1.440     1.057 -12.02   3
       269    243.3457    260.1358 307.8304011  +6.7264393     1367.646     3571.044     3915.805     95.69545     190.8602     381.7204      2.334     8.52     1294.786     67.29111     156.1864        20     1.692     1.200  54.53   3
       270    247.1199    258.0497 307.8288959  +6.7274273     1906.062     4063.909     5642.723     95.69545      191.012     381.7584      2.368     7.54     1294.585     67.29111     275.2913        33     2.235     1.108 -72.09   3
       271    836.6994    256.8177 307.5826595  +6.7474796     1916.925     4470.217      5839.57     95.69545     190.7843     381.4546      2.811     8.81     1277.619     67.29111      234.802        30     2.409     1.028 -66.40   3
       272    832.1783    257.6726 307.5845191  +6.7469768     2189.888     4050.956     5302.578     95.24011     190.7083     381.7204      2.044     6.86     1277.692     67.29111     223.3948        18     1.273     1.078  83.69   3
       273    832.7756    254.5563 307.5843754  +6.7482850     2140.446     4754.767     6296.926     95.08785     190.8602     381.6065      2.511     6.13     1277.483     67.29111     238.2225        21     1.596     1.230 -51.61   3
       274    798.2887    258.5009 307.5986478  +6.7455143     1019.277     2274.247     3577.868     95.69545     191.4666     381.7204      2.652     6.98     1277.855     67.29111     122.0116        14     1.448     0.944 -47.38   0
       275    984.0217    251.4166 307.5213006  +6.7545769     1173.206     3500.035     5198.204     95.39214     190.6323     381.6824      3.106     9.23     1275.473     67.29111     132.0078        23     2.047     1.162  80.88   2
       276    702.8309    253.2157 307.6387028  +6.7445425     718.9583     1750.725     3641.701     95.24011     190.6323     381.6824      3.508     3.88     1278.662     67.29111     90.15503         5     0.983     0.440 -46.06   0
       277    270.7530    248.1894 307.8193607  +6.7322900     4461.005     13989.24     23527.99     95.08785     190.7843     381.3406      3.553     9.95     1293.419     67.29111     569.0361        91     3.083     2.146 -42.84   2
       278    267.8193    245.1259 307.8206907  +6.7334591     3273.801     5813.568     6405.269     95.24011     190.8602     381.6824      1.913     4.50      1293.54     67.29111     354.2679        18     1.316     1.092 -88.41   3
       279    693.0179    244.0737 307.6431126  +6.7479978     1602.914     3287.493     4718.745     95.08785     190.8602     381.6445      2.294     7.25     1277.918     67.29111      188.995        24     1.818     0.992 -72.17   3
       280    688.7400    243.3710 307.6449235  +6.7481468      1589.42     4387.183     6436.324     95.24012     190.9361     381.7204      2.828    10.92     1277.829     67.29111     181.9056        39     2.488     1.334 -77.19   3
       281    865.0000    234.5187 307.5715937  +6.7576349     602.8055     1661.293      3641.84     94.78259      190.328     381.4166      3.098     3.85     1276.058     67.29111     94.92896         5     1.471     0.289  90.00   2
       282    748.3878    219.2484 307.6208258  +6.7600945     1013.622     2311.557     4444.385     94.93535     190.7843     381.3786      3.586     7.09     1276.014     67.29111     160.0956        12     1.763     0.799 -78.06   2
       283    744.2909    218.2333 307.6225717  +6.7603787     1103.166       2650.8     4663.613     95.84675     190.7843     381.7584      3.702     7.92     1276.026     67.29111     138.7244        15     1.646     1.066 -67.22   2
       284    916.4769    217.0946 307.5506802  +6.7665394     1532.453      3795.67     5542.501     95.39214     191.0878     381.8343      2.977     9.24     1274.364     67.29111     185.2112        28     2.132     1.119 -73.78   3
       285    920.1572    217.3955 307.5491325  +6.7665365     1382.091     2930.061     3937.043     94.93535     190.5563     381.4166      2.377     7.91     1274.313     67.29111      176.222        23     1.899     0.921 -69.63   3
       286    599.8014    214.0013 307.6830746  +6.7573456     2610.534      5816.31     7273.352     94.93535     190.4041     381.3786      2.370     6.96     1275.333     67.29111     303.8513        30     1.865     1.099 -37.46   3
       287    603.8912    217.4483 307.6812489  +6.7560559     2913.541     6062.191     8334.781     95.69545     190.8602     381.9102      2.676     8.74     1275.487     67.29111     374.7657        34     2.599     0.988 -72.67   3
       288    600.1984    218.0218 307.6827720  +6.7556964     2510.705     5178.165     6547.904     95.24011     190.5563     381.4166      2.405     6.08     1275.453     67.29111     253.3706        24     1.688     1.056 -43.66   3
       289    719.9053    216.0774 307.6328318  +6.7604634     838.2952     2199.852     3188.535     95.39214     191.1636     381.8343      2.975     8.94     1276.047     67.29111     104.8282        13     1.913     1.166 -31.05   0
       290    125.9106    212.3585 307.8810861  +6.7422860     1155.482     2872.522     5528.679     95.69545     190.8602     381.7963      3.693     9.26     1304.734     67.29111     129.7041        20     1.847     1.295 -69.99   2
       291    253.4729    211.1858 307.8278416  +6.7470153     1622.735     4141.703     6547.505     95.08785     190.6323     381.6065      3.008    10.73     1294.972     67.29111     232.1808        43     2.862     1.503 -35.99   2
       292    252.3554    207.0229 307.8284505  +6.7486993     1168.602     3301.798     4674.503     95.08785     190.9361     381.5685      2.962     9.58     1295.291     67.29111     162.2147        22     2.459     1.041 -22.74   3
       293     86.6075    207.3732 307.8976737  +6.7430383     1014.365     2431.524     4107.844     95.24012     190.7083     381.5305      3.125     7.60     1307.627     67.29111     120.4292        16     1.612     1.002 -70.58   0
       294    290.0579    205.3865 307.8127573  +6.7506294     1175.636     2716.474     4909.838     94.93535     190.7843     381.4166      2.908     8.56     1292.862     67.29111     183.4362        21     2.256     0.908 -47.75   2
       295    287.7165    201.9130 307.8138538  +6.7519877     968.4267      2239.63     3938.983     95.39214     191.1636     381.7963      3.007     8.09     1293.075     67.29111     126.7111        16     2.134     0.858  -6.69   2
       296    594.0578    196.2254 307.6860785  +6.7645053      4523.99     12040.17     16390.99     95.24011     190.9361     381.5685      2.831    10.76     1274.693     67.29111     554.8014        54     2.975     1.199 -42.98   3
       297    591.3737    192.5791 307.6873238  +6.7659240     4451.186     12236.96     19672.69     95.24012     190.7083     381.6824      3.415    10.32     1274.551     67.29111     441.4441        79     3.381     1.777 -56.74   3
       298    634.0800    196.7586 307.6693413  +6.7656105     723.8998     1668.497     3309.762     95.69545     190.9361     381.7204      4.119     7.61     1275.129     67.29111     127.3397         9     1.503     1.079  85.46   0
       299    545.5894    192.7706 307.7064434  +6.7643276     4398.375     20848.81     33994.25     95.08785     190.7083     381.5685      3.600    10.34     1273.778     67.29111     617.1639       110     2.787     2.458 -48.80   0
       300    469.5889    186.6082 307.7384017  +6.7643553     1839.363     4348.859     5250.079     95.24012     190.7083     381.6824      2.568    10.94     1275.324     67.29111     215.3932        34     2.332     1.430 -64.23   3
       301    470.6725    192.6387 307.7377436  +6.7618978     1649.133     2610.651     2708.013     95.54391     190.8602     381.8343      1.800     5.83     1275.342     67.29111      223.465        12     1.303     0.950 -14.22   3
       302    474.1802    189.5132 307.7363847  +6.7633064     2376.949     5550.795     6625.271     95.39214     190.6323     381.6445      2.406     8.96     1274.991     67.29111     286.8115        38     2.331     1.106 -64.16   3
       303    403.4023    185.5158 307.7660875  +6.7626104     746.7894     1683.522     3035.443     94.93535     190.4802     381.3786      1.631     4.24     1282.004     67.29111     122.8838         7     1.916     0.267 -59.13   0
       304    378.9154    172.6884 307.7767539  +6.7671011     2990.068     8071.801     12009.55     95.39214     191.2394     381.8722      3.119    10.86     1284.526     67.29111     364.5359        65     3.112     1.700 -40.84   2
       305    375.3748    169.3901 307.7783453  +6.7683473     2628.594     5710.604     6868.021     95.24012     190.7083     381.6065      2.278     6.79     1284.963     67.29111     287.9253        30     1.815     1.117 -49.04   3
       306    839.0136    165.4775 307.5847916  +6.7853237     5271.059     11884.22     15317.23     95.24011     190.5563     381.5305      2.531     8.22     1273.112     67.29111     598.3025        42     2.571     1.032 -60.13   3
       307    835.4937    164.2199 307.5863048  +6.7857274     5303.556      13426.8     17353.71     95.54391     190.7083     381.5685      2.667     9.56     1273.138     67.29111     512.6044        53     2.627     1.303 -69.98   3
       308    677.5099    169.1385 307.6521373  +6.7784687     676.4137     1609.404     2603.903     95.69545     191.0878     381.8343      3.003     5.47      1274.27     67.29111     104.6305         8     1.366     0.617  20.98   0
       309    663.1716    159.5898 307.6584518  +6.7819422     581.2726     1292.254     2643.093     95.24011     190.7083     381.5685      2.549     3.53     1273.949     67.29111     105.2675         5     0.781     0.461 -15.75   0
       310    986.4594    154.5147 307.5235649  +6.7947249     2292.448       7195.6     8878.552     95.69545      191.012     381.8722      2.857     9.14     1271.103     67.29111     230.6885        56     2.342     1.778 -52.96   0
       311    663.3162    153.8219 307.6585874  +6.7843319     626.2686      1807.01     2829.808     95.39214     190.5563     381.6445      2.500     3.61     1273.755     67.29111     104.8528         5     1.174     0.319  10.76   0
       312    819.6327    146.4298 307.5935347  +6.7925591     1258.095     4479.451     6169.743     95.08785     190.6323     381.4166      3.234    12.34     1272.256     67.29111     169.7954        46     2.220     1.910 -59.20   0
       313    769.1797    139.7487 307.6148393  +6.7936537     1158.008     2887.134     4323.429     95.08785      191.012     381.5305      2.884     8.55     1272.443     67.29111     148.4893        19     1.786     1.144 -27.24   3
       314    768.1752    143.6310 307.6151271  +6.7920152     1144.077      2026.71     3300.384     95.08785     190.7843     381.5305      2.518     4.67     1272.665     67.29111     141.4392        12     0.984     0.938   2.40   3
       315    772.2994    141.8456 307.6134648  +6.7928898     1143.115     2167.399     3277.772     95.69545     190.8602      382.024      2.125     7.35     1272.538     67.29111     152.0466        15     1.787     0.847 -55.40   3
       316     10.7001    142.6345 307.9315958  +6.7672755     802.0513     1815.509     2550.206     95.69545     190.7843     381.9481      2.713     5.74     1315.271     67.29111     123.6879         8     1.333     0.696 -49.19   0
       317    126.5968    132.9464 307.8835135  +6.7751427      8199.01     24444.26     37995.48     94.93535     190.6323     381.3026      3.257     9.67     1306.007     67.29111     1057.664        89     3.190     1.763 -43.17   3
       318    123.8932    129.6785 307.8847546  +6.7764039     6449.953     13673.25     15979.06     95.39214     191.1636     381.8343      2.239     5.73     1306.157     67.29111     698.6387        33     1.744     1.195 -59.73   3
       319     24.3126    126.8363 307.9264500  +6.7742612     1064.709      2312.38       4227.3     95.69545     190.7843     381.7584      2.800     6.94     1314.167     67.29111     143.0605        15     1.822     0.740 -71.27   2
       320    708.5543    125.9442 307.6406358  +6.7973561     711.2365     1708.391     3016.992     95.69545     190.9361     381.7584      2.514     5.98     1272.337     67.29111      116.426         9     2.229     0.452 -48.89   0
       321    704.9979    123.0342 307.6422205  +6.7984416     657.6605      1302.86     1996.215     94.62959     190.7083     381.5305      2.300     3.74     1272.272     67.29111     86.02393         5     1.015     0.397 -59.62   0
       322    675.8623    119.4206 307.6545154  +6.7989714     961.3397     2893.153     3729.535     95.24011     190.9361     381.6065      2.669    10.54     1272.558     67.29111     132.7625        26     2.576     1.203  85.86   2
       323    679.9105    118.4708 307.6528564  +6.7994982     1036.614     2260.633     3337.866     95.54391     191.2394     381.7584      2.595     7.54     1272.462     67.29111     129.9412        14     1.778     0.895  76.77   3
       324    760.9996    114.3288 307.6191199  +6.8038938      1087.84      3022.84      6082.59     94.93535      190.328     381.5305      3.908    12.68     1271.113     67.29111     137.5709        26     2.524     1.774  64.03   2
       325      2.8699    110.8042 307.9359559  +6.7801749     862.3046     1784.054     1747.594     94.93535     176.2565      315.784      1.902     6.59     1316.237     67.29111     187.3787        12     1.917     0.635 -48.32  24
       326    340.1542     98.6849 307.7954698  +6.7964119      4979.07     16883.46     27317.43     95.69545     190.8602     381.7584      3.443    10.43     1292.005     67.29111     598.4467        91     3.094     2.087 -42.13   2
       327    338.0017     95.0159 307.7964942  +6.7978574     4253.613     7462.775     8253.869     95.24011     190.4802     381.4926      1.863     4.92     1292.394     67.29111     438.9178        18     1.195     1.149 -58.29   3
       328    107.8328     93.9473 307.8926852  +6.7906425     799.7455     1972.811     3313.828     95.54391     190.9361     381.6445      3.010     7.05      1306.58     67.29111     109.9172         8     1.687     0.826  77.50   0
       329    432.9702     91.7814 307.7569297  +6.8023485     6222.719     18730.22     28316.12     95.24011     190.7083     381.6445      3.241    10.58     1278.266     67.29111     752.6885        86     3.145     1.843 -41.74   3
       330    430.1421     88.1102 307.7582363  +6.8037725     5002.483     9998.258     10474.49     95.54391     190.8602     381.9102      2.060     5.88     1278.849     67.29111     548.1201        31     1.790     1.139 -35.83   3
       331    163.8373     80.9008 307.8697350  +6.7979015     19571.09     52684.94     82927.97     95.69545     190.7843      382.024      3.291     9.83     1304.931     67.29111     2271.692       117     3.221     2.047 -44.37   3
       332    160.7888     77.4055 307.8711280  +6.7992452     14325.24     31339.02     34809.78     95.24012     190.6323     381.6445      2.192     5.27      1305.05     67.29111     1393.209        36     1.662     1.293 -35.38   3
       333     43.6774     80.0141 307.9199625  +6.7942657     7321.775      19883.7     29875.14     95.24011     190.5563     381.5305      3.153     9.35     1310.776     67.29111     900.9647        84     3.036     1.889 -43.73   2
       334     40.6763     76.8094 307.9213258  +6.7954907     5207.387     10758.78     12271.71     95.24011     190.4041     381.5305      2.163     5.19     1310.727     67.29111     562.7638        25     1.549     1.132 -64.52   3
       335    654.7388     78.4214 307.6647341  +6.8152243     663.6321     2111.436      4317.44     95.24012     190.9361     381.6445      4.291    10.34     1271.439     67.29111     118.2644        17     3.042     0.979 -63.93   2
       336    805.4933     78.9614 307.6017319  +6.8199887     854.6639     1793.539     3285.834     95.84675     190.8602     381.8343      3.217     5.10     1268.327     67.29111     114.1797         7     1.259     0.644 -73.48   2
       337    472.1048     72.3153 307.7412434  +6.8116958     1061.074     2892.715     4429.575     95.69545     191.3909     381.8722      3.003     8.02     1276.021     67.29111     143.3535        17     1.771     1.014 -54.60   2
       338    875.2690     69.7266 307.5728931  +6.8261128     2206.253     6113.504     8438.044     95.84675     191.0878     381.7584      2.957    10.98     1266.528     67.29111     243.1166        53     2.590     1.811 -45.46   2
       339    873.0000     67.0722 307.5739312  +6.8271354     1894.331     3031.875     3720.142     94.78259      190.328     381.5685      1.730     4.75     1266.442     67.29111     251.0518        12     1.307     0.715 -76.53   3
       340    535.6851     65.9793 307.7148964  +6.8164242     1562.569     5346.664     9441.982     95.39214     190.5563     381.6445      3.773    13.03     1273.457     67.29111     182.4465        57     2.673     1.974 -61.90   2
       341    468.0124     67.8382 307.7431056  +6.8134111     766.0848     1850.505       3325.4     95.24011     190.7083     381.4166      3.010     3.88     1276.632     67.29111     101.0585         5     0.832     0.519  59.31   1
       342   1014.2167     64.8767 307.5150046  +6.8327044     535.3113     1124.924     2711.448     95.08785     190.6323     381.6065      1.745     3.77     1263.485     67.29111     83.09106         5     1.173     0.347  78.59   0
       343    134.8929     62.2139 307.8824655  +6.8046641     1918.488      4900.23     7793.129     95.39214     190.6323     381.5685      3.143    10.89      1305.77     67.29111     234.4805        41     2.737     1.273 -51.26   2
       344    131.1652     59.5486 307.8841139  +6.8056420     1385.406      3343.63     5058.064     95.54391     190.9361     381.6445      2.871     8.41     1305.879     67.29111     176.0951        21     2.117     0.933 -66.43   3
       345    907.2640     61.3604 307.5598093  +6.8306288     929.9415     2303.458     3507.973     95.69545     190.8602     381.8343      3.013     6.10      1266.24     67.29111     127.7869        10     1.543     0.767 -58.63   2
       346    905.9683     57.2034 307.5604916  +6.8323048       813.46     1747.652     2635.276     94.78259     190.7083     381.4926      2.143     5.12     1266.126     67.29111     124.3541         7     1.271     0.584 -43.07   2
       347    782.8613     53.7673 307.6120428  +6.8296577     2893.816     8200.632     12288.72     95.39214      191.012     381.6824      3.121    12.14     1267.446     67.29111     296.8896        70     3.066     2.031 -72.39   3
       348    779.2989     52.0067 307.6135910  +6.8302679     2525.567     4972.313     6880.272     95.39214     190.4802     381.4926      2.431     8.06     1267.479     67.29111     314.4664        24     2.515     0.722 -63.37   3
       349    168.6623     55.1429 307.8685995  +6.8087120     683.6379     1785.529     2732.045     95.84675     190.8602     381.7963      2.206     4.25     1304.696     67.29111     98.52063         6     2.002     0.257 -51.12   2
       350    169.3339     51.0226 307.8684597  +6.8104380     656.6048     1430.324     2376.961     95.24011     190.9361     381.6445      3.644     5.49      1304.69     67.29111     90.35437         5     1.088     0.782 -76.10   2
       351    525.6858     40.1362 307.7199538  +6.8267781     573.6966     1818.823     3687.709     95.84675     191.0878     381.7584      2.005     3.64     1274.643     67.29111      101.202         5     1.818     0.210 -50.43   0
       352    595.9991     33.1490 307.6908149  +6.8319977     635.7939     1325.859     2493.274     94.93535     190.4802     381.2266      2.580     4.73     1272.316     67.29111     93.89307         5     0.982     0.645 -32.90   0
       353    214.5256     32.9833 307.8501961  +6.8194004     645.5702     1323.216     2335.613     95.08785     190.6323     381.6065      2.693     5.50     1302.448     67.29111     112.0814         6     1.309     0.652 -46.72   0
       354    943.5073   1015.3412 307.5123544  +6.4373680       4384.2     9391.137     11042.55     95.54391     190.8602     381.9102      2.366     5.13     1331.516     67.29111     462.8634        52     1.962     1.496 -47.71  16
       355    114.7798     25.6026 307.8921196  +6.8191316     1418.391     2465.122     2062.221     95.24012     190.4802     381.4546      1.812     7.52     1306.264     67.29111     178.5765        17     1.610     0.985 -55.84   3
       356    100.2640     26.5923 307.8981501  +6.8182389     945.2666     2285.486     3515.868     95.08785     190.6323     381.5685      3.361     8.63     1306.662     67.29111     114.3298        15     1.906     1.092 -63.93   0
       357    537.3147   1010.8540 307.6820774  +6.4257948     21924.57     59994.94     73899.38     95.69545     190.8602     381.9481      2.712     6.40     1332.179     67.29111     2453.206       102     2.355     1.867 -39.29  16
       358    998.7970   1010.3868 307.4894401  +6.4412402     59296.08     122338.5     137971.5     95.24012     190.5563     381.6065      2.214     5.15     1333.394     67.29111     7056.627        98     2.130     1.486 -40.28  16
       359    145.3730   1007.7710 307.8457966  +6.4140591     1312.078     3537.217     4117.339     95.08785     190.7083     381.5305      2.687     7.43     1332.612     67.29111     177.6487        26     1.786     1.456   5.13   0
       360    958.5429     17.3509 307.5398764  +6.8505187     730.8916      1396.43     2408.349     95.69545     190.9361     381.9102      1.921     4.21     1262.525     67.29111     144.5288         5     1.190     0.425  75.84   2
       361    434.5482    994.7629 307.7255251  +6.4290417     26840.36      76955.9     97356.12     95.54391     190.9361     381.7584      2.800     6.71     1334.188     67.29111     2849.596       115     2.426     1.961 -43.07   0
       362   1012.5504    993.6096 307.4842658  +6.4486307      2289.75      4567.38     4365.792     95.08785     190.7843     381.3786      2.061     6.01     1331.506     67.29111     232.1956        27     1.759     1.076 -25.71  16
       363    108.3832    990.7598 307.8618180  +6.4198620     757.1645      1903.22      2156.04     95.24012     190.7083     381.5305      2.796     4.81     1332.435     67.29111     95.54834         6     1.102     0.596  29.70   2
       364    280.0747    983.6412 307.7903892  +6.4285132     967.2547     2780.966     3482.222     95.54391     190.9361     381.7963      2.851    10.45     1333.787     67.29111     127.5204        22     2.028     1.500  24.54   0
       365    706.3120    978.0461 307.6126409  +6.4449540     2379.197      6379.76     8287.578     95.69545     190.7843     381.7584      2.739     7.96      1329.78     67.29111     240.6587        47     2.237     1.464 -34.11   0
       366    759.9846    973.2468 307.5903967  +6.4487129     6554.976     16807.15     20284.12     95.08785     190.7083     381.4546      2.565     6.09     1328.725     67.29111     720.8124        69     2.221     1.657 -38.77   0
       367    583.6506    971.5991 307.6640677  +6.4435604     1182.081     3548.718     4519.447     94.93535     190.4802     381.2266      2.788    10.67     1331.112     67.29111     155.3213        33     2.057     1.541 -48.86   0
