#   1 NUMBER                 Running object number                                     
#   2 X_IMAGE                Object position along x                                    [pixel]
#   3 Y_IMAGE                Object position along y                                    [pixel]
#   4 ALPHA_J2000            Right ascension of barycenter (J2000)                      [deg]
#   5 DELTA_J2000            Declination of barycenter (J2000)                          [deg]
#   6 FLUX_APER              Flux vector within fixed circular aperture(s)              [count]
#   9 FLUXERR_APER           RMS error vector for aperture flux(es)                     [count]
#  12 FLUX_RADIUS            Fraction-of-light radii                                    [pixel]
#  13 FWHM_IMAGE             FWHM assuming a gaussian core                              [pixel]
#  14 BACKGROUND             Background at centroid position                            [count]
#  15 THRESHOLD              Detection threshold above background                       [count]
#  16 FLUX_MAX               Peak flux above background                                 [count]
#  17 ISOAREA_IMAGE          Isophotal area above Analysis threshold                    [pixel**2]
#  18 A_IMAGE                Profile RMS along major axis                               [pixel]
#  19 B_IMAGE                Profile RMS along minor axis                               [pixel]
#  20 THETA_IMAGE            Position angle (CCW/x)                                     [deg]
#  21 FLAGS                  Extraction flags                                          
         1    197.8016     24.5561 307.8649048  +6.6682227     9073.227     15822.71      16600.4     82.33625     165.2671      330.699      1.861     4.26     969.3051     58.36075     1184.964        46     1.722     1.218 -34.91   0
         2   1007.9741     18.5706 307.5284114  +6.6978191     1782.971     2897.492     2665.318     82.46852      165.399     330.9297      1.740     4.65     932.3439     58.36075     335.6245        19     1.447     0.942 -43.74   0
         3    727.5821     14.9414 307.6450647  +6.6899557     6523.034     11100.74     11945.05     82.60057     165.4648     330.8308      1.834     4.43     942.4503     58.36075     963.7598        36     1.698     1.063 -31.79   0
         4    647.8737     14.1532 307.6782176  +6.6876147     3234.017     5348.545     5848.537     82.86405     165.6623     331.0943      1.763     4.45     944.8332     58.36075     489.4327        28     1.695     1.011 -30.32   0
         5    349.6556     14.0875 307.8021539  +6.6776463     825.1929     1335.021     1609.307     82.99548     165.4648     331.2589      1.863     5.76     961.3196     58.36075     118.0482        11     1.434     0.651 -40.45   0
         6     48.9741     10.1339 307.9272399  +6.6691692     7287.572     12887.92     13520.97     82.60058     165.5307     330.9626      1.862     4.14     971.6534     58.36075     1028.139        45     1.796     1.167 -38.86  16
         7    447.9821     10.4487 307.7614148  +6.6824477     5219.982     9281.959     10171.79     82.46852     165.6623     330.8967      1.911     4.52     950.8047     58.36075     702.8098        36     1.719     1.133 -31.82  16
         8    694.4108      9.6810 307.6590279  +6.6910182     815.8503     1345.408     1575.768     82.60058      165.333     330.9297      1.765     3.55      943.447     58.36075     169.8807         9     1.185     0.478 -39.96   0
         9    522.5267      7.6717 307.7305291  +6.6860932     680.7341     1235.043       1360.9     83.25771     165.7281     327.8857      1.885     4.74     946.7811     58.36075     103.9662         6     0.949     0.672 -68.05   0
        10    344.5480      5.4077 307.8045702  +6.6810584      10943.7     19443.02     20704.94     82.46852      165.399     307.6138      1.913     4.29      961.756     58.36075     1504.208        49     1.795     1.219 -36.39  16
        11    439.0259      6.7869 307.7652606  +6.6836592     644.9908     1006.585     1449.659     82.73242      165.399     321.3384      1.621     4.38     951.6475     58.36075     95.26538         6     0.838     0.651 -12.36  16
        12    118.2198      5.7276 307.8986140  +6.6733193     2154.488     4009.432     4795.194     82.60058     165.4648     311.2418      2.132     4.91     969.0297     58.36075     303.3286        26     1.678     0.996 -35.03  16
        13    109.4615      4.5342 307.9022940  +6.6735173     1331.856     2498.752     2596.209     82.99548     165.5307     297.4178      1.949     4.96     969.0665     58.36075     190.8262        16     1.447     0.901 -33.86  16
        14    812.3577      4.4747 307.6101847  +6.6971105     759.3895     1367.888     1550.746     82.86406     165.6623     296.7207      1.944     3.72     938.7243     58.36075     117.1866         6     0.888     0.475 -85.33  16
        15    410.5687      3.4419 307.7772000  +6.6840856     2011.223     3490.291     3339.192     82.46852     158.8785      282.495      1.829     4.59     954.4417     58.36075     300.4606        23     1.485     1.082 -41.14  24
        16    670.2673      1.2428 307.6693464  +6.6936943     1777.255     2127.823     2532.954     70.96053     130.3106     247.7137      1.037     2.35      943.952     58.36075      528.611        10     1.172     0.426   2.53  24
        17    285.9096   1002.7601 307.7952011  +6.2673146     910.8656     1639.341     1633.588     82.99548     165.5307     331.1272      1.701     6.01     991.8472     58.36075     185.3383        12     1.550     0.686 -39.66   0
        18    975.6821   1020.7250 307.5081627  +6.2829668     6478.636     11238.03     11564.08     83.25771     165.2671     294.1382      1.835     4.72     975.1349     58.36075     902.9333        38     1.716     1.084 -38.19  24
        19    930.2641    999.2802 307.5277437  +6.2903069     8662.696     14098.73     15363.67     83.25771     165.6623     331.0614      1.787     4.27     978.0175     58.36075     1268.053        37     1.668     1.076 -33.95   0
        20    561.5168    998.6229 307.6808948  +6.2782592     8228.892     12811.51     13743.91     82.86406     165.2671     331.0285      1.691     3.98     988.1929     58.36075      1470.91        34     1.617     0.971 -37.37   0
        21    903.8346    995.4359 307.5388484  +6.2910127     11677.51     19515.46     20654.43     82.73242      165.333     330.8308      1.810     4.38      977.921     58.36075     1989.107        41     1.736     1.063 -32.05   0
        22     12.8912    997.6522 307.9087399  +6.2602493     600.1951     884.5288     766.5734     82.86405      165.399     331.2917      1.139     3.26     995.2187     58.36075     124.5458         7     0.838     0.599 -30.54   0
        23   1023.8682    995.4580 307.4890003  +6.2950050     1785.873     1975.863     2105.396      69.4076     128.2875     245.5927      0.907     2.68     971.3137     58.36075     560.6293         8     1.100     0.331  86.05  24
        24    616.0283    996.2329 307.6583388  +6.2810699     1330.241     2086.481     2849.886     82.46852      165.333     330.8638      1.749     3.42     985.7371     58.36075     234.0082        10     1.136     0.551 -52.57   0
        25    548.1375    994.4355 307.6865919  +6.2795403     3955.139      6760.16     7399.856     82.86405     165.5965     331.0614      1.905     4.55     988.7515     58.36075     690.3031        32     1.674     1.197 -23.12   0
        26    656.9869    994.0968 307.6414021  +6.2833217      1420.46      2202.82     1665.622     82.86405      165.333     330.8308      1.450     3.97     985.0676     58.36075     231.1853        13     1.218     0.660 -69.40   0
        27     82.2387    993.3439 307.8800910  +6.2643606     887.2906     1208.364     926.3805     82.99548     165.6623     331.0614      1.446     4.48      993.989     58.36075     159.8791         7     0.901     0.633 -66.04   0
        28    812.2396    992.5207 307.5769835  +6.2891597     620.7041     739.5205     1038.487     82.86405     165.6623     331.0614      1.309     3.14     981.3124     58.36075     106.7776         5     0.730     0.466 -18.64   0
        29    501.0657    990.9858 307.7062551  +6.2793886     1990.161     3156.256     2727.251     82.46852     165.4648     331.0284      1.592     4.46     989.1859     58.36075     301.5184        18     1.548     0.795 -35.77   0
        30    935.6063    982.9795 307.5260727  +6.2972154     41267.96     68673.12     73389.77     82.60057      165.333     330.8967      1.786     4.36     976.9893     58.36075     6597.763        70     1.755     1.202 -36.98   0
        31      8.4571    982.7290 307.9110868  +6.2662613     2838.328     4511.022     4330.317      83.1267     165.5965     331.0614      1.757     4.46     994.9849     58.36075     438.0101        24     1.564     0.898 -39.25  16
        32    242.9593    981.3571 307.8137595  +6.2747096      1686.36     2844.938     2810.127     82.73242     165.5965     330.9626      1.776     4.49      991.958     58.36075     312.2841        19     1.598     0.788 -35.18   0
        33    131.1867    980.9260 307.8601866  +6.2711330     653.2566     1089.992     1259.439     82.46852     165.2671     330.9297      1.807     6.21     993.3255     58.36075     93.77771         9     1.456     0.745  -8.85   0
        34    781.6566    974.7831 307.5902804  +6.2954621     6487.564     10579.23      11408.5     82.46852     165.5307     330.8308      1.754     4.08      982.105     58.36075     1184.592        38     1.775     1.152 -51.57   0
        35    641.6068    979.5531 307.6482789  +6.2888122     849.8131     1327.114     1009.749     82.46852      165.399      330.732      1.572     4.46      985.272     58.36075     157.6097         9     1.101     0.669 -46.08   0
        36    833.5220    976.8006 307.5686739  +6.2963608     2266.816      3596.73     3916.544     82.20377      164.937     330.8308      1.667     4.29     979.6075     58.36075     396.3194        23     1.596     0.948 -42.73   0
        37    568.1505    974.1483 307.6789650  +6.2885863      776.386     1351.339       1122.6      83.1267     165.4648     331.0614      1.727     5.41     987.4256     58.36075     144.5093        10     1.460     0.595 -43.51   0
        38    250.9893    973.7967 307.8106807  +6.2781006     1267.698     1738.885     1803.007     82.60058     165.2671     330.9955      1.506     4.64     991.9536     58.36075     224.3237        12     1.443     0.639 -55.18   0
        39    214.3743    973.8942 307.8258817  +6.2768310     640.8777     1084.433     1640.189      83.1267      165.333     330.9297      1.665     4.41     992.1725     58.36075     114.1559         8     1.489     0.371 -54.51   0
        40    969.9649    969.6645 307.5122512  +6.3038585     6502.156     10740.09      11268.8     82.86405     165.5965     331.1272      1.772     4.39     974.5391     58.36075     1106.385        38     1.731     1.079 -39.59   0
        41     76.1764    971.8434 307.8833365  +6.2730335     2580.312     4468.124     4465.723     82.46852     165.4648     330.8967      1.795     4.43     993.6417     58.36075     408.4598        23     1.621     0.957 -33.89   0
        42    652.1091    963.9058 307.6444446  +6.2956239     700.4348     1011.926     1033.638     82.99548     166.1222     331.0943      1.506     4.56     985.0371     58.36075     110.9123         7     1.234     0.480 -55.37   0
        43    943.5103    961.4771 307.5235124  +6.3063571      2112.82     2891.825     2884.481     82.99548     165.8596     331.1601      1.523     3.91     975.7377     58.36075     368.3932        18     1.356     0.836 -51.91   0
        44      1.6513    959.4197 307.9147029  +6.2756558     813.1864     1247.951      1231.72     76.14681     136.6788     254.4422      1.453     4.56     994.5787     58.36075      180.931        10     1.359     0.559 -67.45  24
        45    276.6557    957.5483 307.8005720  +6.2856706     4220.737     6834.667     7251.511     82.99548     165.5965     331.0614      1.790     4.06     991.9398     58.36075     668.6947        29     1.658     0.970 -37.43   0
        46    803.3372    957.8076 307.5818478  +6.3031950     1303.297      1906.21     2027.226     82.33625      165.333     330.8967      1.509     5.90     980.7651     58.36075     239.6413        13     1.645     0.688 -42.14   0
        47    664.4939    957.3498 307.6395223  +6.2987449     4407.297      6709.32     7072.453     82.86406     165.4648     331.2917      1.647     4.29     984.7769     58.36075     717.0696        25     1.548     0.903 -39.78   0
        48   1013.1043    957.6970 307.4947375  +6.3102375     737.7126     1195.049     837.5587     82.99548     166.1878     330.9297      1.667     3.80     972.0448     58.36075      144.299         6     1.119     0.403 -34.38   0
        49    486.3510    955.9877 307.7135462  +6.2933457     1132.904     1748.243      1506.46     82.33625     165.5307      330.765      1.597     4.94     988.9785     58.36075     176.8905        12     1.206     0.856 -47.54   0
        50     45.2309    955.0471 307.8967552  +6.2789273     2072.867     3064.751      3519.94     82.60057     165.5965     330.9955      1.599     4.43     993.7897     58.36075     302.2258        18     1.464     0.834 -38.18   0
        51    896.0301    953.9855 307.5434821  +6.3078667     889.0364     1373.607     1277.818     82.60058      165.333     331.0284      1.548     5.28     977.0222     58.36075     142.8781         9     1.410     0.558 -48.57   0
        52    988.1260    951.9234 307.5053047  +6.3117890     786.3441     1331.344     1229.649     83.25771     165.8596     331.1272      1.692     4.08     973.2695     58.36075     105.0199         8     0.844     0.664  43.02   0
        53    312.9557    951.0051 307.7857194  +6.2895903     760.2921     1464.993     1712.223     82.33625     165.2011      330.732      2.231     5.96     991.7512     58.36075     152.1475        10     1.620     0.617 -32.47   0
        54    967.0225    951.2943 307.5140899  +6.3113453     694.6667     759.0989       750.97     82.99548      165.399     330.9297      1.192     1.97     974.2802     58.36075     155.8373         5     0.734     0.446  60.73   0
        55    588.9507    949.9635 307.6711425  +6.2992677     1470.945     2342.631     3054.326     82.73242     165.5307     330.9955      1.672     5.38     986.3994     58.36075     249.0525        13     1.544     0.774 -29.32   0
        56   1020.7507    949.4999 307.4918371  +6.3138768      914.752     1873.268     1633.726     82.99548      164.937     293.9529      1.984     7.86     971.6541     58.36075     111.7367        15     1.462     1.180 -12.36  24
        57    628.1047    946.2086 307.6550092  +6.3021279     1058.197      1589.35     1338.498     82.73242     165.2011     330.8638      1.581     4.90     985.4611     58.36075     166.8241        11     1.381     0.776 -45.21   0
        58     77.3755    947.1408 307.8836753  +6.2832727     698.1908     1218.008     1657.855     82.60057     165.5965     330.9297      1.737     3.38     993.0955     58.36075     122.6642         5     0.752     0.440  70.67   0
        59    308.2657    943.8761 307.7879078  +6.2923763     1356.277         2265     2486.768      83.1267     165.5965     331.0614      1.809     5.38     991.7799     58.36075     204.1757        16     1.675     0.753 -49.63   0
        60    774.6074    940.6093 307.5943574  +6.3093365      857.863     961.5253     1109.494     82.33625      165.399     330.9626      1.456     4.01     981.1115     58.36075     123.9268         7     1.012     0.455 -78.76   0
        61    912.6494    936.6000 307.5371643  +6.3155993     6768.826     10802.16     10825.16     82.20377     165.0691     330.6002      1.717     4.26     976.0894     58.36075      1160.09        30     1.630     0.940 -40.14   0
        62    448.3173    933.8345 307.7300880  +6.3012181     2009.094     3077.281     3071.419     82.99548     165.5965     331.0285      1.650     4.05     989.4897     58.36075     340.2836        18     1.471     0.874 -41.27   0
        63    350.2299    932.1782 307.7708768  +6.2986137     9016.727     14617.28     15404.03     82.46852      165.399     330.9626      1.722     4.25     991.3009     58.36075     1424.208        38     1.704     0.998 -36.54   0
        64    270.2900    931.1627 307.8041075  +6.2963508     6574.114     10671.14     11321.13      83.1267     165.5307     331.1272      1.721     4.55     991.9908     58.36075     945.3131        34     1.684     1.005 -40.43   0
        65    783.1071    924.9279 307.5913551  +6.3160950       677.83     1193.936     1249.275     82.86405     165.7281     331.1601      1.775     5.22     980.2806     58.36075     166.3253         8     1.724     0.447 -40.00   0
        66    598.2568    925.5091 307.6681020  +6.3096759     1246.465     1954.786     1718.034     82.86405     165.4648     331.1931      1.628     5.26     985.9395     58.36075     202.3831        13     1.350     0.643 -39.74   0
        67    928.0866    921.7445 307.5312523  +6.3222479     1059.686     1688.889     1671.714     82.99548     165.5307     331.2589      1.778     5.34     975.0157     58.36075     156.1553        11     1.216     0.805 -64.54   0
        68    884.1392    921.4706 307.5495129  +6.3208950      698.353     1241.639     971.4597      83.1267     165.5965     331.1272      1.860     3.43     976.6277     58.36075     126.0895         8     0.894     0.662 -57.30   0
        69    996.0002    917.2589 307.5031982  +6.3263641     742.9615     1209.125     1231.761     82.20377     165.2011      330.732      1.716     5.68     972.4214     58.36075     114.9568         9     1.481     0.614 -31.56   0
        70    764.6416    914.6782 307.5993685  +6.3197102     1603.794     2472.515      2522.59     82.86405     165.5965     331.1272      1.601     4.49      980.476     58.36075      286.176        16     1.424     0.800 -42.62   0
        71    995.7220    910.9438 307.5035257  +6.3289622     1353.787     2172.559      2080.92     82.99548     165.5965     331.0943      1.609     5.26     972.2977     58.36075     220.1443        15     1.583     0.688 -59.03   0
        72    628.4413    911.8152 307.6560281  +6.3163396      875.408     1387.669     940.2362     82.46852      165.399     330.8638      1.448     3.13     984.7189     58.36075     195.9769         7     0.921     0.644 -90.00   0
        73     15.1222    912.0297 307.9107155  +6.2956746     899.6282     1391.764     1509.196     82.86405     165.6623     331.0943      1.611     5.31     993.2612     58.36075     141.0187        10     1.351     0.597 -23.16   0
        74    549.8468    910.7051 307.6887050  +6.3141680     1038.925     1785.914     1391.559     82.86405     165.5307      331.226      1.683     5.84     986.5667     58.36075     178.9209        13     1.568     0.677 -29.40   0
        75    683.2737    908.1632 307.6333796  +6.3196810     2406.916     3620.795     3596.362     82.86405     165.6623     331.1272      1.660     4.38     983.0886     58.36075      364.678        23     1.511     0.899 -34.57   0
        76    973.2177    906.1884 307.5130316  +6.3301756     650.8486     918.9131     783.6697     82.60057     165.2671     330.9955      1.403     2.91     972.9482     58.36075     130.5724         6     0.731     0.630 -32.78   0
        77     79.9255    904.3332 307.8840664  +6.3010321     2732.684     4547.135     4624.592      83.1267     165.7281     331.0614      1.788     4.01      992.338     58.36075     502.8367        26     1.553     0.986 -33.88   0
        78    843.5386    905.2174 307.5669208  +6.3262508     741.2169     769.2819     1547.614     82.60058     165.5307     330.8967      1.204     3.46     977.4446     58.36075     143.6945         5     0.739     0.469 -72.89   0
        79    223.1932    903.2387 307.8246095  +6.3062986     2046.561     3444.042     3446.885     82.20377     165.2671     330.7979      1.731     4.54     992.0539     58.36075     329.7872        23     1.669     0.930 -41.44   0
        80     97.3986    903.4526 307.8768404  +6.3019832     1821.634     2825.308      3182.42     82.33625     165.2671     330.6661      1.730     4.80     992.1457     58.36075     325.2648        18     1.523     0.817 -39.98   0
        81    960.8462    903.3237 307.5182658  +6.3309459     808.9959     1083.236     743.7148     82.86405     165.6623     331.1272      1.365     3.62     973.2543     58.36075     147.8994         8     0.951     0.599 -58.87   0
        82    678.0187    897.1661 307.6359323  +6.3240459       6470.5     10438.88     10602.53     82.46852      165.399     330.8967      1.683     4.25      982.756     58.36075       1143.5        31     1.662     0.941 -36.81   0
        83    361.8791    899.1883 307.7671537  +6.3126251     886.1429     1239.151     2321.645     82.60057     165.2671     330.9297      1.534     4.49     990.9119     58.36075     134.2679        10     1.149     0.652 -46.99   0
        84    814.5280    898.2460 307.5792034  +6.3281608     774.4805     1004.963     649.0429     82.86405     165.6623     331.0943      1.504     3.03     978.1287     58.36075     178.9708         7     0.975     0.643 -47.51   0
        85     37.5444    895.6158 307.9019609  +6.3032057      1108.95     1775.507     1795.499     82.33625     165.5307     330.7979      1.668     5.02     992.6096     58.36075     173.2496         9     1.227     0.581 -44.74   0
        86    915.6853    893.4816 307.5373521  +6.3335037     2733.481     4492.282      4304.49     82.73242     165.9253     331.1601      1.739     4.32     974.3951     58.36075     468.2844        22     1.622     0.838 -39.87   0
        87     50.3499    894.1523 307.8966929  +6.3042407     1095.026     1630.491     1581.759     82.99548     165.4648     331.0943      1.624     6.10     992.4623     58.36075     146.0427        13     1.427     0.733 -47.33   0
        88    361.0005    890.3724 307.7678164  +6.3162355      15015.6     24783.89     26787.81     82.60057     165.2671     330.8967      1.769     4.23      990.905     58.36075     2523.969        51     1.795     1.094 -37.83   0
        89     95.2135    891.6111 307.8781488  +6.3067987      1326.13     2180.604     2683.837     82.73242      165.333     331.0285      1.952     3.87     992.0606     58.36075      243.394        15     1.329     0.760 -42.91   0
        90    231.2242    889.7383 307.8217311  +6.3121421     1198.193     1889.902     1858.679     82.60058     165.5307     330.9955      1.731     4.89     992.0608     58.36075     184.6088        11     1.174     0.903 -48.28   0
        91    438.2099    881.2442 307.7360605  +6.3225927     951.2436      1594.61     1938.526     82.46852     165.4648     330.7979      1.490     4.46     988.2239     58.36075     161.3707         8     1.278     0.443 -40.12   0
        92    123.7790    881.2275 307.8666382  +6.3120461     1625.703     2218.248     1937.209     82.46852      165.399     331.0614      1.485     3.84     992.0018     58.36075     243.3351        12     1.161     0.718 -51.83   0
        93    691.9121    877.5797 307.6308219  +6.3325972      739.162     1266.613     1696.797     82.86405      165.333     330.9955      2.059     5.25     981.4988     58.36075     114.7296         9     1.271     0.612 -71.74   0
        94    518.9096    878.2438 307.7026477  +6.3265348     686.2477     1060.002     1269.956     82.99548     165.5307     331.1931      1.795     3.22     986.6458     58.36075     153.3218         6     0.970     0.624 -52.80   0
        95    906.0375    875.3226 307.5419691  +6.3406795     1869.264     3201.138     3653.632     82.86405     165.6623     331.0943      1.814     4.71     974.1003     58.36075     328.3553        18     1.645     0.790 -41.35   0
        96    876.6591    874.7162 307.5541908  +6.3399497     2031.399     2956.007     3164.302      83.1267     165.6623     331.1601      1.478     4.15     975.1724     58.36075     344.1642        18     1.542     0.730 -43.47   0
        97    840.0965    874.1434 307.5693950  +6.3389660     2926.024     4754.604     5330.833     82.86405     165.5307     331.3246      1.767     4.46     976.3585     58.36075     481.7491        28     1.651     0.988 -39.89   0
        98    107.8557    874.5138 307.8734780  +6.3142827     2297.734     3799.931     4432.677     82.99548     165.5965     331.2589      1.895     4.75     991.9215     58.36075      396.485        23     1.650     0.902 -41.84   0
        99    576.0165    865.5792 307.6793582  +6.3336755     314480.9     505367.9     535682.8     82.73242      165.399     330.9955      1.725     4.61     984.6791     58.36075      53621.5       147     1.840     1.245 -37.69   4
       100    470.4605    871.9997 307.7229791  +6.3274902     530.0172      884.799     1235.317     82.20377      165.333      330.765      2.038     3.71     987.4211     58.36075     104.0532         6     1.178     0.337 -39.68   0
       101    420.2710    868.2364 307.7439496  +6.3273621     7107.646     11439.42     12329.43     82.86405     165.5965     331.1601      1.716     4.14     988.1617     58.36075     1047.654        37     1.663     1.042 -40.84   0
       102    663.6403    868.7029 307.6428623  +6.3353171      1094.83     1474.217     1279.389     82.99548     165.4648     331.3246      1.467     4.63     981.8467     58.36075     193.6349        12     1.423     0.669 -24.67   0
       103    363.4652    866.5768 307.7675966  +6.3261427     11786.99     18992.33     20167.54     82.60058     165.5965     330.9626      1.774     4.29     990.7092     58.36075     1916.759        42     1.684     1.062 -36.11   0
       104    914.3159    861.7859 307.5389858  +6.3465448     5266.989     8359.033     9320.603     82.60058      165.399     330.9297      1.727     4.19     973.3657     58.36075     797.8066        30     1.628     0.976 -33.47   0
       105    681.8064    862.7789 307.6355173  +6.3383704     3452.753      5577.82     5853.308     82.60057      165.399     330.8967      1.694     3.96     981.1005     58.36075     669.7531        25     1.548     0.937 -42.51   0
       106    753.0402    859.7161 307.6060361  +6.3420157     711.8263     1091.646     879.2534     82.99548     165.5307     331.0285      1.462     3.94     979.0549     58.36075     126.3308         7     1.108     0.432 -58.55   0
       107    656.6515    856.8011 307.6461657  +6.3399974     3291.589     5266.594      5639.99     82.33625     165.2011     330.6331      1.702     4.20     981.5125     58.36075     529.2518        22     1.527     0.860 -32.00   0
       108    646.3569    856.3347 307.6504569  +6.3398457     708.7944     726.8059      1288.79     82.99548     165.5307     331.1272      0.977     3.48     981.7728     58.36075     150.2169         5     1.035     0.337 -43.60   3
       109    649.2170    851.8007 307.6494218  +6.3418134     2087.497     3642.637     3802.663     82.60057     165.1352      330.765      1.886     8.44     981.5018     58.36075     340.6703        21     2.263     0.880 -59.97   2
       110    844.9177    856.0078 307.5680025  +6.3466149      1537.49     2466.546     2458.157     82.60058     165.2011     330.9626      1.584     4.01     975.6151     58.36075      253.988        15     1.347     0.737 -36.49   0
       111    971.6425    855.5461 307.5153863  +6.3510327     793.5164     1056.848     1314.527     82.99548     165.5965     331.0943      1.520     4.44     971.7745     58.36075     122.6765         7     0.928     0.605 -69.53   0
       112    933.2736    849.6260 307.5315207  +6.3521977     3160.639     5106.062     5087.648     82.60058     165.4648     331.0285      1.707     4.34     972.4604     58.36075     481.6778        25     1.580     0.935 -37.87   0
       113    342.6843    850.3699 307.7767744  +6.3321371     921.3257     1111.869     906.1056     82.99548      165.399     330.9626      1.417     4.70     990.7965     58.36075     144.6594         9     1.158     0.541 -40.45   0
       114    391.2726    845.4309 307.7567626  +6.3358058     2581.684     4214.066     4446.283     82.86405     165.5965     331.0943      1.759     4.64       988.85     58.36075     367.3772        23     1.651     0.859 -37.44   0
       115    527.6310    835.1979 307.7004776  +6.3445996     2683.411     4480.325     4278.283     82.33625      165.399     330.8638      1.782     4.55      984.858     58.36075     445.4814        24     1.612     0.977 -39.73   0
       116    872.1236    834.4220 307.5574289  +6.3564354     1123.908     1757.252      2038.67     82.60058     165.4648     331.0285      1.974     5.05     974.2344     58.36075     144.2682        11     1.233     0.769 -58.67   0
       117    592.3165    833.7419 307.6736619  +6.3473660     819.6385     1282.035     936.5814     82.99548     165.5965     331.1601      1.654     4.68     982.3009     58.36075      130.201         7     0.979     0.635 -79.10   0
       118    574.4619    831.4531 307.6811544  +6.3477135     5967.091       9522.4     10557.49     82.99548     165.5307     331.0614      1.762     4.42     982.9546     58.36075     913.8764        33     1.665     1.007 -35.68   0
       119    285.0191    832.1907 307.8013370  +6.3377079     627.5256     973.6071     614.7529     82.60058     165.2671     330.9297      1.623     4.18     991.6203     58.36075     106.2883         6     0.919     0.543 -89.62   0
       120    580.8141    830.9857 307.6785319  +6.3481191     1216.214      1861.38     2425.629     82.73242     165.2671     331.0285      1.639     4.38     982.6363     58.36075     186.7689        10     1.119     0.607 -58.78   1
       121    910.2577    829.6760 307.5417501  +6.3596672     1322.046      1948.26     1804.023      83.1267     165.5965     331.0285      1.620     5.87     972.7669     58.36075     197.9373        13     1.469     0.770 -29.18   0
       122    492.1324    830.4539 307.7153806  +6.3453695      1474.35     2166.694     2127.208     82.99548     165.5307     330.9955      1.593     4.31      985.498     58.36075     225.4027        15     1.392     0.783 -27.23   0
       123    709.6920    829.0489 307.6250717  +6.3532291     721.5372     1167.332     1340.124     82.86405      165.399     331.2589      1.544     4.76     979.1769     58.36075     143.1237         7     1.329     0.484 -58.88   0
       124    134.0303    829.3986 307.8641359  +6.3337891      1283.94     2140.833     1882.843     82.33625      165.399     330.8967      1.713     5.32     991.5929     58.36075     221.3812        16     1.443     0.863 -36.86   0
       125    545.1405    825.3004 307.6935395  +6.3492723     18409.01     29743.87     31390.64     82.73242     165.5965      331.226      1.712     4.26     983.9853     58.36075     2960.455        47     1.723     1.073 -34.91   0
       126    958.6852    823.6389 307.5218394  +6.3637749     3593.534     5518.244      5352.44     82.99548     165.5307     331.0943      1.655     4.15     971.5185     58.36075     646.8293        22     1.528     0.877 -35.03   0
       127    191.3303    824.9039 307.8404919  +6.3375703     575.6918     894.3543     1179.977     82.86405     165.7281     331.0943      1.551     4.15     991.6153     58.36075     96.08569         5     1.037     0.475  26.61   0
       128    337.7578    814.1591 307.7800439  +6.3469223     2901.114     5302.871     5892.021     82.73242     165.5965     330.9626      1.952     4.83     989.7164     58.36075     438.0329        29     1.822     1.019 -38.10   0
       129     55.5547    815.9664 307.8971808  +6.3366959     1340.563     2193.343     2188.247     82.60057     165.5307     330.9626      1.729     4.53     991.6797     58.36075     250.6553        17     1.497     0.758 -43.31   0
       130    803.2825    809.8252 307.5868479  +6.3642930     53757.07     84052.88     88620.45     82.73242      165.333     331.0943      1.677     4.09     975.4608     58.36075     8427.801        67     1.724     1.108 -34.90   0
       131     37.5759    812.1863 307.9047753  +6.3376517      2086.14     2973.214     2660.047     82.73242      165.399     331.0285      1.588     4.20     991.7838     58.36075     329.5742        18     1.371     0.796 -43.56   0
       132    741.4507    811.8442 307.6124607  +6.3613940      614.681     966.2469     1131.411      83.1267     165.5307     331.1272      1.447     4.34      977.875     58.36075     114.1754         7     1.091     0.493 -41.76   0
       133    723.6378    810.6219 307.6199000  +6.3613034     1686.322     2041.237     2707.811     82.60058      165.333     330.8638      0.842     1.83     978.2374     58.36075     549.1073         5     0.679     0.422  26.68   0
       134    260.3188    786.2169 307.8131497  +6.3558600     742198.4      1895666      2134317     82.60058     165.2671     330.9626      2.443    11.62     990.6873     58.36075     63482.93       615     2.697     2.227 -61.98   4
       135    928.5198    805.1157 307.5349905  +6.3704170     8429.024     12974.32      13628.3     82.86405     165.9253     331.1931      1.689     3.97     971.5093     58.36075     1419.115        32     1.654     0.929 -35.22   0
       136    731.5423    804.4075 307.6168262  +6.3641334     20312.25     32731.35     35007.42     82.33625     165.4648     330.8638      1.757     4.16     977.8366     58.36075      3409.54        53     1.753     1.089 -35.34   3
       137    725.2255    800.9232 307.6195671  +6.3653609     83628.41     133275.9     141114.3     82.60057     165.5965     331.0614      1.688     4.12     977.8551     58.36075     12390.66        80     1.777     1.130 -36.36   3
       138    370.1210    801.8353 307.7670196  +6.3530960     18970.55     31118.96     33468.34     82.86405     165.6623     331.0943      1.735     4.01        988.3     58.36075      2800.85        52     1.760     1.117 -33.34   0
       139    419.1378    801.8760 307.7466608  +6.3547227     1332.693      2071.08     2130.989     83.25771     165.5965     331.0943      1.623     5.55     986.9779     58.36075     213.0237        14     1.492     0.761 -40.72   0
       140    658.8890    801.4270 307.6471018  +6.3629353      709.639     1225.943     1462.458      83.1267      165.333     330.9626      2.187     5.35     978.9753     58.36075     149.2043         6     1.343     0.601 -35.83   0
       141    432.0371    799.6677 307.7413781  +6.3560669     20421.24     33476.56     35641.39     82.86405     165.5965      331.226      1.735     4.19     986.4531     58.36075     3351.952        48     1.719     1.099 -33.55   0
       142    968.9711    798.5509 307.5184098  +6.3744764     1968.585     2949.912     2304.877     82.60057     165.6623     330.9955      1.628     5.08     970.9475     58.36075     326.1333        16     1.376     0.806 -50.78   0
       143    925.4456    796.4979 307.5365568  +6.3738726     6595.133      10168.7     11168.44     82.99548     165.4648     331.2917      1.720     4.30     971.4354     58.36075     1124.391        31     1.615     0.934 -35.73   0
       144    897.3614    798.2332 307.5481631  +6.3722194      706.614     1081.448     750.0161     82.73242      165.399     330.8638      1.185     1.99     972.4396     58.36075     159.1511         5     0.676     0.459  73.30   0
       145    666.0211    795.5383 307.6443380  +6.3656051     6205.529      9886.18     10439.36     82.60057     165.5965     330.9955      1.667     4.18     978.7189     58.36075     1104.715        32     1.631     0.978 -34.55   0
       146    454.7356    793.6876 307.7321529  +6.3592966     1522.559      2511.28     2087.326     82.99548     165.7939     331.1272      1.760     5.21     985.4193     58.36075     244.2881        17     1.426     0.932 -37.56   0
       147    179.2720    793.3060 307.8465691  +6.3502110     867.8188     1165.007     857.0842     82.86405     165.6623     331.1601      1.425     3.12     991.1906     58.36075     131.8768         8     0.956     0.549 -68.18   0
       148    971.8969    790.8443 307.5174534  +6.3777559     2102.893     2340.026     3122.505     82.99548     165.5307     331.2589      0.547     1.06     970.5085     58.36075     1262.992         5     0.526     0.300  83.70   0
       149    893.2930    787.5773 307.5502110  +6.3764833     768.6259     952.2859     686.6416     82.99548      165.399     330.9297      1.464     4.64     972.1851     58.36075     128.2734         8     1.268     0.482 -69.96   0
       150    619.2291    787.8734 307.6640304  +6.3672048     808.6478     1156.088     770.6408     82.86405     165.5965     331.0614      1.457     4.54      979.161     58.36075     111.1379         8     1.131     0.518 -33.50   0
       151    701.0941    785.6637 307.6301035  +6.3708548     2254.204     3645.091     3897.082     82.86405     165.6623     331.1601      1.728     4.51     977.6777     58.36075     384.3275        21     1.558     0.817 -36.95   0
       152    445.9187    808.5493 307.7353130  +6.3528650     748.6765     1210.727     1073.966     82.99548     165.6623     331.0943      1.572     2.63     986.1865     58.36075     161.8102         7     0.843     0.613 -72.32   0
       153    170.1622    786.4863 307.8505833  +6.3527205     935.1071     1440.032     1487.187     82.99548     165.5307     331.0943      1.640     4.91     991.0963     58.36075     148.5415        10     1.234     0.666 -43.70   0
       154    145.3997    785.8423 307.8608890  +6.3521542     951.5222     1492.531     756.5485     82.20377     165.2671      330.699      1.587     5.50     991.1161     58.36075      139.022        11     1.420     0.602 -48.72   0
       155    972.2413    785.0889 307.5175037  +6.3801437     8209.726     8914.623     9338.751     82.99548     165.5307     331.1272      0.833     2.37     970.2031     58.36075       3334.1         9     1.008     0.313 -64.80   0
       156    434.9548    782.3461 307.7407512  +6.3633163     49551.12     81161.59     86336.56     82.99548     165.5965     331.1272      1.760     4.07     985.7154     58.36075     7880.696        71     1.803     1.154 -34.56   0
       157    976.9411    784.8402 307.5155599  +6.3804031     568.1342     821.6995     1728.931     82.99548     165.5965     331.1601      1.415     3.85     970.1047     58.36075     109.0342         5     0.859     0.495  65.06   0
       158    552.6640    781.3704 307.6918963  +6.3676620     6451.919     10387.31     10652.04     82.73242     165.5965     331.0285      1.720     4.05     981.4653     58.36075      1116.48        33     1.618     1.013 -35.63   0
       159    469.7708    779.9921 307.7263707  +6.3654549     3882.635     6963.833     7830.507     82.60058      165.399     330.8638      1.963     4.67     984.4303     58.36075     657.3882        30     1.874     1.010 -29.66   0
       160    797.8964    777.9878 307.5901559  +6.3772584     10731.23     17493.48     18480.99     82.86405      165.333     330.8638      1.717     4.10     974.4888     58.36075     1831.114        40     1.695     1.026 -34.29   0
       161     26.8372    774.2302 307.9105215  +6.3529609     1081.302     1586.413     1812.568     82.60057      165.333     330.9626      1.482     4.05     991.2616     58.36075     208.3208        11     1.255     0.620 -42.97   0
       162    466.0411    773.3919 307.7281425  +6.3680550     2118.162     3464.287     4226.585     82.33625      165.399     330.8308      1.770     4.38     984.3409     58.36075     331.6607        20     1.466     0.900 -30.51   0
       163    819.4828    772.0872 307.5813886  +6.3804155     1260.977     1975.496     1844.682     82.73242     165.7939     331.1601      1.576     3.72     973.6125     58.36075     219.3882        12     1.218     0.732 -41.58   0
       164    155.6650    770.0040 307.8571621  +6.3590383     10359.78     17532.66     19198.46     82.20377      165.333     330.8638      1.792     4.06     990.9165     58.36075     1731.422        45     1.714     1.134 -36.11   2
       165    147.8874    767.4505 307.8604786  +6.3598311     2637.506     4745.633     5782.621     82.99548     165.4648      331.226      2.068     4.69     990.8762     58.36075     446.8116        26     1.608     1.056 -29.93   3
       166    163.7900    770.1436 307.8537829  +6.3592538     2812.081       4770.7     5233.755     82.33625     165.5307      330.765      1.802     3.85     990.8996     58.36075     473.1424        24     1.485     0.972 -40.55   0
       167    992.6396    766.4144 307.5096583  +6.3885342     1332.413     2221.881     2436.112     82.60058      165.399     330.8638      1.871     4.75     968.5643     58.36075     250.4703        14     1.388     0.897 -32.18   0
       168    943.3241    766.5334 307.5301377  +6.3868409     6444.784     9931.569     9916.403      83.1267     165.6623     331.0614      1.670     4.08     970.1959     58.36075     983.0914        30     1.602     0.927 -36.58   0
       169    698.6396    764.3145 307.6318419  +6.3795875     1767.639     2350.096     2573.515     82.99548     165.5307     331.0943      1.462     3.59     976.8394     58.36075     262.4396        17     1.285     0.824 -28.04   0
       170    585.5465    763.5859 307.6788387  +6.3761055     2204.677     3775.938      3890.58     82.33625     165.5307     330.8308      1.816     4.36     979.4996     58.36075     347.7488        21     1.482     0.929 -42.32   0
       171    433.2852    763.1712 307.7420920  +6.3711772     975.6282     1719.414     1497.128      83.1267     165.2671     330.9297      1.812     6.45     985.1183     58.36075     167.9067        13     1.549     0.753 -44.85   0
       172    147.7758    760.9642 307.8607446  +6.3625054      1797.04     3217.119     3740.392     82.60057      165.399     330.8638      1.845     4.44     990.8004     58.36075     291.1293        20     1.564     0.901 -44.63   0
       173    937.6328    758.5468 307.5327700  +6.3899487     2983.115     4313.638     4862.989     82.86406     165.5307     331.0285      1.616     4.04     970.1216     58.36075     552.2278        20     1.514     0.846 -31.59   0
       174    997.8599    757.7365 307.5077814  +6.3922912     1893.203     2967.185     2995.331     82.99548     165.5307     331.1272      1.657     3.79     967.8625     58.36075     394.8522        18     1.552     0.763 -36.63   0
       175    967.0806    758.0308 307.5205559  +6.3911437     3071.826     4576.218     4711.544     82.86405     165.5307     331.0614      1.573     3.71     969.0148     58.36075     487.1173        23     1.431     0.926 -31.58   0
       176    689.8127    757.7905 307.6357278  +6.3819860     1185.224     1686.499     1926.354     82.60057      165.399     331.0285      1.649     5.45      976.857     58.36075     201.8055        15     1.541     0.814 -42.54   0
       177    837.0506    755.9227 307.5746355  +6.3876761     1071.471     1735.245     1646.293     82.99548     165.6623     331.0614      1.730     5.75     972.3342     58.36075      199.832        12     1.412     0.660 -60.31   0
       178    912.1533    753.9894 307.5435062  +6.3909805       799.86     1021.473     1626.175     82.46852      165.399      330.732      1.302     3.54     970.5812     58.36075     142.3944         8     1.024     0.528 -38.70   0
       179    262.5764    752.7779 307.8133430  +6.3697417     1724.942     3006.913     3691.451     82.60058      165.399     331.0614      1.958     4.60     989.3669     58.36075     271.0402        19     1.545     0.869 -35.88   0
       180    955.1277    748.1241 307.5258534  +6.3948355     898.5297     1455.545     1149.044     83.25771     165.8596     331.0943      1.528     5.51      969.062     58.36075     145.0848        11     1.418     0.604 -47.19   0
       181    282.6383    748.8312 307.8051443  +6.3720447     653.0269      1034.75     991.8564     82.60058      165.333     330.9297      1.833     4.14      988.817     58.36075     97.87836         6     0.754     0.651 -11.40   0
       182    981.9106    745.9452 307.5148020  +6.3966281     2390.356     3932.602     4437.951     82.99548     165.4648      331.226      1.684     4.34     967.7687     58.36075      381.288        22     1.545     0.996 -39.88   0
       183    929.0932    746.7997 307.5367116  +6.3945141     1116.231     1675.464     1670.484     82.46852     165.1352      330.732      1.616     5.20      970.174     58.36075     192.5676        12     1.365     0.617 -44.41   0
       184    177.4831    748.0889 307.8488426  +6.3688195     675.3715     818.6913     317.2219     82.73242     165.7939     331.1272      1.153     3.71      990.464     58.36075     110.7107         6     0.793     0.499 -86.92   0
       185    701.2250    744.9706 307.6314195  +6.3876606      921.623     1343.175     2117.123     82.46852      165.399     330.9626      1.606     4.78     976.0142     58.36075     136.9623         9     1.056     0.614 -38.76   0
       186   1023.1229    739.4358 307.4979025  +6.4006893     1732.932     2105.816     2101.842     78.68104     140.1436     258.4795      1.341     3.49     965.3383     58.36075     300.1992        12     1.152     0.665 -70.91  24
       187    824.8299    737.9965 307.5803143  +6.3946696     1106.182     1739.468      1679.42     82.46852      165.399     330.9297      1.661     5.71     971.9881     58.36075     153.6847        12     1.335     0.801 -45.90   0
       188    649.3528    738.7887 307.6531729  +6.3884786     536.5162     624.2914     372.1105     82.46852     165.4648      330.765      1.201     4.42     977.2178     58.36075     97.29895         7     1.004     0.554 -27.72   0
       189    911.6151    734.7958 307.5443748  +6.3988874     1320.203     2359.811     2332.405     82.60058     165.2011     330.9297      1.775     4.32     969.9771     58.36075     264.0133        14     1.519     0.814 -41.81   0
       190    885.4648    730.4838 307.5553816  +6.3997953     863.7396     1297.836     1571.881      83.1267     165.8596     331.1601      1.669     5.32     970.0538     58.36075     157.7874        11     1.364     0.843 -52.95   0
       191    868.2237    726.2360 307.5626857  +6.4009738     1550.178     2432.147     2435.691     82.60058      165.333     330.8638      1.709     4.57     970.1595     58.36075     228.5901        12     1.336     0.645 -39.06   0
       192     67.3607    725.2943 307.8953504  +6.3745282     2283.875     3874.692     4255.169      83.1267     165.5307     331.1931      1.914     5.44     990.3827     58.36075     317.3276        25     1.727     0.930 -39.97   0
       193    130.9944    723.0702 307.8689974  +6.3775864     724.3728     1339.217     1252.658     82.46852     165.2011     330.9297      2.441     4.92     990.0978     58.36075     91.83728         8     0.892     0.768 -20.41   0
       194    680.0220    713.8829 307.6412733  +6.3997874     5851.474     9571.011     10437.36     82.73242     165.2671     330.9626      1.739     4.20     975.4395     58.36075     906.8528        36     1.662     1.082 -32.83   0
       195    626.7223    713.2375 307.6634336  +6.3982712     1362.714     2525.826     2998.152     82.86405     165.6623     331.0943      1.899     4.88       976.78     58.36075     211.2228        17     1.475     0.817 -32.85   0
       196    547.9057    713.9313 307.6961470  +6.3953469     669.9818     965.3354     978.2269     82.86405     165.7281     331.1272      1.295     3.01     978.4737     58.36075     136.3311         6     0.911     0.437 -54.12   0
       197    537.0394    713.8894 307.7006618  +6.3950004     688.0871     851.5202     605.1829     82.99548     165.5965     331.1272      1.394     3.98     978.8969     58.36075     108.7735         6     0.764     0.594 -50.44   0
       198    142.9265    709.7808 307.8644918  +6.3834743     3200.222     5583.502     5518.562     82.60057     165.5307     331.0285      1.811     4.32     989.6041     58.36075     473.9951        28     1.666     1.043 -34.75   0
       199   1016.9340    709.1450 307.5014901  +6.4129899     2550.144     4262.233     4538.296     82.99548     165.5307      329.841      1.766     4.37     965.1115     58.36075     406.4553        23     1.621     0.863 -34.20  16
       200    264.7719    710.0856 307.8138751  +6.3874418     694.0577     1191.874      1427.07      83.1267     165.2671     330.9297      1.961     4.89     987.5017     58.36075     95.89429         9     1.032     0.656 -62.36   0
       201    653.7271    709.4451 307.6523447  +6.4007404     1875.675     2984.509     3303.413     82.86405     165.6623     331.1272      1.671     4.24     975.9174     58.36075     329.6992        17     1.404     0.815 -35.79   0
       202    796.8694    705.9708 307.5930055  +6.4069589     18860.91     30186.06     31871.96     82.73242     165.5965     331.0284      1.689     4.02     971.6562     58.36075     3295.729        50     1.727     1.042 -33.75   0
       203    495.7938    706.4211 307.7180452  +6.3967025     1374.548     2366.051     2787.724     82.60058      165.399     330.8967      1.830     5.42     980.3518     58.36075     203.3834        17     1.465     0.887 -39.87   0
       204    926.9056    705.7256 307.5390005  +6.4114002     3454.302     5517.144     5633.712     82.73242     165.7939     331.0943      1.647     4.19      968.416     58.36075     621.0586        25     1.548     0.881 -39.13   0
       205    524.3840    705.7623 307.7061924  +6.3979321     792.3682     1221.673     1097.519     82.73242      165.399     330.8308      1.668     6.32     979.1156     58.36075     115.8334        11     1.421     0.791 -38.29   0
       206    270.4736    699.5927 307.8118619  +6.3919655     5434.343     9183.815     9637.406     82.60058     165.1352     330.9626      1.810     4.14     986.9237     58.36075      834.776        35     1.683     1.070 -37.11   0
       207    677.4606    698.7900 307.6428456  +6.4059333     6373.374     10615.02     10959.78     82.33625     165.4648     330.7979      1.772     4.11     974.8806     58.36075     1031.242        35     1.713     1.025 -36.10   0
       208    659.6631    699.7316 307.6502063  +6.4049494     758.8669     1308.838     1116.953     82.99548     165.5307     331.1601      1.804     5.30     975.3837     58.36075     135.5345         8     1.371     0.674 -36.79   0
       209    372.1601    699.4051 307.7696334  +6.3954552     627.1884     1063.431     950.5601     82.20377      165.333     330.7979      1.659     4.63     984.3596     58.36075     131.1281         5     0.960     0.634  81.67   0
       210    936.6608    691.6163 307.5354225  +6.4175511      1127.93     1562.107     1643.017     82.46852     165.5307     330.8967      1.346     3.58     967.4069     58.36075     211.0352        12     1.226     0.659 -39.39   0
       211    749.0251    687.2242 307.6135095  +6.4131008     3371.653      5728.21     6663.336     82.46852      165.399     331.0285      1.797     4.08     972.7396     58.36075     470.0775        29     1.631     0.984 -42.84   0
       212    704.0449    687.7250 307.6321761  +6.4113907     904.6492     1147.678     726.3943     82.86405     165.6623     331.1272      1.241     4.38     973.8834     58.36075     147.6459         7     1.222     0.448 -45.89   0
       213   1015.4844    683.7827 307.5029437  +6.4234134     8619.111     13566.47     13595.29     82.60058     165.2671     331.0285      1.724     4.08     964.8429     58.36075      1462.26        34     1.708     0.964 -37.84  16
       214     14.8236    685.9769 307.9185029  +6.3889931     670.6956     1072.538     1442.506     82.46852      165.399     331.0614      1.858     4.69     990.6533     58.36075     112.5279         7     1.356     0.461 -21.03   0
       215    954.0191    684.0994 307.5284647  +6.4212336     2246.756     3544.447     1909.801     82.99548     165.4648     330.8638      1.629     4.65     966.5519     58.36075     400.2164        19     1.601     0.812 -32.41   0
       216     34.2597    683.8375 307.9105031  +6.3905305     1643.204     2824.694     3301.253     82.99548     165.6623     331.0943      1.918     4.66     990.4551     58.36075     245.6216        21     1.443     1.122 -20.68   0
       217     92.8689    678.6026 307.8863383  +6.3946635     21905.88     38293.38     40990.98     82.33625     165.2011     330.8638      1.861     4.42     989.7558     58.36075     3454.014        58     1.802     1.201 -36.61   0
       218    554.0664    679.7155 307.6947422  +6.4096802     1854.503     3217.515     3734.486      83.1267     165.8596     331.1601      1.907     5.29     976.9459     58.36075     250.6034        21     1.738     0.872 -32.24   0
       219    522.6201    676.7213 307.7079049  +6.4098635     1130.796     1952.498     2522.037     82.60058     165.2671     331.0614      1.922     5.64      977.801     58.36075     176.6081        16     1.491     0.974 -29.60   0
       220    943.8288    675.5421 307.5329851  +6.4244271     1006.733      1570.21     1609.798     82.60058     165.6623     330.9955      1.674     5.76     966.4774     58.36075      194.389        12     1.505     0.685 -32.18   0
       221    562.6761    673.4566 307.6913771  +6.4125526      921.931     1134.939     1251.109     82.99548     165.5307     331.0285      1.375     3.21     976.5416     58.36075     159.4198         8     0.980     0.633 -36.65   0
       222    738.8328    670.8099 307.6182957  +6.4195374     3273.317     5354.275     5642.341     82.46852      165.333     330.9297      1.714     4.39     972.6971     58.36075     555.9552        25     1.590     0.920 -33.81   0
       223    760.8059    669.0642 307.6092273  +6.4209924     3780.122     6409.185     6206.553     82.33625      165.333     330.8638      1.747     4.41     971.6979     58.36075     642.3459        26     1.542     1.045 -33.65   0
       224    592.3061    667.0629 307.6792854  +6.4161843     2970.736     4852.094     4889.936     82.99548     165.6623     331.1601      1.738     4.07     975.9938     58.36075     416.7144        26     1.636     0.925 -33.59   0
       225    428.1133    667.6953 307.7474641  +6.4104236     1101.003     1621.927     1197.514     82.99548      165.991     331.1601      1.574     4.52     981.7812     58.36075     184.6328        10     1.218     0.753 -26.73   0
       226    336.4157    666.0389 307.7856075  +6.4080322     1235.331     2136.513     2462.047     82.60057      165.399     330.8638      1.890     4.82     984.3522     58.36075     198.2103        16     1.390     0.858 -47.37   0
       227    252.5813    666.3469 307.8204179  +6.4050910     1613.071     2768.114     2848.363     82.46852     165.6623     330.8638      1.910     5.16     985.9539     58.36075     217.4797        19     1.444     0.980 -31.13   0
       228    999.0636    664.1439 307.5104241  +6.4309748      7770.13     12254.86     12629.26      83.1267     165.5307     331.0943      1.644     4.24     964.6498     58.36075     1296.263        35     1.653     1.004 -32.79   0
       229    552.9462    664.9506 307.6957055  +6.4157388     466.4504     574.6735     955.2822     82.99548     165.5965     331.1272      1.459     3.92     976.4864     58.36075     88.38037         5     1.251     0.352 -65.04   0
       230    718.8030    662.7068 307.6268885  +6.4222136     872.0381     1204.495      1420.09     82.73242     165.2671     330.8308      1.393     5.09     972.7849     58.36075     164.7518         9     1.237     0.684 -48.85   0
       231    109.9373    661.2130 307.8798383  +6.4024171      780.627      1111.81     1440.575     82.46852      165.399     330.8638      1.449     3.39     988.8108     58.36075     145.7037         7     0.998     0.513 -70.33   0
       232    444.2513    658.4996 307.7410715  +6.4147612     2543.284     4475.361     4933.991     82.99548     165.5965     331.3246      1.909     4.24     980.5372     58.36075     417.0044        25     1.602     0.974 -51.98   0
       233    157.5798    657.5421 307.8601746  +6.4055345     20901.27     36010.65     38181.93     82.60058     165.4648     330.8967      1.855     4.12     987.6002     58.36075     3368.124        59     1.796     1.234 -38.39   0
       234    825.7631    658.1635 307.5826121  +6.4276627     1303.113     1940.558     2057.592     82.73242     165.4648     330.8967      1.534     4.41     969.4717     58.36075     221.0919        14     1.339     0.713 -31.09   0
       235    618.8992    652.7645 307.6687213  +6.4229776     593.2199     653.4145     707.7445     82.99548     165.4648     331.2589      1.359     4.41     974.9937     58.36075     89.74323         5     0.824     0.670 -38.01   0
       236    376.4882    653.0131 307.7694032  +6.4147544     624.1206     1053.469     1555.472     82.73242      165.333     330.9626      1.863     3.42     982.8703     58.36075     101.5256         6     0.788     0.500 -89.09   0
       237    994.0892    647.0780 307.5130636  +6.4378553     6418.183     11163.48     11374.72     82.73242     165.8596      331.226      1.856     4.39     964.0274     58.36075      1002.45        38     1.618     1.237 -28.86   0
       238     38.3998    646.3228 307.9100553  +6.4061582     1045.327      1802.68     1625.886     82.20377      164.937     330.7979      1.934     4.82     990.2284     58.36075     126.2944        12     1.117     0.800 -71.78   0
       239    587.5840    642.3880 307.6820788  +6.4262140     43271.71     72557.33      77186.9     82.73242     165.2011     331.0285      1.814     4.25     975.3164     58.36075     6483.529        71     1.809     1.193 -36.57   0
       240    230.8047    643.3278 307.8302417  +6.4138635     553.9235      1022.58     1931.732     82.60058     165.1352     330.9955      2.117     4.67     985.6792     58.36075     90.83527         6     1.204     0.513 -46.37   0
       241    811.6716    642.0942 307.5890062  +6.4338269      602.402     827.5692      472.131     82.86405     165.6623     331.1272      1.595     5.26      969.458     58.36075     96.02179         6     1.041     0.749  83.54   0
       242    546.4368    641.9822 307.6991841  +6.4250041     687.3846     1177.508     693.4457     82.46852      165.399     330.8638      1.683     6.19      976.093     58.36075     109.8723        10     1.342     0.803 -35.46   0
       243    195.3030    638.8550 307.8451389  +6.4145175      2351.33     4303.322     4690.502     82.86405     165.5965     331.2917      2.002     5.59     986.3379     58.36075     323.1595        29     1.784     1.140 -32.82   0
       244    998.0253    638.7725 307.5117075  +6.4414158     665.0634     785.7599        391.6     82.46852      165.399     330.9626      1.306     4.49     963.5357     58.36075     107.0299         7     0.884     0.649 -52.74   0
       245    517.1740    639.0996 307.7114365  +6.4252143     614.6478     1082.272     1109.708     82.99548      165.333     330.9955      2.005     5.28     977.0148     58.36075     101.0703         6     1.150     0.684 -12.04   0
       246     87.6521    633.3218 307.8900393  +6.4131829     1255.202     2207.483       1861.9     82.99548     165.5965     331.0943      1.796     5.27     988.2625     58.36075     205.2901        15     1.600     0.865 -34.11   0
       247    484.8364    626.1745 307.7253049  +6.4294675     52874.78     92196.23      99011.9     82.60057      165.399     330.8638      1.853     4.30     977.7564     58.36075     7270.917        82     1.841     1.273 -37.55   0
       248     27.9932    627.8679 307.9150033  +6.4134273     1601.616     2631.393     2976.293     82.46852      165.333     330.9297      1.732     4.32     990.5209     58.36075     262.8107        18     1.439     0.862 -40.69   0
       249    670.0536    623.5934 307.6484557  +6.4367330      619.694     807.9061     500.8906     82.46852      165.333     330.7979      1.436     4.06     972.7848     58.36075     114.7914         7     1.118     0.440 -53.68   0
       250    159.3194    620.9481 307.8606912  +6.4207014     1362.766     2613.048     2321.074     82.99548     165.5965     331.0943      1.882     5.97     986.6534     58.36075     248.0094        16     1.624     0.835 -31.09   0
       251    438.3442    619.0406 307.7448576  +6.4308548     904.8701     1312.408      1157.78     82.86405     165.6623     331.1272      1.633     4.54      979.053     58.36075     124.5078         8     1.162     0.503 -26.58   0
       252    629.9219    618.0325 307.6653134  +6.4376866     777.3685     1018.869     821.3737     82.86405     165.5965     331.0614      1.393     2.63     973.6187     58.36075     157.3183         8     0.818     0.728 -74.73   0
       253     30.4450    616.8918 307.9143571  +6.4180414     593.4832     1162.886     1206.528     82.99548     165.5307      331.226      2.279     4.60     990.4235     58.36075     89.19427         5     0.857     0.700  42.98   0
       254    330.0012    615.3547 307.7899852  +6.4287430     1888.563     3257.475      3521.57     82.33625     165.2671     330.6661      1.883     4.95     982.3114     58.36075     281.3573        20     1.465     1.010 -24.52   0
       255    481.7798    614.3597 307.7269734  +6.4342431      770.684     1235.539     1465.536     82.60058      165.399     330.8308      1.612     4.34     977.5159     58.36075      121.256         8     1.090     0.492 -55.61   0
       256    756.8389    609.6675 307.6128746  +6.4453838     4716.344     7548.848     7466.136     82.86405     165.5307     331.1931      1.694     4.25     970.0332     58.36075     784.7969        28     1.621     0.920 -37.09   0
       257    810.4691    604.9638 307.5907549  +6.4491174     12697.23     20772.02     21877.54     82.86405     165.6623     331.1931      1.770     4.38     968.8702     58.36075     1994.993        46     1.761     1.058 -35.02   0
       258    552.5002    604.9042 307.6979162  +6.4405158     1097.634     1995.041      2392.24     82.99548     166.1222     330.9297      1.989     4.96     975.0881     58.36075     180.8779        13     1.249     0.943 -39.23   0
       259    634.0895    603.1722 307.6640831  +6.4439616     2662.581     4379.691     4342.628     83.12669      165.333     330.9955      1.735     3.95     973.0726     58.36075       422.79        26     1.621     0.999 -35.51   0
       260    951.3943    599.0712 307.5324119  +6.4562533     1036.696     1587.703     1996.531     82.46852     165.2011     330.9955      1.671     5.90     963.7625     58.36075     147.6312        13     1.493     0.673 -41.10   0
       261    392.5499    596.6552 307.7646358  +6.4385618     1038.562     1658.189      1661.92     82.99548     165.5965     331.1272      1.762     4.58     979.7037     58.36075     160.2205        10     0.924     0.836 -21.90   0
       262    377.1532    596.5736 307.7710341  +6.4380791      507.824     794.9352     876.3597     82.60058     165.6623     330.9955      1.829     5.28     980.2726     58.36075     86.52075         5     1.040     0.757  81.43   0
       263    247.0020    596.3080 307.8251049  +6.4338205     1075.076      2138.51     2331.856     82.33625     165.2671     330.8308      1.971     6.75     983.4361     58.36075     170.9438        18     1.756     0.976 -34.45   0
       264    886.4673    588.0731 307.5597529  +6.4586284     2711.753      4398.36     4828.752      83.1267     165.7281     331.0614      1.764     4.26     965.8144     58.36075     427.0032        20     1.533     0.826 -36.66   0
       265    845.1087    585.7979 307.5770102  +6.4581873     2342.621     3832.822     4187.484     82.33625     165.2671     330.8638      1.703     4.48     967.1358     58.36075     369.3485        22     1.542     0.954 -38.42   0
       266    181.0515    588.0201 307.8527794  +6.4350266     643.5519     1231.217     2158.879     82.46852     165.6623     330.8967      2.533     5.15     985.1904     58.36075     99.28491         7     1.216     0.617 -21.16   0
       267    816.2172    581.5898 307.5891536  +6.4589601     2231.344     4012.321     4237.491     82.73242      165.333     330.9626      1.898     5.29     967.8802     58.36075     359.5176        26     1.695     1.029 -32.39   3
       268    825.8187    576.8458 307.5853247  +6.4612395     141250.4       234696     249853.6     82.60057     165.4648     330.8638      1.771     4.22     967.4066     58.36075     24253.19       123     1.846     1.258 -37.53   2
       269    273.2422    580.5428 307.8147387  +6.4412107      6535.72     11500.77     11549.96     82.86405     165.5307     331.1272      1.858     4.38     982.2153     58.36075     968.5523        40     1.757     1.158 -38.42   0
       270    207.4760    575.1121 307.8422403  +6.4412439     49783.87     87248.02     95112.77     82.99548     165.9253     331.1931      1.891     4.26      984.028     58.36075     6994.342        88     1.892     1.343 -38.93   0
       271    131.4642    571.3544 307.8739410  +6.4402404     5136.833     9286.623     9358.496     82.99548     165.5307     331.1272      1.933     4.56     985.9078     58.36075      718.738        37     1.772     1.159 -37.81   0
       272    996.5071    568.6306 307.5146938  +6.4703260     1220.549      1818.88     2039.324      83.1267      165.399     331.0614      1.764     4.21     960.2621     58.36075     249.3173        14     1.486     0.673 -42.23   0
       273   1016.6906    568.1703 307.5063247  +6.4711887     633.1066     1110.546     993.8857      83.1267      165.333     330.6331      1.841     2.90     959.3072     58.36075     118.6168         5     0.738     0.439 -75.92  16
       274    862.3675    564.0936 307.5705707  +6.4677249     4100.036     6483.939     6592.208      83.1267     165.4648     331.1601      1.688     4.33     965.9089     58.36075     599.5524        27     1.682     0.880 -35.45   0
       275    380.8481    562.2773 307.7706582  +6.4523631     14064.41      25045.5      26824.6     82.86405     165.6623     331.0614      1.918     4.40     978.6688     58.36075     1875.874        56     1.846     1.246 -36.70   0
       276    470.3890    562.7819 307.7334463  +6.4551567     656.1102     1209.523     1720.237     82.60058     165.2671     330.9955      2.742     6.75     976.1941     58.36075     107.7405        10     1.634     0.783 -49.70   0
       277    182.3817    561.2524 307.8531331  +6.4461229     1537.798     2883.306     4353.433     82.46852     165.6623     330.8308      2.741     6.16     984.4379     58.36075     234.5322        18     1.729     0.797 -38.05   2
       278    119.7274    558.8400 307.8792401  +6.4450125     904.7111     1612.515     1729.291     82.86405     165.5965     331.1601      1.647     5.67     985.9185     58.36075     120.7494        13     1.503     0.861 -53.04   0
       279    816.3677    557.5022 307.5899016  +6.4689106      5408.88     8847.218     9472.609     82.99548     165.4648      331.226      1.788     4.36     967.0448     58.36075     803.1117        34     1.659     1.044 -36.11   0
       280    257.6920    559.3734 307.8219142  +6.4494287     771.9112     1200.169     1069.684      83.1267      165.333     330.9297      1.583     4.09     981.9953     58.36075     121.0504         6     1.080     0.442 -52.04   0
       281    547.2461    557.1920 307.7017084  +6.4600392     5522.343     9604.809     10444.54     82.46852     165.4648      330.732      1.860     4.31     973.7797     58.36075     753.9298        36     1.733     1.105 -35.01   0
       282    405.3470    554.0063 307.7607610  +6.4565996     1130.524     2016.434     2019.497     82.46852      165.333     330.7979      1.898     5.94     977.8819     58.36075     142.9268        15     1.507     0.795 -45.98   0
       283    194.3531    550.2473 307.8485331  +6.4510688     5625.225     10313.46     11976.09     82.99548     165.4648     331.0943      2.062     4.56     983.7488     58.36075     803.7208        42     1.889     1.164 -34.06   0
       284    591.8746    550.1862 307.6834056  +6.4644259     1935.004     3621.054      3836.25     82.46852      165.333     330.8967      2.122     5.51     972.0591     58.36075     266.9443        23     1.802     0.858 -30.11   0
       285    874.7546    551.1040 307.5658616  +6.4735015     619.1027     859.4577     1102.049     82.99548     165.5307     331.2589      1.626     2.40     964.9512     58.36075     114.2998         5     0.814     0.644 -40.75   0
       286    832.9001    549.7797 307.5832935  +6.4726511     1328.522     2152.059     2247.683     82.99548     165.4648     330.8638      1.684     4.31     966.2828     58.36075     218.8289        15     1.353     0.797 -35.63   0
       287    289.4368    546.7766 307.8091539  +6.4556954     71739.05     128319.4     138282.8     82.60058      165.333     330.8638      1.921     4.46     980.6857     58.36075     10412.27        91     1.906     1.329 -38.13   0
       288     65.9143    549.0209 307.9019255  +6.4472563     4194.511     7756.877      8515.31     82.86405      165.333     330.9955      1.978     4.33     987.0818     58.36075     619.7717        39     1.775     1.215 -29.11   0
       289    579.3386    544.2572 307.6888132  +6.4664542     636.2831     1248.896     1325.394      83.1267     165.5307     331.1272      2.030     5.70        972.3     58.36075     97.62396         8     1.489     0.615 -29.77   0
       290    273.2569    541.6462 307.8160484  +6.4572704     1190.362     2000.258     2169.226     82.99548     165.5965     331.1931      1.809     5.59     980.9417     58.36075     159.7606        14     1.343     0.746 -48.67   0
       291    812.5422    539.2547 307.5921048  +6.4763169     14765.82     23774.88     24669.48      83.1267     165.6623     331.1272      1.756     4.24     966.4869     58.36075     2260.983        43     1.702     1.044 -37.88   0
       292    988.6899    540.6043 307.5188827  +6.4816371     1405.412     2331.489     2261.316     82.46852     165.2671     330.8308      1.788     4.59     959.2416     58.36075     235.9677        14     1.446     0.710 -27.52   0
       293    516.2089    537.6288 307.7152616  +6.4670769     34614.65     63920.71     70964.76     82.60058      165.399     330.8967      2.006     4.32     973.9879     58.36075     4646.521        82     1.989     1.383 -29.68   0
       294    666.3029    536.1463 307.6529604  +6.4727129     721.4731     1060.595     1232.862     82.86405     165.5965     331.3246      1.617     5.12     970.7398     58.36075     117.2648         7     1.117     0.664 -45.91   0
       295    228.4193    534.1296 307.8349280  +6.4588678     1658.124     2874.107      2768.81     82.60058     165.4648     331.0285      1.803     3.90     982.0807     58.36075     220.1125        22     1.337     1.091 -31.61   0
       296    676.0766    532.4863 307.6490236  +6.4745509     2610.177      4771.96     5571.015     82.99548     165.9253     331.1601      2.003     4.99     970.2836     58.36075      370.339        27     1.705     1.016 -46.24   0
       297     63.8218    534.3730 307.9032912  +6.4532335     1189.163     1878.837     2002.291     82.46852      165.399     331.0614      1.793     3.86     986.8266     58.36075     188.5806        12     1.023     0.819 -64.71   0
       298    686.3019    532.7723 307.6447661  +6.4747748     1333.637     2062.544     2337.545      83.1267      165.333     331.0614      1.710     4.38     969.8807     58.36075     206.8248        14     1.388     0.786 -38.96   0
       299    738.0842    532.0155 307.6232801  +6.4768183     1049.031     2040.612     2270.862     82.60058      165.333     330.9955      2.060     5.77      967.477     58.36075     168.8154        15     1.568     0.880 -30.11   0
       300     94.4185    530.9075 307.8906994  +6.4556936     773.7758     1295.144     1495.505     82.86405      165.333     330.9626      1.767     4.95     985.9681     58.36075      120.623         8     1.076     0.645 -59.77   0
       301    413.8634    528.3297 307.7580907  +6.4674864     1470.511     2502.468     2866.356     82.99548     165.5965     331.1272      2.067     5.63     976.4028     58.36075     178.9554        20     1.462     1.021 -45.17   0
       302    160.5682    525.1682 307.8634161  +6.4602876     21285.99     37768.28     40436.88     82.46852      165.333      330.765      1.885     4.34     984.0822     58.36075     3055.823        61     1.841     1.253 -38.40   0
       303    345.3677    526.4728 307.7866069  +6.4659555     3262.943     5719.542      6004.33     82.86406     165.5965     331.0943      1.924     4.31     977.5336     58.36075     499.2359        30     1.735     1.029 -38.15   0
       304    525.3768    525.7717 307.7118533  +6.4722796     1717.873      3150.42     3246.845     82.46852     165.4648     330.9297      1.972     5.08     973.2888     58.36075     248.8833        25     1.726     1.037 -31.77   0
       305    888.1475    525.2413 307.5611676  +6.4846269     1438.563     2324.471     2615.066     82.99548     165.6623     331.0943      1.700     4.47     963.2365     58.36075     229.2967        17     1.467     0.951 -29.27   0
       306    125.7382    523.4510 307.8779422  +6.4598255     2220.415     3894.534     3965.607     82.99548     165.5307     331.0943      1.858     4.22     984.9259     58.36075     306.6006        26     1.589     1.050 -34.51   0
       307      5.4993    523.3939 307.9278895  +6.4558033     1768.686     2981.086     3076.954     82.73242     165.2011     308.6042      1.726     4.51      988.308     58.36075     266.3188        21     1.565     0.908 -44.51  16
       308    362.2167    521.9365 307.7797611  +6.4683937     843.6296      1434.96     1332.123     82.46852     165.5307     330.9297      2.406     5.21     976.8831     58.36075     169.4055        11     1.465     0.524 -56.74   0
       309    986.1238    519.7164 307.5206504  +6.4901759      4788.22     7539.123     7590.658      83.1267     165.9253      331.226      1.681     4.36      958.244     58.36075     821.9745        31     1.676     0.979 -32.99   0
       310    559.0181    512.5740 307.6983234  +6.4788552     1278.889     2000.359     2642.543     82.60057      165.399     330.9955      1.628     4.95     972.1027     58.36075      186.506        13     1.279     0.732 -61.26   0
       311     24.8544    509.4875 307.9203213  +6.4621963     21288.63     37322.92     40375.64     82.99548     165.4648     331.2589      1.891     4.30     987.6007     58.36075     2986.579        56     1.779     1.247 -38.96   0
       312    457.5289    506.2847 307.7406962  +6.4780520     35860.67     62118.66     67264.39      83.1267     165.8596     331.1272      1.898     4.20     973.9495     58.36075     4993.279        70     1.864     1.265 -37.44   0
       313      7.4178    503.7380 307.9277593  +6.4639830     164170.4     286891.7     307480.5     82.60058     165.5307      326.186      1.874     4.16     988.1466     58.36075     25725.01       123     1.903     1.339 -37.44  24
       314    665.5349    505.9803 307.6542961  +6.4851422     10330.97     17619.62     18667.87     82.60057     165.5965     330.9297      1.817     4.56     969.0176     58.36075     1561.935        43     1.742     1.120 -39.27   0
       315    305.2924    506.6393 307.8039250  +6.4727992     968.8067     1697.902     1660.688      83.1267     165.5307     331.1601      1.871     4.67     977.6723     58.36075     143.9303         9     1.061     0.805 -54.45   0
       316    222.7006    503.8642 307.8383279  +6.4711713     15700.15     29317.28     31691.21     82.99548     165.6623     331.1272      2.031     4.31     981.1835     58.36075     1895.722        62     1.861     1.374 -34.23   0
       317    188.1807    505.2881 307.8526192  +6.4694235     1322.086     2324.934      2309.87     82.73242      165.333     330.9955      1.747     4.34     982.4824     58.36075     203.9913        15     1.311     0.888 -59.84   0
       318    999.5636    504.4233 307.5155807  +6.4969383     1096.646     1981.304     1561.705     82.60058      165.333     330.8638      1.869     5.58     956.6113     58.36075     179.7495        16     1.519     0.987 -25.35   0
       319    839.1547    503.9734 307.5822362  +6.4917727     752.3145     922.4241     606.3417     82.46852     165.6623     330.9955      1.543     4.19     964.3386     58.36075     159.5621         6     1.359     0.373 -54.96   0
       320    927.3824    503.8874 307.5455859  +6.4947526     652.4301     1069.946     1037.272     82.73242      165.333     330.9626      1.425     3.49     960.5806     58.36075     118.8393         5     0.790     0.446 -72.73   0
       321    587.2993    502.8115 307.6869041  +6.4838327     2483.944     4160.174     4461.405     82.73242      165.333     330.8638      1.779     4.36     971.4254     58.36075     382.3165        23     1.551     0.962 -34.59   0
       322    961.2458    499.8831 307.5316522  +6.4975354     4313.368     6995.559     7025.097     82.99548     165.5965     331.0943      1.695     4.56     958.5477     58.36075      664.712        24     1.633     0.860 -35.52   0
       323    634.3282    498.3569 307.6675172  +6.4872458     5482.411     9461.617     10391.31     82.86405     165.5965     331.1272      1.871     4.21     969.9816     58.36075     760.6122        34     1.717     1.076 -38.83   0
       324    121.7917    498.8106 307.8804164  +6.4698659     995.3512     1453.256     1267.871     82.46852      165.399     331.0285      1.663     5.42     984.3503     58.36075     141.4389        11     1.247     0.822 -48.70   0
       325    983.7728    492.1888 307.5225519  +6.5014634     3240.958     4993.525     4910.357     82.60057      165.399     330.9626      1.611     4.00     956.8406     58.36075     537.5945        21     1.487     0.912 -38.51   0
       326    546.5895    489.5904 307.7042619  +6.4879285      6098.04     10449.43     11482.11     82.60058      165.399     331.0285      1.886     4.50     971.5501     58.36075     919.5695        38     1.750     1.107 -38.56   0
       327    392.4688    489.7577 307.7682816  +6.4826942     2214.544     3826.395     4070.248     82.86405     165.5307     331.1931      1.832     5.04     974.4484     58.36075     303.2166        23     1.662     0.930 -43.84   0
       328    902.9853    485.3828 307.5563436  +6.5015790     2788.105     4630.105     5361.071     82.73242     165.2671     331.0285      1.824     4.19     960.7957     58.36075      516.759        24     1.531     0.917 -36.56   0
       329    421.4721    491.5074 307.7561739  +6.4829444     627.2936     886.0167     1091.022     82.86406     165.7281     331.1601      1.693     5.04     974.0394     58.36075     88.93536         6     0.977     0.735 -80.07   0
       330    910.1802    479.8586 307.5535402  +6.5040999     2042.294     2893.925     3186.304     82.60057     165.4648     330.8967      1.606     4.19     960.2697     58.36075     326.4899        18     1.491     0.783 -42.71   0
       331    949.5637    479.2200 307.5371999  +6.5056773      1071.21     1440.804     2116.722     82.46852      165.399     330.8638      1.470     4.80     958.1819     58.36075     187.0414        11     1.430     0.606 -38.58   0
       332    734.1934    475.8643 307.6267875  +6.4998721     2680.567     4134.679     4248.168     82.46852      165.333     330.8638      1.649     4.34     966.2823     58.36075     382.2053        20     1.466     0.821 -40.58   0
       333    405.3502    473.9195 307.7634655  +6.4896654     3039.644     5307.267     5888.228     82.99548     165.6623     331.0943      1.835     4.61      973.202     58.36075     474.6008        27     1.762     0.960 -39.88   0
       334     96.2134    474.7263 307.8918578  +6.4789491     1497.944     2563.658     3162.991     82.46852      165.333     330.8638      2.133     5.91      984.489     58.36075     216.1284        18     1.583     0.926 -29.90   0
       335    445.6409    474.2617 307.7467162  +6.4908750     799.2671     1446.718     1567.509     82.99548     165.5965     331.1272      1.969     5.43     972.4077     58.36075     106.0336        10     1.359     0.612 -53.35   0
       336    633.0009    470.6257 307.6690035  +6.4986510     8476.866     14473.14     15349.75     82.60057     165.2671     330.8638      1.821     4.33     969.1185     58.36075      1189.96        40     1.720     1.109 -38.82   0
       337    796.0152    466.7550 307.6014107  +6.5056989      13298.5     23869.86     26473.67     82.46852      165.399     330.8638      1.975     5.32     964.6519     58.36075      2216.95        63     2.311     1.115 -44.23   0
       338    315.2992    467.4709 307.8010927  +6.4893065     2238.669     3878.231     3843.814     82.73242     165.7281     331.0943      1.797     4.51     974.9222     58.36075     309.0868        26     1.550     1.105 -42.61   0
       339    824.3968    464.2145 307.5897051  +6.5076957     1099.055     1559.296     1445.276     82.60058     165.2671     330.9626      1.557     4.46     963.3674     58.36075     188.7765        10     1.335     0.598 -52.07   0
       340    398.5288    463.9875 307.7666349  +6.4935373     1439.752     2522.054      2486.17     82.46852      165.333     330.8967      1.979     4.43     972.6652     58.36075     196.9983        15     1.380     0.699 -48.88   0
       341    980.7580    462.0911 307.5248156  +6.5137898     2065.597     3197.684     3100.344     82.99548     165.5965     331.1601      1.626     4.45     955.9687     58.36075      343.149        19     1.549     0.800 -43.74   0
       342    386.0409    460.6417 307.7719358  +6.4944998     654.1075     999.9643     1028.876     82.73242     165.5965     330.9626      1.601     5.05     972.7502     58.36075     113.9182         6     0.913     0.791 -78.43   0
       343    133.1553    458.8912 307.8770485  +6.4867293     3507.094     6323.425      6689.08     82.99548     165.5307      331.226      1.884     4.54     982.8652     58.36075     497.5251        34     1.792     1.077 -36.22   0
       344    771.2227    458.1431 307.6120006  +6.5084263     1891.871     3254.485     3984.244     82.60057     165.5965     330.8967      1.856     5.11     964.7222     58.36075     267.8954        21     1.615     0.901 -28.43   0
       345    290.7275    456.4466 307.8116732  +6.4930333     1325.149     2056.468     2155.793     82.99548     165.6623     331.0943      1.756     5.51     974.9788     58.36075     177.5706        14     1.297     0.769 -35.10   0
       346    369.0608    453.8770 307.7792185  +6.4967232     2526.828     4313.905     4721.029     83.25771     165.6623     331.0614      1.877     4.32     972.6974     58.36075     377.8743        28     1.652     1.095 -45.10   0
       347    724.9265    451.5020 307.6314580  +6.5096211     1419.202     2252.315     2616.969     82.60057     165.7281     331.0614      1.711     5.49     965.4229     58.36075     258.5408        16     1.724     0.642 -45.74   0
       348    998.2654    450.3166 307.5179376  +6.5192350     615.2527     793.0766     1153.926      83.1267     165.8596     331.1601      1.485     3.76     955.0255     58.36075     124.2966         6     1.067     0.381 -77.05   0
       349    256.6830    449.7908 307.8260412  +6.4946380      814.312      982.788     524.4561     82.60058     165.2671     330.9297      1.295     3.62     976.5704     58.36075     137.1138         6     1.037     0.444 -81.49   0
       350    566.6515    444.3673 307.6974533  +6.5072718     705.5161     1414.057     1788.984     82.86405     165.6623     330.9955      2.569     8.48     968.7961     58.36075     119.3295        13     1.793     1.121 -30.45   0
       351    850.9313    441.6916 307.5794390  +6.5178811     1427.323     2374.157     2674.995     82.99548     165.7281     331.0943      1.685     4.19     961.1895     58.36075      237.252        16     1.430     0.703 -50.36   0
       352    836.7785    440.8572 307.5853470  +6.5177530     1609.244     2586.789     2405.904     82.60057     165.5307     330.8967      1.632     4.76     961.7572     58.36075     296.1915        19     1.588     1.007 -40.24   0
       353    488.3387    442.9311 307.7300362  +6.5052417     1054.177      1689.62     1796.012      83.1267     165.5965     331.1272      1.736     4.73     969.6747     58.36075     166.9835         9     1.113     0.598 -47.49   0
       354    734.1780    438.8051 307.6280421  +6.5151727     12856.66     21758.46     23018.68     82.60057      165.333     330.8967      1.813     4.33     964.5974     58.36075     1785.519        47     1.749     1.143 -35.92   0
       355    636.7446    440.2887 307.6684709  +6.5113018     654.7623      1294.52      1256.94     82.99548     165.4648     331.2589      2.057     4.34     967.5974     58.36075     92.26782         7     1.134     0.474 -30.37   0
       356    655.0533    434.8079 307.6610494  +6.5141772     2161.795     3638.633     3836.179     82.46852      165.399     330.7979      1.743     4.54     966.9652     58.36075     311.2345        21     1.546     0.847 -41.25   0
       357    629.7811    432.4047 307.6716298  +6.5143239     4434.957      6878.28     8197.367     82.60058     165.2011     330.8967      1.739     5.59     967.4055     58.36075     620.9885        25     1.703     1.025 -32.38   3
       358    626.5538    429.2779 307.6730760  +6.5155069     12466.37     21270.87      23372.2     82.86405     165.6623     331.0943      1.892     4.38     967.3173     58.36075     1759.659        48     1.893     1.222 -26.44   2
       359    728.3740    433.7759 307.6306228  +6.5170551     616.4638     1159.804     1898.976     82.46852      165.399     330.9626      1.977     3.00     964.5823     58.36075     93.52795         5     0.730     0.451 -72.10   0
       360    959.4281    428.7201 307.5347988  +6.5268570      3508.74     5521.555     5460.382     82.86405     165.5307     331.0614      1.709     4.52      955.703     58.36075     546.5284        23     1.668     0.822 -34.56   0
       361    398.6478    424.6912 307.7679135  +6.5097656     23499.45     42049.41     45456.41     82.99548     165.5307      331.226      1.938     4.39     970.1191     58.36075     3199.522        65     1.877     1.276 -37.40   0
       362    914.7635    424.6678 307.5534917  +6.5270403     1509.739     2555.382     2632.465     82.86405     165.5965     331.1931      1.919     4.54     956.9924     58.36075      215.675        16     1.402     0.818 -44.66   0
       363    144.5991    424.1457 307.8734717  +6.5014593     1931.186     3202.205     3326.333     82.33625     165.2671      330.732      1.754     4.30     981.2737     58.36075     311.7975        21     1.536     0.928 -49.33   0
       364    910.7847    421.5708 307.5552488  +6.5281863     631.4095     975.8786      1224.18     82.60058      165.333     331.0285      1.429     4.22     957.0578     58.36075     109.1089         5     0.879     0.578 -49.13   0
       365    928.2260    419.1979 307.5480824  +6.5297479     4643.419     7377.759     8146.513     82.60057     165.2671     330.8967      1.692     4.08     955.8914     58.36075     678.6251        28     1.635     0.943 -41.65   0
       366     77.8642    419.8598 307.9013400  +6.5009840     1313.967     2371.222     2853.944     82.99548     165.5307     331.1272      1.991     5.31     983.7733     58.36075     213.8748        17     1.415     1.021 -23.42   0
       367    256.2167    415.2081 307.8274053  +6.5089004     11155.87     20506.29     22037.97     82.60057      165.333     330.9297      1.946     4.51     974.5952     58.36075     1525.022        56     1.854     1.309 -34.71   0
       368    750.8323    409.0426 307.6221253  +6.5280177     777.6031     1156.045     1263.105     82.60058     165.5307     330.9297      1.672     5.00     962.6954     58.36075     100.6159         9     1.070     0.660 -57.63   0
       369     90.9483    408.8792 307.8962768  +6.5059577     624.5938     1013.428     1371.571     82.99548     165.5965     331.0943      1.594     2.24     983.0881     58.36075     123.1332         5     0.858     0.744  79.75   0
       370    979.3585    407.1584 307.5272428  +6.5364242     942.8495     1406.059     1953.026     82.73242     165.5965     330.9626      1.464     5.23     954.3098     58.36075     172.7539        12     1.532     0.560 -60.48   0
       371    369.0102    404.9440 307.7808936  +6.5169245     1105.602     1788.006     1997.369     82.33625     165.5307      330.765      1.948     5.23     969.9687     58.36075     184.8639        13     1.395     0.722 -34.73   0
       372    201.5330    405.4391 307.8504534  +6.5110965     665.9419     1149.454     678.8406     82.86406     165.5307     331.1931      1.729     4.78     977.2334     58.36075     91.49927         7     1.207     0.537 -45.22   0
       373    156.3130    403.8277 307.8692937  +6.5102417     4313.088      7599.75     8392.463      83.1267      165.333     330.9626      1.947     4.43     979.9733     58.36075     617.4501        36     1.696     1.195 -44.31   0
       374    261.0664    402.9047 307.8258069  +6.5141430     1228.123     2195.043     2726.059     82.99548     165.7939     331.1272      2.046     6.10     973.8068     58.36075     179.5425        17     1.603     0.912 -57.94   0
       375    453.0808    402.6936 307.7460427  +6.5206730     690.0939      1310.04     1541.339     82.73242     165.8596     331.1601      1.976     4.79     967.4672     58.36075      98.4071         7     1.075     0.604 -16.82   0
       376    178.5437    399.7829 307.8601954  +6.5126590     2080.716      3875.35     4672.768     82.46852     165.5307     330.8308      2.179     5.11     978.4323     58.36075      279.512        27     1.693     1.158 -42.71   0
       377    573.4231    398.8311 307.6961763  +6.5262994     763.7871     1095.311     709.7764     82.33625      165.399     330.8638      1.527     3.39     965.1888     58.36075     105.4971         5     0.774     0.429 -67.73   0
       378    989.9077    393.9389 307.5233040  +6.5422340     1037.136     1888.775     2469.454     82.86405     165.5965     331.1931      2.508     4.96     953.1238     58.36075     142.2039        11     1.254     0.634 -76.41   2
       379    401.7322    394.5751 307.7676498  +6.5223032     1656.723     2620.936      2700.66     82.60058     165.4648     330.9955      1.687     5.08     968.4566     58.36075     224.6333        21     1.578     0.937 -35.08   0
       380    289.9878    395.6413 307.8140376  +6.5181130     678.4009     1229.243      1456.92     82.33625      165.399     330.7979      2.062     3.10     972.1177     58.36075     111.3098         6     0.810     0.618 -41.86   0
       381     20.3237    395.2203 307.9260790  +6.5092200     619.1838     1193.961     788.4965     82.60058     165.2671     331.0285      1.459     2.71      984.541     58.36075     108.4858         5     0.738     0.436  73.46   0
       382      2.7157    392.8758 307.9334733  +6.5095951     724.9977     1169.134     920.4147      83.1267     151.5043     271.8383      1.769     4.05     985.0292     58.36075     116.1525         7     0.878     0.576 -51.28  16
       383     52.2609    388.6865 307.9130331  +6.5129926     2491.086     4925.803     5416.891      83.1267     165.7281     331.1601      2.209     5.89     983.4401     58.36075     366.8617        31     1.878     1.194 -44.80   0
       384    455.7852    388.0846 307.7454126  +6.5267953      5960.44     10870.25     12003.61     82.60057      165.333     330.9955      1.945     4.60        966.2     58.36075     761.0886        42     1.859     1.133 -33.74   0
       385    796.3878    385.4029 307.6039944  +6.5393002     11689.54     19215.53     20421.68     82.60058     165.2671     330.9626      1.810     4.31     960.7795     58.36075     1693.946        47     1.798     1.121 -35.88   2
       386    788.2552    387.1031 307.6073160  +6.5383266     1838.334     2754.129     2793.874     82.86405     165.5965     331.2917      1.682     5.01     960.9583     58.36075     261.4742        18     1.529     0.847 -47.23   2
       387    359.3040    384.3474 307.7856223  +6.5251026     880.8448     1363.895     1356.739     82.86405     165.5965     331.3575      1.558     4.49     969.4278     58.36075     121.8041        10     1.169     0.730 -52.37   0
       388    970.8497    376.9654 307.5317927  +6.5486067     584.9092     825.5134     825.0801     82.86405     165.5965     331.0284      1.475     4.32     952.9097     58.36075     110.4514         5     1.122     0.473 -49.39   0
       389      9.6384    374.8546 307.9312088  +6.5172684     994.7572     2423.035     4185.162     82.99548     165.6623     331.0943      4.046     6.69     984.6712     58.36075     125.8242        13     1.702     0.737 -49.34  18
       390    503.9351    371.6256 307.7259641  +6.5352045     2556.481     4670.771     4646.979     82.60057     165.5965     330.9955      1.962     4.28     963.3974     58.36075     355.2216        31     1.701     1.124 -44.10   0
       391    476.0010    372.2895 307.7375472  +6.5339943     1881.967     3386.304      3451.81     82.20377     165.1352     330.8308      1.898     5.40     963.9659     58.36075     258.3611        20     1.622     0.835 -45.96   0
       392    932.2838    371.3554 307.5480048  +6.5496367     670.7505     978.7031     1387.854     82.99548     165.5965     331.0943      1.386     3.78     954.8073     58.36075     121.4075         6     0.856     0.542 -42.96   0
       393    861.7380    368.3460 307.5774167  +6.5485251     29340.81     49782.88     53230.36     82.99548     165.5307     331.0614      1.840     4.36     956.4008     58.36075     4689.396        59     1.802     1.175 -41.12   0
       394     79.6603    365.1575 307.9024483  +6.5236289     584.8304     1038.014     646.8643     82.99548     165.5965     331.1931      1.750     5.02     981.5865     58.36075     84.52075         6     1.415     0.504 -43.04   0
       395    353.3673    364.2986 307.7887666  +6.5331809     791.7505     1040.565     648.0781     82.99548     165.4648      331.226      1.350     4.68     968.8433     58.36075     134.0369         8     0.971     0.640 -85.35   0
       396    633.4461    360.7488 307.6725232  +6.5440317     2269.575     3968.394     4060.545      83.1267     165.4648     331.1601      1.882     4.49     960.6085     58.36075     277.8193        24     1.557     0.962 -39.51   0
       397     41.3666    361.6983 307.9184742  +6.5237683     988.5862     1543.509     1220.359     82.99548     165.4648      331.226      1.823     3.60     983.1932     58.36075     145.1774        10     1.017     0.741 -55.19   0
       398    718.2266    354.3200 307.6375155  +6.5495217     69277.98     117099.4     125854.5     82.86405      165.399     331.1272      1.833     4.30     959.4438     58.36075     9662.729        90     1.867     1.265 -36.84   0
       399    164.9388    359.4604 307.8672132  +6.5288494     525.2997     821.2838     910.7627     82.99548     165.5965     331.1272      1.557     4.13     977.5864     58.36075     81.57507         5     0.777     0.628 -80.85   0
       400    876.1772    355.8459 307.5718380  +6.5541681      1210.07     1678.887     1877.069     82.60057     165.5965     330.9626      1.483     4.65     955.3019     58.36075     184.3416        11     1.279     0.640 -31.80   0
       401     97.2541    354.2072 307.8955104  +6.5287418     1147.504     2082.534     2106.734     82.46852      165.333      330.765      1.901     4.63     980.3339     58.36075     176.7021        15     1.333     0.816 -58.71   0
       402    958.8422    351.6147 307.5376337  +6.5586732     770.1193     1126.006     933.3687     82.46852      165.333     330.8308      1.510     2.81     952.4431     58.36075     132.2786         7     0.816     0.611  79.34   0
       403    580.3672    351.0236 307.6949042  +6.5462705     2310.513     3958.654     4091.559     82.46852     165.4648     330.8967      1.835     4.26     960.2182     58.36075     322.3719        21     1.466     0.887 -41.06   0
       404    117.9564    349.9040 307.8870556  +6.5312149      5101.26     9350.841     10068.08     82.99548     165.5307      331.226      1.965     4.41     979.3938     58.36075     726.6823        40     1.738     1.210 -35.27   0
       405    563.9611    347.2146 307.7018490  +6.5472938     5946.557     10605.02     11200.66     82.73242      165.399     330.8308      1.907     4.27      960.226     58.36075     773.3884        38     1.758     1.139 -36.71   0
       406    293.0773    344.8933 307.8144709  +6.5391690      2115.46     3882.026     3754.493     82.73242     165.7939     331.1272      1.919     4.95     970.4698     58.36075     280.0247        25     1.577     1.050 -28.83   0
       407    426.8936    342.3867 307.7589598  +6.5446941     21080.25     38437.28      41810.2     82.73242      165.333     330.9297      1.953     4.44     964.5116     58.36075     2674.298        60     1.864     1.281 -36.31   0
       408    605.2534    341.9972 307.6848690  +6.5508303     579.2318      978.082     857.4911     82.33625      165.399      330.699      1.602     3.89     959.2709     58.36075     90.10803         5     0.849     0.512 -39.79   0
       409    533.9780    340.9807 307.7145167  +6.5488634     977.6552     1694.994     1753.161     82.73242     165.4648     331.0284      1.992     5.49     960.2386     58.36075     149.8297        12     1.344     0.632 -69.29   0
       410    406.3554    340.6689 307.7675508  +6.5447145     1011.467     1900.206     2686.161     82.99548     165.5307     331.1272      2.079     6.37      965.586     58.36075     126.7654        14     1.306     0.874 -48.77   0
       411    505.7605    338.0503 307.7263393  +6.5491280     934.3082     1521.937     1977.215     82.86405     165.5965     331.0614      1.910     4.57     960.3685     58.36075     131.7498        10     1.232     0.553 -27.71   0
       412    820.8566    335.4576 307.5955092  +6.5607391     919.4998     1362.283     1395.739      83.1267     165.6623     331.1272      1.680     4.39     956.9731     58.36075     137.8796        11     1.110     0.834 -38.88   0
       413    656.8214    335.1297 307.6636751  +6.5553914     542.4891     752.4818     1602.114     82.60057     165.4648     331.0614      1.450     3.72     958.6964     58.36075     107.5519         5     0.923     0.432 -43.54   0
       414    515.9376    332.8274 307.7222873  +6.5516254     7134.122      12760.7     14216.86     82.60058     165.5965     331.0284      1.961     4.35     959.8646     58.36075     937.4714        42     1.842     1.130 -37.11   0
       415    784.9081    331.6323 307.6105743  +6.5611176     2727.948     4568.304      5033.79      83.1267      165.399     331.1272      1.835     4.41     957.8895     58.36075     414.8574        26     1.712     0.948 -38.98   0
       416    732.1364    331.7021 307.6324981  +6.5593252     750.1758     1146.555     1201.408     82.86405     165.6623     331.1272      1.566     5.08     957.9426     58.36075     131.3871         7     1.157     0.631  85.50   0
       417    940.1169    331.6400 307.5460854  +6.5662959     686.3635     1200.292     1027.761     82.99548     165.6623     331.0614      1.403     3.82     952.5186     58.36075     130.3862         6     1.106     0.399 -31.86   0
       418    342.7404    329.3045 307.7943650  +6.5472723     740.4745     1593.041     1402.121     82.86405     165.5965     331.1931      1.936     6.62     967.8452     58.36075     126.5242        11     1.889     0.650 -37.97   0
       419    177.8607    323.4207 307.8630656  +6.5441633     1065.855     1698.346     1658.271     82.60058     165.5307     331.0285      1.764     5.14      976.269     58.36075     146.5432        10     1.042     0.872  61.49   0
       420    405.8808    316.9414 307.7685499  +6.5544950     5867.538     10955.64     11847.77     82.99548     165.6623     331.0943      2.030     4.80     964.1825     58.36075     747.0769        44     1.861     1.214 -38.47   0
       421    261.5749    317.3959 307.8284895  +6.5494638     1837.792     3380.219     3711.251     82.46852      165.333     330.9297      1.987     4.59     970.8406     58.36075     225.0697        23     1.480     1.073 -53.46   0
       422    759.1632    317.1095 307.6217602  +6.5662535      890.034     1399.721     1369.562     83.12669     165.5307     331.1272      1.625     5.50      956.915     58.36075     147.3699        10     1.443     0.591 -33.66   0
       423    773.7065    312.8844 307.6158598  +6.5684840     46639.75      79530.3     84663.41     82.73242     166.0566      331.226      1.832     4.37     956.6504     58.36075     7174.566        78     1.832     1.218 -34.14   0
       424    445.0797    312.4272 307.7524162  +6.5576733     2048.847      3602.93     3196.493     82.86405     165.4648     331.0943      1.828     4.20     961.2592     58.36075     273.8547        25     1.428     1.104 -45.16   0
       425   1008.4478    309.9034 307.5184242  +6.5775491     1550.457     2536.781     2487.908     82.99548     165.4648     331.2589      1.721     5.02     946.6995     58.36075     252.0344        16     1.529     0.816 -40.86   0
       426    949.4501    309.0158 307.5429681  +6.5759484     2223.701     3454.134     3880.704     82.46852     165.6623     330.7979      1.759     4.21     950.4396     58.36075      396.338        18     1.478     0.766 -41.49   0
       427    591.3057    309.6686 307.6917546  +6.5637111     1023.967     1419.223      1164.04     82.86405     165.7281     331.1272      1.676     5.79     957.5438     58.36075     130.0551        11     1.242     0.761 -23.86   0
       428    481.9657    308.8795 307.7372106  +6.5603745     909.1932     1526.268     1984.077     82.86405     165.6623     331.1272      1.857     5.49     958.3988     58.36075     127.3667        10     1.362     0.764 -60.23   0
       429    431.6849    307.9106 307.7581341  +6.5590890     1705.372     2951.051      2484.32     82.73242     165.8596      331.226      1.834     4.34      961.939     58.36075     234.5137        20     1.522     0.852 -58.32   0
       430    311.2764    307.5421 307.8081735  +6.5552011     727.7095     1102.861     1252.528      83.1267     165.5965     331.0285      1.935     4.43      968.283     58.36075     125.1741         7     1.172     0.477 -40.59   0
       431    853.2238    302.3091 307.5831762  +6.5755063     1103.563      1847.41      2037.63     82.99548      165.399     330.9297      1.838     5.52     953.7667     58.36075     153.6583        14     1.531     0.832 -37.02   0
       432    481.2489    303.1247 307.7377028  +6.5627265     680.0686     1112.901      1241.41     82.86405     165.6623     331.1272      1.710     3.77     957.9385     58.36075     113.9431         5     0.911     0.448  41.45   0
       433    461.8383    300.4922 307.7458565  +6.5631628     913.4091     1515.253     1780.699      83.1267     165.5307     331.1601      1.952     5.36     959.1407     58.36075      113.644        11     1.117     0.726 -46.87   0
       434    208.2107    299.3947 307.8512700  +6.5551029     1867.441     3242.297      3282.21     82.60058      165.333     330.9955      1.818     4.60     973.9149     58.36075     254.8633        23     1.486     0.993 -35.35   0
       435    772.1722    297.2373 307.6170242  +6.5748931     10406.82     14147.23     15108.69     82.46852     165.2671     330.8967      1.314     1.75     955.6064     58.36075     2920.505        33     1.367     0.925 -35.26   0
       436    103.9928    296.7770 307.8946576  +6.5526791     744.5736     1520.618     1713.961     82.46852      165.399     330.8967      2.037     4.80     979.4489     58.36075     140.0455         9     1.298     0.672 -70.68   0
       437    788.6466    295.2334 307.6102465  +6.5762709     2306.278     4177.697     4180.149     82.73242     165.5965     331.0285      1.890     5.14     955.4696     58.36075     326.0054        26     1.633     1.063 -38.29   0
       438    243.6191    297.5710 307.8366206  +6.5570456     750.5853     1127.424     648.1531     82.60058      165.399     331.0285      1.462     4.52     971.4677     58.36075     108.2357         7     1.174     0.494  -1.43   0
       439    377.8234    290.2902 307.7811081  +6.5645573     1439.425     3187.172     3834.238     82.99548      165.399     330.9297      2.407     7.30     964.3387     58.36075     175.9944        24     1.910     0.899 -15.36   0
       440     91.2065    290.7175 307.9001752  +6.5547507     1081.521     2075.278     1798.966     82.60058     165.2671     330.9297      1.956     5.95     979.8355     58.36075     154.7524        11     1.198     0.833 -44.88   0
       441    504.5604    286.1332 307.7285909  +6.5705230     1651.384     2883.743     2959.329     82.86405     165.5307     331.1931      1.803     4.47     956.4668     58.36075     254.6669        21     1.412     1.016 -41.31   0
       442    267.3244    281.6832 307.8273095  +6.5644014     4847.688      8724.92     9789.363      83.1267     165.9253     331.1931      1.962     4.24     969.8203     58.36075     709.6493        37     1.653     1.214 -39.32   0
       443    934.6115    280.9958 307.5500757  +6.5870224     511.5975     547.7145     833.2858     82.60057     165.2671     330.9626      1.192     2.62     949.5999     58.36075     105.5396         5     0.845     0.487  88.79   0
       444    830.8759    279.8739 307.5932170  +6.5840231     549.8913     1134.044     888.8074     83.25771     165.8596     331.1272      2.352     4.01     953.6423     58.36075     73.43408         6     0.789     0.582  44.72   0
       445    786.0687    275.5042 307.6119820  +6.5843306     692.5514     1155.872     1269.733     82.86405     165.7281     331.1272      1.586     4.56     954.5496     58.36075     129.2542         8     1.348     0.438 -64.08   0
       446      1.4494    273.5905 307.9380468  +6.5588001     6892.203     8285.464     8700.685     73.67338     133.2876     250.7747      1.026     2.69     983.1155     58.36075     1759.075        19     1.121     0.733 -85.52  24
       447    401.3316    272.6211 307.7719381  +6.5726409     1360.407     2409.837     2170.512     82.60058     165.5307     330.9955      1.869     6.17     961.7133     58.36075     179.9984        17     1.509     0.866 -48.71   0
       448    988.0439    271.6940 307.5281862  +6.5926450     1038.704     1608.414     1784.242     82.86405     165.5965      331.226      1.706     4.42     946.6595     58.36075     191.2373         9     1.107     0.664 -43.32   0
       449    324.1336    268.6666 307.8041467  +6.5716831     902.7009     1782.118     1059.641     82.99548     165.5965     331.1272      1.880     6.22     966.4541     58.36075     142.1899        12     1.632     0.666 -44.81   0
       450    171.4472    268.2117 307.8676004  +6.5667413     1384.069     2697.423      2431.59     82.46852     165.4648      330.765      1.886     4.70     975.8517     58.36075     233.9413        19     1.532     0.932 -41.56   0
       451    580.9943    264.1198 307.6975758  +6.5821718      1668.42     2951.557     2995.018     82.60058     165.1352     330.8638      1.913     5.58     954.8391     58.36075     231.3619        21     1.648     0.918 -27.34   0
       452    924.5657    263.4168 307.5548410  +6.5939453     1552.665     2533.079     2965.259     82.60058      165.399     330.9297      1.762     4.32     949.0827     58.36075     255.3786        15     1.349     0.796 -33.07   0
       453    744.5580    261.6573 307.6296966  +6.5886604     4487.231     7359.502     7677.784     82.86405     165.5965     331.1272      1.820     4.63     953.9896     58.36075     633.8403        32     1.697     1.012 -38.49   0
       454    685.1963    261.4623 307.6543687  +6.5867561     1770.022     2981.216     3290.445     82.33625      165.333     330.8308      1.842     4.44     954.6315     58.36075     220.6585        21     1.508     0.911 -41.98   0
       455    400.0305    256.0400 307.7730391  +6.5794431      668.254     1020.361     861.0047     82.46852      165.399     330.9297      1.558     3.51      960.575     58.36075     99.94037         7     0.877     0.536 -49.55   0
       456    939.6176    254.2120 307.5488961  +6.5982479     880.5613     1322.797     1858.461     82.73242     165.2671     330.9955      1.540     2.92     948.0372     58.36075     167.8637         7     0.828     0.625 -85.42   2
       457    244.0664    246.9736 307.8381477  +6.5779505     1907.114      3490.12     3641.333     82.60058     165.4648     330.9955      1.911     5.30      971.053     58.36075     266.9385        24     1.669     0.994 -42.75   0
       458    886.7734    245.9438 307.5711323  +6.5998984     1500.302     2337.715     2363.581     82.60057     165.6623     330.9297      1.798     4.44     950.0541     58.36075     278.3044        18     1.555     0.767 -32.76   0
       459    776.8031    245.3952 307.6168460  +6.5964524     1463.471     2359.215     2203.737     82.33625     165.1352     330.9297      1.623     4.62     953.2894     58.36075     220.4424        16     1.379     0.769 -53.59   0
       460    478.2969    236.4650 307.7411808  +6.5901494     17942.33     33985.54     38052.63     82.99548     165.7281     331.1272      2.098     5.44     954.1628     58.36075      2546.94        76     2.480     1.245 -39.94   0
       461    338.8686    238.6137 307.7990410  +6.5845856     712.1378     1142.932     1328.535     82.46852     165.4648     330.9626      1.677     4.94     964.4315     58.36075     97.97607         7     0.999     0.691  54.89   0
       462    804.0118    235.9123 307.6058595  +6.6012767      11480.9     20067.13     21599.15     82.60058      165.333     330.9626      1.868     4.48      952.821     58.36075     1765.065        44     1.809     1.097 -32.48   0
       463    741.8437    231.7594 307.6318317  +6.6009139     673.6123     1063.857     966.9684     82.73242     165.5965     330.9955      1.490     3.92     952.7612     58.36075     106.3415         6     0.758     0.581  42.39   0
       464    165.9172    230.0415 307.8711912  +6.5823143     2006.819       3368.5     3601.294     82.99548     165.5965     331.0284      1.702     3.97      974.474     58.36075     285.0287        22     1.354     1.006 -56.01   0
       465    192.8229    228.8128 307.8600538  +6.5837262     497.2082     857.6353     864.8478     82.73242      165.399     330.9955      1.852     5.42     973.3135     58.36075     77.00629         6     1.357     0.610 -76.01   0
       466    140.5543    229.2463 307.8817561  +6.5817897     975.8923      1648.61     1767.801     82.99548     165.4648     331.1272      1.834     5.87     975.6911     58.36075     128.4752        13     1.214     0.972 -35.70   0
       467    940.1994    226.5115 307.5495858  +6.6097044     1471.641     2170.569     2279.584     82.20377     165.0691      330.765      1.537     4.40     946.7441     58.36075     222.1888        15     1.361     0.737 -39.34   0
       468    602.0907    222.5698 307.6902119  +6.6000331     3843.328     6794.726     6783.182     83.12669      165.333     331.0614      1.916     4.94     952.5466     58.36075     494.9205        33     1.779     1.098 -31.59   0
       469      4.0593    223.3957 307.9386658  +6.5796111     4178.705     7389.148     7924.106     82.33625     163.6101     290.9341      1.855     4.46     983.4443     58.36075     631.6452        35     1.701     1.159 -33.17  24
       470    564.7737    222.4485 307.7057219  +6.5988337     1701.247      3137.38     2923.462     82.60058     165.6623     330.9955      1.909     4.71     952.4866     58.36075     256.5139        25     1.627     1.034 -40.03   0
       471    322.3180    223.1853 307.8064396  +6.5903999     701.1903      1227.75     1168.893     82.60058      165.333     330.9297      1.795     3.92     965.4191     58.36075     130.7484         6     1.086     0.405 -76.76   0
       472    406.2287    221.8906 307.7716181  +6.5937503     1205.613     2022.146     2035.835      83.1267      165.333     330.9955      1.741     4.57     957.6943     58.36075     155.6432        16     1.273     0.949 -33.06   0
       473    962.7291    219.6318 307.5404552  +6.6132964     2611.421     4019.408     4235.481     82.86405     165.5965     331.0614      1.652     4.59      946.238     58.36075     484.8756        21     1.493     0.860 -33.22   0
       474    909.0290    219.1197 307.5627867  +6.6117163     10359.26     16829.04     17778.03     82.86405     165.5965     331.0614      1.715     4.14      947.601     58.36075     1714.208        39     1.666     1.038 -36.28   0
       475    336.3723    220.1544 307.8007026  +6.5921230     644.1598     1143.961     1437.876     82.46852     165.6623     330.9955      1.974     4.28     964.1329     58.36075     97.61261         5     0.996     0.525 -40.88   0
       476    995.7087    216.9746 307.5268402  +6.6154932     9364.329     14683.65     15048.49     83.12669      165.333     330.9297      1.650     3.91      945.823     58.36075     1642.704        34     1.624     0.985 -36.32   0
       477    583.2247    219.4426 307.6981566  +6.6006926     641.3363     933.8142     765.7668     82.60058     165.5307     330.8638      1.868     3.74     952.4077     58.36075     117.1895         7     0.967     0.475  -9.82   0
       478     35.3155    215.6710 307.9259416  +6.5838529     21464.64        38374     40805.81      83.1267     165.8596     331.1272      1.909     4.21     981.5829     58.36075     3322.602        61     1.851     1.273 -36.13   0
       479    706.9823    216.8059 307.6468214  +6.6059223     2449.568     4098.399     4466.486     82.60058     165.2011     330.9297      1.721     4.49     952.4088     58.36075     350.4211        24     1.544     0.970 -35.77   0
       480    281.4926    216.7348 307.8236209  +6.5916922     1011.972      1580.19     946.6865     82.99548     165.7939     331.0943      1.602     4.98     968.9141     58.36075     154.3784        12     1.426     0.750 -44.30   0
       481    515.8091    212.0304 307.7264192  +6.6014949     1584.573      2641.85     2665.589     82.46852      165.399     330.8967      1.717     3.96     952.4374     58.36075      233.478        17     1.336     0.909 -32.71   0
       482    900.0340    207.2503 307.5669238  +6.6163168     1787.841     3202.825     3546.504     82.86405     165.5965     330.9955      2.041     5.50     947.5165     58.36075     330.1434        22     1.697     0.921 -35.31   0
       483    847.5096    208.3426 307.5887128  +6.6141124     1833.379     2798.014      2615.04     82.86406     165.5307      331.226      1.737     5.41     949.9403     58.36075      245.219        20     1.489     0.922 -27.75   0
       484    527.5573    207.8806 307.7216777  +6.6036018     2246.667     3636.684     3695.337     82.99548     165.5965     331.0614      1.768     4.40     952.1042     58.36075     291.4858        22     1.462     0.965 -34.42   0
       485    759.2698    205.0439 307.6254906  +6.6125266     34940.61     59106.12     62955.58     82.99548     165.5965     331.1272      1.822     4.29     951.2561     58.36075     4728.053        65     1.809     1.206 -36.05   0
       486    362.3298    204.3835 307.7904504  +6.5995055     5106.654     10568.43     12213.41     82.46852     165.4648     330.9955      2.230     6.11     961.4907     58.36075      537.241        52     2.203     1.272 -58.21   0
       487    993.0604    203.7601 307.5283848  +6.6208610     2789.441     4386.435     4584.536     82.99548     165.5965     331.1601      1.667     4.36      945.303     58.36075     497.9956        22     1.539     0.962 -26.40   0
       488    927.1672    202.1409 307.5558207  +6.6193318     7054.793     11291.51     11661.48     82.86405     165.6623     331.0614      1.672     4.51     945.8865     58.36075     1172.786        32     1.649     0.958 -37.52   0
       489    470.7327    201.1969 307.7455152  +6.6044570      4198.26     7553.066     7532.471     82.33625     165.2671     330.8638      1.899     4.26     952.9978     58.36075      565.584        35     1.711     1.087 -33.07   0
       490    128.1640    192.5607 307.8881476  +6.5965189     3927.614      7403.86     8364.639     82.73242     165.4648     330.8967      2.045     4.44     975.1758     58.36075     570.0065        34     1.801     1.091 -34.57   0
       491    947.0598    191.9539 307.5478970  +6.6242014     788.5773     1108.153     1760.334     82.86405     165.5965     331.1931      1.318     4.03     945.2064     58.36075     158.1002         6     0.796     0.584 -53.48   0
       492    624.1803    191.1531 307.6820929  +6.6137436     550.5687     1138.749     1220.813     82.60057     165.5965     330.8967      2.336     5.66     951.9698     58.36075     75.95148         6     1.369     0.660 -81.79   0
       493    298.3969    189.2182 307.8175283  +6.6036205     27609.75     50327.75     54776.94     82.60058     165.1352     330.8967      1.981     4.31     967.8627     58.36075     3745.854        67     1.909     1.300 -36.04   0
       494    273.7013    190.2984 307.8277530  +6.6023451     5337.542     9763.743     10762.32     82.99548      165.991     330.9297      1.982     4.23     969.4547     58.36075     719.1791        39     1.689     1.213 -38.80   0
       495    727.1756    189.0833 307.6393647  +6.6180435     799.9362     1094.024     1200.607     82.86405      165.333     331.0614      1.593     5.62     950.6711     58.36075     117.1011         8     1.119     0.796 -46.51   0
       496    422.4506    184.7061 307.7661346  +6.6096466     41862.25        75255     81530.09     82.86405     165.4648     331.2917      1.942     4.56     954.4738     58.36075     5733.606        76     1.893     1.330 -35.92   0
       497    178.3288    186.0498 307.8675248  +6.6008941     3162.631     5625.295     6050.387     82.99548     165.5965     331.1272      1.886     4.64     972.8807     58.36075     418.2173        31     1.708     1.091 -33.79   0
       498    439.6606    185.1915 307.7589670  +6.6100234     1222.705     2289.653      2176.49     82.33625      165.399     330.8308      2.010     5.85     953.7021     58.36075     169.6441        15     1.472     0.817 -34.19   0
       499    327.2465    182.3219 307.8057742  +6.6074364     13283.87     27343.17     32139.58     82.86405     165.6623     331.0943      2.331     6.03     964.9308     58.36075     2087.794        84     2.844     1.444 -13.06   0
       500    761.7178    180.8923 307.6252870  +6.6225800     28567.31     49310.06     52680.45     82.73242     165.9253     331.1601      1.853     4.53     949.7868     58.36075     4220.672        61     1.799     1.187 -35.50   0
       501    709.1282    182.8966 307.6470725  +6.6199944      870.389     1453.952     1184.228     82.86405     165.7281     331.0614      1.674     4.83     951.0609     58.36075     138.4374         9     1.141     0.694 -71.23   0
       502    810.0146    181.4706 307.6051981  +6.6239550     1113.828     1874.163      2073.99     82.46852     165.5307     330.9955      1.852     6.10     949.4373     58.36075     158.3987        14     1.402     0.889 -35.80   0
       503     48.6486    181.7785 307.9215516  +6.5982945     530.1018     787.1608     883.7294     82.60058     165.5965     330.9955      1.822     4.54     980.4313     58.36075     82.02722         5     1.151     0.508 -34.32   0
       504     78.6771    178.2340 307.9091951  +6.6007686     7706.125     13641.59     14824.58     82.86405     165.5965     331.0614      1.904     4.38     977.7692     58.36075     1109.828        44     1.808     1.188 -35.55   0
       505    112.5804    176.3427 307.8951724  +6.6026904     1275.374     2325.137     2684.878     82.60058     165.5307     330.8967      1.864     6.04     975.3418     58.36075     159.5834        16     1.543     0.787 -34.22   0
       506   1020.0796    175.3822 307.5181106  +6.6334784     1008.946     1192.802     878.8055     82.60057     165.2671     302.1081      1.485     4.96      943.843     58.36075     174.4463        11     1.265     0.670 -43.94  16
       507   1020.9865    161.6323 307.5181958  +6.6391858     2049.928     3393.691     3929.481     82.60057     163.4101     290.5217      1.783     4.03     943.2863     58.36075     387.4741        20     1.529     0.916 -38.89  24
       508     11.7113    163.5713 307.9375167  +6.6045676     775.8777     1195.419     103.2937      83.1267      165.333     330.9955      1.524     4.35     983.8638     58.36075     127.8331         6     1.128     0.529 -45.07   0
       509    604.6112    158.8953 307.6913128  +6.6264069     914.6534     1628.356     1987.381     82.60057     165.2671     330.8308      1.941     6.45     950.9356     58.36075     127.5602        14     1.551     0.753 -36.40   0
       510    612.1713    157.5563 307.6882165  +6.6272128     1833.201     2951.516     3172.735     82.60058     165.6623     330.9955      1.745     4.27     951.0295     58.36075     272.1348        17     1.345     0.827 -43.16   0
       511    297.3203    155.4805 307.8191173  +6.6175134     25534.93     45673.57     49936.21     83.25771     165.8596     331.2589      1.946     4.38     968.1762     58.36075     3636.293        69     1.908     1.298 -38.33   0
       512    356.8344    157.7272 307.7943118  +6.6185838     816.2915     1543.832     1270.838     82.86405     165.5307     331.0614      2.146     4.50      961.515     58.36075     127.6697        10     1.125     0.755 -30.19   0
       513     42.4626    154.0990 307.9250609  +6.6095137     3891.194     6696.777     7131.979     82.73242     165.6623     331.1272      1.855     4.26     980.7009     58.36075     534.7184        31     1.590     1.077 -46.62   0
       514    728.9314    152.1026 307.6398813  +6.6333706     7116.297     12115.73     13247.34     82.99548     165.7281     331.0943      1.833     4.32     948.7327     58.36075     1080.341        38     1.669     1.095 -37.51   0
       515    206.2563    152.9824 307.8570408  +6.6154851     778.2757     1142.585     915.0874     82.46852     165.5307     330.8308      1.635     5.60      971.703     58.36075     109.1956        10     1.367     0.816 -52.99   0
       516    282.5412    151.4831 307.8253937  +6.6186674     700.1317     1284.482     1763.101      83.1267     165.6623     331.1601      2.018     3.68     969.2695     58.36075      116.462         6     0.984     0.396 -70.37   0
       517    139.6320    149.2981 307.8848490  +6.6147660     4086.766      7047.38     7790.004     82.99548     165.4648      331.226      1.850     4.19     973.3448     58.36075     561.4242        35     1.741     1.111 -42.76   0
       518    478.0591    146.7693 307.7443096  +6.6271740     1054.404     1426.821     1056.643     82.73242     165.5965     331.0614      1.434     3.63     950.7823     58.36075     166.7473         9     1.073     0.641 -66.38   0
       519    667.3918    146.4503 307.6656445  +6.6336461     801.1998     1134.711     816.5854     82.46852     165.4648      330.765      1.684     4.69      951.008     58.36075     115.1639         7     1.103     0.566 -47.28   0
       520    601.2479    147.2750 307.6931025  +6.6310920     777.5343     1265.333     1671.556     82.86405     165.6623     331.0943      1.948     4.67     950.5104     58.36075     99.88043         8     0.963     0.643  -4.86   0
       521    410.2565    145.3222 307.7725328  +6.6254979     3198.419     6076.969     5980.894     82.99548     165.5965     331.0614      2.013     4.32     954.3319     58.36075     435.1129        35     1.650     1.301 -36.97   0
       522    374.9641    144.0919 307.7872395  +6.6248218     2512.392     4533.673     4603.119      83.1267     165.4648     331.1272      1.948     4.64     959.0023     58.36075     371.2858        27     1.703     1.078 -33.13   0
       523    128.9119    144.3672 307.8894705  +6.6164411     1384.227     2275.848     2005.092      83.1267     165.4648     331.0943      1.790     4.75     973.7532     58.36075     197.5763        17     1.322     0.871 -45.03   0
       524    690.8122    141.8392 307.6560676  +6.6363334     876.3953      1349.44      998.489     82.46852      165.399     330.8638      1.665     5.28     949.9644     58.36075     135.9165         9     1.075     0.733 -68.42   0
       525     67.1152    139.5813 307.9153101  +6.6163374     538.0764     694.5608     706.8931     82.60058      165.333     331.0614      1.718     4.18     977.8746     58.36075     108.7509         5     1.008     0.585 -68.03   0
       526   1021.4113    138.2961 307.5188034  +6.6488350     1567.664     2184.965     1807.476     82.73242     159.9724     284.4942      1.558     4.78     941.1981     58.36075     274.0897        13     1.376     0.721 -38.81  24
       527    226.7095    133.0644 307.8492167  +6.6243959     4657.014     8283.425     8623.313     82.86405     165.7939     331.1601      1.902     4.57     970.9678     58.36075     590.4736        38     1.735     1.188 -32.83   0
       528    109.3465    132.9379 307.8979877  +6.6205015     1911.176     3344.294     4069.103     82.99548     165.5307     331.0614      2.033     5.08     974.4346     58.36075     289.5505        24     1.586     1.110 -25.68   0
       529    688.4614    131.8687 307.6573806  +6.6403713     5356.672     9185.498     10547.42      83.1267     165.5307     331.1272      1.889     4.45      949.421     58.36075     736.8859        37     1.697     1.131 -33.34   0
       530    836.3438    131.8627 307.5959272  +6.6453164     1033.122     1355.699     893.6215      83.1267     165.5965     331.1272      1.509     4.08     945.7096     58.36075     136.1224        10     1.013     0.698 -52.54   0
       531    640.6356    129.1837 307.6773453  +6.6398798     7864.378     13997.37     15676.67     82.60058      165.333     330.8967      1.913     4.48     949.9263     58.36075     1075.035        41     1.841     1.131 -39.83   3
       532    644.1932    120.6255 307.6761556  +6.6435323     45962.57     79165.57     85093.86     82.46852     165.4648     330.8967      1.866     4.30      949.463     58.36075     6318.532        77     1.881     1.255 -34.20   3
       533     39.3153    127.9629 307.9272554  +6.6201982     785.1283     1328.828     1020.012     82.99548     165.5965     331.0614      1.711     6.49     979.9825     58.36075     124.1411        11     1.557     0.759 -56.52   0
       534    367.7133    124.9961 307.7908983  +6.6324625     3030.038     5918.851     6490.478     82.46852     165.2671     330.7979      2.117     5.08     959.8142     58.36075     387.2245        33     1.770     1.121 -43.64   0
       535   1013.6796    123.7451 307.5225054  +6.6545851     811.5051     1469.077     1699.524      83.1267     165.5965     331.1272      2.020     6.04     940.1531     58.36075     147.7484        11     1.348     0.760 -69.23   0
       536    549.4096    124.3763 307.7154166  +6.6388103     1430.403     2140.108     2250.034     82.60058      165.399     330.9626      1.802     4.31     949.0562     58.36075     219.7413        16     1.282     0.940 -43.88   0
       537    323.3522    114.4598 307.8096884  +6.6353234      2914.28     5341.266     5991.721     82.99548     165.5965     331.1601      2.015     4.57       965.14     58.36075     428.7418        33     1.787     1.174 -35.38   0
       538     21.0147     97.4043 307.9358965  +6.6321981     723677.1      1776087      1984182     82.60057     165.2011     330.9297      2.376     7.51     980.2053     58.36075     60984.64       448     2.378     1.832 -36.49   4
       539    694.6110    107.8446 307.6556351  +6.6504959     1072.385     1880.512     1600.647     82.46852     165.4648     330.7979      1.845     6.03     947.6606     58.36075     150.2007        16     1.404     0.919 -61.69   0
       540    708.3690    104.7461 307.6500222  +6.6522353     2737.971     4652.824     4212.062     82.86405     165.6623     330.9955      1.792     4.49     947.2269     58.36075     417.4141        26     1.616     0.972 -46.46   0
       541    450.5130     95.4765 307.7574893  +6.6474276     3379.584     6056.899      6647.86     82.99548     165.9253     331.1601      1.939     4.80     951.1299     58.36075     433.2397        31     1.882     1.000 -31.95   0
       542    904.7164     91.9214 307.5688578  +6.6640899      1883.63     3029.521     2782.958      83.1267     165.9253      331.226      1.729     4.09     941.4445     58.36075     342.9692        20     1.520     1.000 -23.50   0
       543    922.8244     91.0005 307.5613635  +6.6650745      3741.77     5878.588     6297.781     82.60058     165.2671     330.8638      1.670     3.80     941.1739     58.36075     656.4954        24     1.447     0.930 -33.72   0
       544    614.5413     89.7443 307.6895195  +6.6552898     1499.708     2593.741     2313.594      83.1267     165.5965     331.1272      1.800     4.39     948.6835     58.36075     204.0111        18     1.421     0.897 -52.90   0
       545    260.7345     89.1736 307.8365645  +6.6436600     917.8992     1637.078     2085.174     82.60058     165.5307     330.9955      2.412     4.58     969.5032     58.36075     132.1345        11     1.197     0.731 -31.67   0
       546    413.6352     87.4241 307.7730862  +6.6495154     1620.585     2811.201     2513.449     82.46852      165.399     330.8638      1.810     4.57     953.8134     58.36075     260.1642        20     1.482     0.931 -50.54   0
       547    722.7283    108.6993 307.6439218  +6.6510833     950.7369      1472.11     1042.061     82.73242     165.7939     331.0943      1.685     5.98     947.1209     58.36075     131.3571        12     1.297     0.775 -53.51   0
       548    161.6410     84.5320 307.8778989  +6.6422453     2621.911     4882.735     5571.405     82.86406     165.5307     331.1601      1.994     5.05     971.1314     58.36075     359.6581        32     1.765     1.154 -41.25   0
       549     43.6209     82.2167 307.9270185  +6.6392296     10428.45     18669.09        20628     82.73242      165.399     330.9955      1.927     4.21     977.2656     58.36075     1574.882        48     1.776     1.243 -34.63   0
       550    309.8050     82.7117 307.8163922  +6.6479761     1218.377     2178.702     2302.616     82.46852     165.2671     330.7979      1.811     5.08     966.3854     58.36075     150.2324        16     1.361     0.863 -15.02   0
       551    434.9770     78.0323 307.7645349  +6.6541087     885.3685     1381.224     1403.811     82.46852      165.399     330.8638      1.720     5.44     952.1675     58.36075     123.2028        10     1.194     0.699 -47.67   0
       552    845.1933     76.7283 307.5941057  +6.6683756     5532.937     9058.936      10109.2     82.46852     165.1352     330.9955      1.751     4.54     941.9512     58.36075     813.7706        35     1.618     1.096 -30.22   0
       553    790.3488     77.0196 307.6168881  +6.6664233     2826.034     4610.304     5038.661     82.46852     165.6623     330.8967      1.797     5.49     944.1274     58.36075     442.5653        23     1.692     0.884 -31.42   0
       554    552.6680     75.2443 307.7157213  +6.6592045      966.777     1584.554     2757.391     82.99548     165.5307     331.1272      2.149     5.04      947.925     58.36075     138.8986        12     1.409     0.685 -39.21   0
       555     83.9407     74.0469 307.9105415  +6.6439599     2697.354     4951.801     5342.248     82.99548     165.5965     331.1931      1.962     4.64     973.8562     58.36075     382.3531        32     1.664     1.179 -30.83   0
       556     68.5235     75.1403 307.9169108  +6.6429895      847.899     1369.454     1049.306      83.1267     165.6623     331.0614      1.628     5.36     974.9756     58.36075     138.2764         9     1.354     0.601 -40.88   0
       557    444.8437     73.7383 307.7605799  +6.6562125     922.0472     1455.928     2448.042     82.99548     165.5307      331.226      1.801     3.01     951.4221     58.36075     191.5973         7     1.015     0.598 -66.68   0
       558    607.0158     70.6782 307.6932902  +6.6629097     1002.775     1722.955     1631.735     82.60057      165.333     330.9297      1.823     5.42     948.0279     58.36075     121.6248        11     1.324     0.626 -62.98   0
       559     26.2493     69.5939 307.9346652  +6.6438559     2180.678     3998.615     4221.063     82.46852      165.399      330.699      1.944     4.88     977.6061     58.36075     348.6981        26     1.659     0.988 -36.67   0
       560    785.0162     64.6061 307.6195223  +6.6713703     1807.007     2962.922     3005.486     82.60057      165.333     330.9297      1.778     5.85     943.4948     58.36075      255.383        20     1.579     0.881 -37.24   0
       561    425.4890     65.0278 307.7689174  +6.6591596      990.292     1816.313     1509.142      83.1267      165.333     330.9955      1.966     5.76     952.9097     58.36075     131.7408        13     1.218     0.845 -21.16   0
       562     98.6582     65.3204 307.9047218  +6.6480580     722.3902     1111.472     1448.112     82.99548     165.5965     331.0614      1.650     3.70     972.3907     58.36075     128.8599         5     0.912     0.431 -44.68   0
       563    122.6574     63.3554 307.8948159  +6.6496768     714.5425     1425.397      1697.59     82.86405     165.5965     331.1601      2.178     7.33     971.5698     58.36075     92.58179        10     1.840     0.818 -32.57   0
       564    111.6684     58.3567 307.8995518  +6.6513708      8172.68     14482.89     15439.51     82.99548     165.5307     331.1931      1.903     4.44     971.6503     58.36075     1247.978        45     1.770     1.235 -36.37   0
       565    440.7386     58.1161 307.7628138  +6.6625247       2136.4     3647.836      3721.54      83.1267     165.5965     331.1272      1.772     4.51     951.6548     58.36075     267.6079        22     1.526     0.984 -38.83   0
       566    654.3260     50.3796 307.6743141  +6.6728738     15942.05     27176.36     28808.18     82.60058     165.4648     331.0285      1.827     4.35     946.0689     58.36075     2305.188        52     1.770     1.182 -37.16   0
       567    278.2399     52.4183 307.8305345  +6.6594229     1378.767     2379.489     3264.761     82.60058      165.399     330.8308      1.967     5.40     968.4802     58.36075     182.6849        16     1.572     0.745 -34.35   0
       568    554.1019     46.4945 307.7160961  +6.6711224     4414.437     7626.726     8171.596     82.99548     166.1878     330.9297      1.887     4.33     947.1754     58.36075     638.5063        33     1.690     1.092 -36.54   0
       569    272.1145     46.7806 307.8332708  +6.6615447      1448.33     2723.232      4084.49     82.60057      165.333     331.0285      2.289     5.35     968.5366     58.36075     242.6982        19     1.659     0.776 -40.36   3
       570    280.2861     42.4906 307.8300203  +6.6635903     8030.624     14200.83     16419.22     82.73242     166.0566      331.226      1.999     4.16     968.2526     58.36075     1156.969        46     1.845     1.222 -33.96   2
       571     21.5426     44.6998 307.9374659  +6.6539749     1147.904      2014.78     1678.904     82.73242     165.5965     331.3246      1.837     4.14     975.8024     58.36075     188.2885        13     1.206     0.905 -69.59   0
       572    459.7372     42.0266 307.7554624  +6.6698045     18942.36     34106.98     36461.54     82.60058     165.5307     331.0285      1.926     4.53     949.9918     58.36075     2506.101        58     1.836     1.230 -34.93   0
       573    937.5618     42.0481 307.5568854  +6.6857775     1953.808     3059.132     3466.697     82.86405     165.5965     330.9626      1.734     4.79     937.4008     58.36075     309.0134        20     1.548     0.893 -40.20   0
       574    641.5101     44.5240 307.6798377  +6.6748626     696.8078      1268.74     1841.998     82.99548     165.8596     331.1272      1.910     3.40     946.1568     58.36075     117.4532         5     0.748     0.468  18.31   3
       575    640.4890     40.1593 307.6804093  +6.6766305     2904.222     5097.751     5507.344     82.99548     165.5307     331.1272      1.899     4.65     946.0064     58.36075     394.0972        28     1.545     1.055 -41.69   2
       576    340.3640     42.6573 307.8050486  +6.6655391     878.1898     1583.169     1476.622     82.86405     165.5965     331.1272      1.935     5.03     962.5911     58.36075     111.2885        12     1.245     0.792 -50.14   0
       577     45.7507     42.2223 307.9274905  +6.6558130     2051.574     3887.652     4320.261     82.60058     165.6623     330.9955      1.987     4.44     974.1591     58.36075     312.0746        27     1.606     1.050 -38.34   0
       578    572.0708     42.3612 307.7087682  +6.6734308     701.4819     1122.994     1154.186     82.86405     165.5965     331.1601      1.511     4.51     946.9775     58.36075     96.91504         7     1.020     0.567 -53.37   0
       579    268.1751     39.0600 307.8351693  +6.6645999     2752.734     5075.999     6613.162     82.60058     165.5965     330.9626      2.079     4.47     968.4965     58.36075     357.6969        28     1.644     1.050 -40.49   0
       580    320.9078     37.9395 307.8132935  +6.6668336     909.8884     1595.791     2209.337     82.86405     165.5965     331.1931      1.914     3.70     964.5623     58.36075     120.1099         7     0.872     0.537  48.09   0
       581    957.4282     32.7108 307.5489430  +6.6902954     844.8932      1334.82     1987.714      83.1267      165.333     330.9955      1.249     4.84      935.866     58.36075     202.9722         9     1.526     0.463 -42.82   0
       582    709.2445     32.0483 307.6521090  +6.6822795     1628.254     2550.129     3035.503     82.99548     165.5307     331.0614      1.738     4.09     943.8794     58.36075     247.6874        15     1.292     0.773 -56.54   0
       583    114.4629     32.1120 307.8992804  +6.6623000     585.6247     990.6119     1104.504     82.86405     165.7939     331.1272      1.521     4.25     970.3314     58.36075     95.37726         6     1.060     0.486  83.09   0
       584    220.0857     27.6533 307.8555395  +6.6676931     758.1316     930.3716     381.1809     82.99548     165.5307     331.2589      1.371     3.87     969.4009     58.36075     111.7202         8     0.954     0.658 -75.70   0
       585    729.6211   1021.5606 307.6103153  +6.2744101     940.6679     1489.318     1670.149     82.60058     158.8099     282.4178      1.651     6.07     985.6011     58.36075     169.6469        11     1.518     0.683 -54.74  19
       586     11.0622     24.4950 307.9425067  +6.6619634     816.0724      1405.31     1121.648     82.73242     165.6623     331.1272      1.716     5.29     974.6197     58.36075     123.1793        11     1.238     0.863 -61.62   0
       587    943.3468     22.1511 307.5551504  +6.6941855     3991.232     5994.623     6412.307      83.1267     165.5965     331.1272      1.675     4.15     935.8002     58.36075     574.6757        26     1.598     0.887 -33.69   0
       588    541.9631     22.5352 307.7219497  +6.6806077     2540.598     4358.073     4506.342     82.86405     165.5965     331.1601      1.858     5.17     946.7342     58.36075     362.4821        25     1.518     1.062 -37.19   0
       589    743.8515     20.7679 307.6381069  +6.6880940     1797.282     3034.084     2816.796     82.86405     165.6623     331.0285      1.753     4.70     942.1976     58.36075     253.8726        16     1.436     0.744 -39.47   0
       590    480.1223     21.0755 307.7476988  +6.6791380     1518.892     2662.232     2985.143     83.25771     165.8596     331.1601      1.884     5.34     947.9569     58.36075     216.7363        19     1.477     0.939 -21.45   0
       591    735.2495   1018.8608 307.6080689  +6.2757129     2701.819     4222.093     4363.768     82.99548     165.5307     315.5196      1.669     4.50     985.5353     58.36075     479.8258        20     1.601     0.766 -39.38  18
       592    260.0224   1020.5748 307.8053482  +6.2590906      1190.76     2104.598      2004.36     82.46852      165.399     295.9483      1.871     4.63     991.8737     58.36075     194.8774        17     1.429     0.916 -41.92  16
       593    458.5756   1019.7513 307.7229288  +6.2660888     781.3562     1343.899     1259.669     82.60058     165.5965      305.944      2.076     5.63      990.309     58.36075     156.2659         9     1.391     0.643 -42.75  16
       594    750.8895   1018.0857 307.6016003  +6.2765554     1008.224     1438.444     1367.445     82.73242     165.9253     322.5571      1.505     4.55     984.9293     58.36075     157.1236         9     1.145     0.567 -28.66  16
       595    382.2057   1016.0251 307.7547667  +6.2650678     1783.774     2929.223     2959.059     82.46852      165.399     330.9297      1.639     5.25     991.8418     58.36075     309.4139        17     1.549     0.816 -41.21  16
       596    721.0862   1013.0320 307.6141465  +6.2776463     479.0093     1015.975     853.5634     82.99548      165.399     331.0614      1.929     5.54     985.2059     58.36075     131.6884         6     1.732     0.500 -34.08  16
       597    632.7840   1010.6249 307.6508960  +6.2756882     620.5171     904.6893     741.1188     82.73242     165.4648     331.0285      1.359     3.41     985.4942     58.36075     95.05164         5     0.763     0.441  18.69   0
       598    534.5333   1007.7541 307.6917920  +6.2735859     1017.065     1458.036     1383.664     82.99548     165.5307     331.1272      1.512     4.24     989.3331     58.36075     210.0322        10     1.429     0.553 -54.05   0
       599    768.8903   1005.8223 307.5945378  +6.2822201     7486.742     12193.54     12641.56     82.99548      165.399     330.9626      1.686     4.25     983.7305     58.36075     1258.995        31     1.646     0.955 -40.02   0
       600    564.3340   1006.3777 307.6794635  +6.2751517     4138.232     6570.411     7158.869     82.60058     165.5965     331.0285      1.715     4.84     988.2371     58.36075     636.6182        27     1.572     0.912 -37.83   0
       601    314.6421   1005.0254 307.7831936  +6.2673434     13636.48     23132.12     25403.91     82.60057     165.5307     330.8638      1.860     4.78     991.8775     58.36075     2218.486        49     1.942     1.050 -35.92   0
       602     10.2818   1006.4830 307.9095241  +6.2565156      758.484     1036.833     417.1046     82.73242     165.8596     331.1931      1.401     3.14     995.4357     58.36075     146.0661         7     0.872     0.606 -68.46   0
       603    830.0005   1005.2491 307.5691799  +6.2844972     967.2856     1671.789     1758.972     82.20377     165.2011     330.6331      1.670     6.08     980.3948     58.36075     161.4506        11     1.637     0.635 -34.68   0
       604    438.6294   1005.5751 307.7316898  +6.2712735     939.4543     1333.376     835.4681     82.46852     165.4648     330.9626      1.419     4.22     990.7495     58.36075     218.0366        10     1.455     0.526 -34.43   0
