#   1 NUMBER                 Running object number                                     
#   2 X_IMAGE                Object position along x                                    [pixel]
#   3 Y_IMAGE                Object position along y                                    [pixel]
#   4 ALPHA_J2000            Right ascension of barycenter (J2000)                      [deg]
#   5 DELTA_J2000            Declination of barycenter (J2000)                          [deg]
#   6 FLUX_APER              Flux vector within fixed circular aperture(s)              [count]
#   9 FLUXERR_APER           RMS error vector for aperture flux(es)                     [count]
#  12 FLUX_RADIUS            Fraction-of-light radii                                    [pixel]
#  13 FWHM_IMAGE             FWHM assuming a gaussian core                              [pixel]
#  14 BACKGROUND             Background at centroid position                            [count]
#  15 THRESHOLD              Detection threshold above background                       [count]
#  16 FLUX_MAX               Peak flux above background                                 [count]
#  17 ISOAREA_IMAGE          Isophotal area above Analysis threshold                    [pixel**2]
#  18 A_IMAGE                Profile RMS along major axis                               [pixel]
#  19 B_IMAGE                Profile RMS along minor axis                               [pixel]
#  20 THETA_IMAGE            Position angle (CCW/x)                                     [deg]
#  21 FLAGS                  Extraction flags                                          
         1    622.4906     25.8704 307.6807127  +6.6763400     3094.168     5423.504     6698.387     77.93045     155.9227     311.3814      2.046     6.03      816.085     54.88604      556.817        29     2.285     0.819  62.18   0
         2    939.5400     16.7429 307.5493462  +6.6906638     953.9845     1701.008     1673.965     78.17746     155.6752     311.4124      1.866     6.96     814.3624     54.88604     131.0596        15     1.655     0.819  51.73   0
         3    691.3165     16.7391 307.6524361  +6.6824048     1832.936     2878.077     3677.253     78.17746      155.799     311.4124      1.731     4.76     815.5746     54.88604     286.4695        19     1.515     0.764  41.48   0
         4    256.6155     11.4674 307.8331424  +6.6700636     830.4051     1268.578     1554.133     77.55846     155.6133     311.2885      1.692     5.43     823.8672     54.88604     119.4045        10     1.208     0.688  44.41   0
         5    179.4230      9.4914 307.8652656  +6.6682946     10622.98     16727.62     17330.21     78.05405     155.5513     311.2266      1.748     5.12     822.7303     54.88604     1649.319        39     1.732     0.904  42.11  16
         6    523.6589      7.5125 307.7223749  +6.6806231      2947.02     4519.217     4823.411     78.05405      155.799     307.4246      1.682     5.62     816.9804     54.88604     435.0197        23     1.618     0.781  46.29  16
         7    924.9708      6.9380 307.5557257  +6.6942283      3774.88     6279.072     6323.431     77.80666     155.7372     303.3525      1.716     5.18      814.345     54.88604     647.1374        28     1.665     0.898  43.08  16
         8    461.8792      6.0042 307.7480827  +6.6791830     1729.646     2879.854      2805.24     77.68266     155.2412     295.3991      1.704     5.11     819.8766     54.88604     254.8231        18     1.650     0.750  41.25  16
         9    725.7680      5.6082 307.6385020  +6.6881489      1856.79     2869.803      2933.68     77.55846     155.5513     291.4568      1.654     5.36     814.6619     54.88604     290.7774        16     1.516     0.680  39.98  16
        10     80.4526      5.9583 307.9064848  +6.6664362     471.5443     659.5419     270.0474     78.05405      155.799     294.9745      1.592     4.03     824.3573     54.88604     123.9891         5     1.410     0.329  39.54  16
        11    989.9443      3.2933 307.5288631  +6.6978923     1844.154     3356.158     3862.476     77.93045     148.1232     263.9283      1.946     5.16     811.5474     54.88604     237.4884        23     1.485     1.075  61.85  24
        12    783.6906      2.0059 307.6145670  +6.6915652     509.5967     718.8453     421.3569     75.15982     133.3268     244.9861      1.414     5.01      814.177     54.88604      85.0061         5     1.256     0.566  39.62  24
        13    710.1248      1.2964 307.6451437  +6.6894082     3530.056       4007.3     4029.488      67.1676      123.258     233.7089      0.889     1.68     814.7446     54.88604     1237.125        10     0.881     0.526   6.26  24
        14    630.5969      1.0782 307.6781796  +6.6868477     770.1649     920.3451     1118.346     63.93223     119.5256     229.7569      0.839     2.15      815.328     54.88604       252.08         5     0.851     0.266   2.77  24
        15    546.6633    991.6025 307.6797373  +6.2750277     3747.517     6874.771     8088.764     77.43407     155.5513     311.1646      1.995     4.82     849.6794     54.88604     460.3635        31     1.704     1.054  46.69   3
        16    794.1774   1022.9099 307.5759754  +6.2703437     4740.351     7222.852      7337.12      75.7984     134.4786     246.2029      1.645     5.54     845.9775     54.88604     696.3738        26     1.579     0.910  20.08  24
        17    574.4348   1015.4259 307.6674129  +6.2661162     3574.117      6497.95     8197.115     77.43407     155.4894     311.1646      2.155    11.16     849.8771     54.88604     423.3117        43     3.146     1.104  47.73  19
        18    582.2552   1023.9224 307.6638824  +6.2628684      13227.1     15526.27     16275.07     64.53255     119.8478     230.1761      1.034     2.61     849.9235     54.88604     4186.822        13     1.311     0.381   2.67  27
        19    585.3268   1019.7719 307.6627472  +6.2646847     62284.02     112955.6     121733.4     77.93045     155.6752      287.628      1.937     4.69     849.7491     54.88604     7932.045        80     1.923     1.260  47.43  19
        20    543.7881    983.7101 307.6811956  +6.2781909     7526.491     13081.69     14453.71     77.80666     155.4274     311.1956      1.871     4.71     849.4246     54.88604     977.0885        39     1.803     1.042  48.89   3
        21    517.1500    993.1336 307.6919331  +6.2734111     958.3214     1637.023      1040.53     77.93045     155.6133     311.3505      1.731     6.09     849.7479     54.88604     119.1507        14     1.423     0.734  44.01   0
        22    296.9110    990.1740 307.7834240  +6.2672787     12767.57     22759.35     25741.47     78.17746     155.4894     311.2266      1.953     4.70     848.0385     54.88604      1647.36        65     1.792     1.597  21.20   0
        23    751.0815    990.7793 307.5949361  +6.2821777     6480.764     11881.72     12563.34     77.80666     155.4274     311.3195      1.954     4.81     847.4218     54.88604     864.8068        40     1.864     1.082  45.81   0
        24    812.5724    990.3096 307.5694341  +6.2844175     910.8143     1621.607     1910.712     78.17746     155.4894     311.2576      1.962     6.79     845.5921     54.88604     127.1244        12     1.552     0.844  53.83   0
        25    421.3061    990.7054 307.7317869  +6.2712152     856.6821     1640.337     1392.175     78.05405     156.2932     311.3505      1.933     6.64     848.2189     54.88604     133.7865        13     1.535     0.805  34.31   0
        26    267.7666    988.1440 307.7955861  +6.2671426     888.0162     1393.038     1537.839     77.93045     155.7372     311.3814      1.779     5.67     847.1826     54.88604     129.9428        10     1.115     0.812  64.27   0
        27    912.4902    984.2412 307.5281728  +6.2902451      6730.36     13116.75     14513.38     78.05405     155.7372     311.4124      2.110     4.93     844.6343     54.88604     821.3941        48     1.925     1.256  45.96   0
        28   1007.8632    979.8682 307.4887400  +6.2952185     3437.616     7249.518     8303.749     78.05405     155.7372     311.4434      2.222     5.59     840.1022     54.88604      390.745        44     2.064     1.267  48.63   0
        29    886.0742    980.3555 307.5392652  +6.2909718     9841.093     19345.58      21233.4     77.93045      155.799     311.4124      2.108     4.88     844.9708     54.88604     1132.694        61     2.000     1.364  42.49   0
        30    598.9121    981.0594 307.6584094  +6.2811233     1167.241     2182.705     2570.798     78.05405     155.7372     311.4743      1.850     6.18     848.6061     54.88604     147.5322        15     1.512     0.742  41.89   0
        31    530.2606    979.4386 307.6869527  +6.2795036     3793.752     6752.764     7594.593     78.05405      155.799     311.3814      1.978     4.78      849.249     54.88604     528.4731        31     1.693     1.099  44.80   0
        32    639.5875    978.6829 307.6416098  +6.2834601     1196.693     2143.947     1994.941     77.68266     155.4894     311.2266      1.923     6.96     848.3287     54.88604     137.5644        18     1.670     0.837  43.18   0
        33     63.8132    977.7047 307.8805692  +6.2646265     597.1089     1219.831     1373.932     77.80666     155.4894     311.2266      2.604     5.22     842.9341     54.88604     113.1493         8     1.286     0.599  26.92   2
        34    483.4702    976.1523 307.7064799  +6.2792996     1817.354     3239.419     2864.033     78.05405     155.6752     311.4124      1.852     4.94     849.1582     54.88604     254.7035        23     1.746     0.877  45.26   0
        35    980.7311    972.7661 307.5002372  +6.2972504     407.7279     696.3285     1005.773     77.93045     155.7372     311.4434      2.334     5.22      841.541     54.88604     79.83081         5     1.192     0.646  66.00   0
        36    917.7919    967.9366 307.5265183  +6.2971541     34186.05     66307.09     72219.84     77.55846     155.4894     311.1956      2.056     4.86     844.3876     54.88604      4006.73        76     1.991     1.314  47.70   0
        37    225.0482    966.5267 307.8140409  +6.2746402     1479.529     2464.005      3021.43     78.05405      155.799     311.4124      1.815     6.26     845.0177     54.88604      192.804        16     1.584     0.695  46.21   0
        38    624.1242    964.6371 307.6484982  +6.2887449     726.2142     960.4392     554.1273     77.93045      155.799     311.4124      1.513     5.31     848.0836     54.88604     128.4974         8     1.060     0.751  39.31   0
        39    113.0017    964.8381 307.8605925  +6.2715871     482.2542     895.6465     554.9739     77.18468     155.5513     311.1646      1.706     5.42     843.3299     54.88604     100.7685         7     1.596     0.520  49.37   0
        40    815.8472    961.6342 307.5690359  +6.2963677      1899.08     3424.317     3887.001     77.80666     155.7372     311.3195      1.852     4.81     845.4846     54.88604     255.3847        25     1.643     0.948  51.14   0
        41    763.8836    959.6056 307.5906684  +6.2954766     5573.137     10294.74     11459.93     77.55846     155.3653     311.1337      1.973     4.89     846.4639     54.88604     681.0276        39     1.817     1.132  52.04   0
        42    550.6505    959.0981 307.6791747  +6.2885829     931.3564     1632.504     1645.628     78.05405     155.7372     311.5362      1.803     6.07     848.4845     54.88604     130.3703        12     1.428     0.726  55.41   0
        43    233.5869    958.9648 307.8107525  +6.2780483     1323.637     2269.877     2264.449     77.55846     155.5513     311.2266      1.677     6.45      845.087     54.88604     178.8428        16     1.670     0.708  44.49   0
        44    198.0735    958.6658 307.8254994  +6.2769836     872.1763      1452.98     1313.597     78.17746     155.7372     311.3814      1.727     4.76     844.4943     54.88604     126.8823        11     1.216     0.746  43.81   0
        45     58.1378    956.9131 307.8836260  +6.2730216     2343.814     4369.249     4413.412     78.05405     155.9227     311.3814      1.905     4.93     842.6101     54.88604     290.5171        26     1.682     0.995  40.93   0
        46    952.0963    954.6407 307.5127270  +6.3037842     5226.224     9921.625     10606.31     78.05405     155.6133     311.5362      2.009     4.83     842.9698     54.88604     575.7338        42     1.876     1.193  47.66   0
        47    634.2087    949.1341 307.6448336  +6.2954827     658.5376     1078.059     1013.552     77.55846     155.4894     311.2576      1.742     6.68     847.6265     54.88604      105.291        10     1.598     0.783  44.10   0
        48    925.9401    946.5619 307.5238522  +6.3062514     1788.016     3231.694     3507.956     78.05405      155.799     311.4124      1.895     4.95     844.0904     54.88604     188.3892        27     1.592     1.106  44.36   0
        49    258.7558    942.6934 307.8008564  +6.2856090     3917.358     6590.133     6903.857     78.05405     155.6752     311.5052      1.769     5.12     845.3682     54.88604     493.5183        27     1.697     0.878  47.12   0
        50    785.6138    942.8625 307.5822117  +6.3031136     1169.682     1764.104     2123.356     77.55846     155.5513     311.1956      1.751     6.27      845.859     54.88604     141.0829        14     1.267     0.872  49.79   0
        51    646.6849    942.4091 307.6398818  +6.2986754      4089.65     6855.446     7204.433     77.68266     155.4274     311.2266      1.811     4.48     847.2891     54.88604     535.0084        32     1.727     0.980  45.96   0
        52    468.9915    941.1684 307.7136644  +6.2932625     920.3438     1751.336     1388.218     77.55846     155.5513     311.1956      1.799     6.58     847.8772     54.88604     129.6212        16     1.653     0.964  33.03   0
        53    996.0469    941.2403 307.4949355  +6.3107774     519.5995     912.0599      880.125     77.93045     155.7372     311.1956      1.752     5.99     840.7628     54.88604     92.68158         6     1.307     0.772  79.77   0
        54     27.6241    940.2273 307.8968512  +6.2788888     1779.588     3058.425     3237.097     77.55846     155.6133     311.2266      1.852     5.17     842.1696     54.88604     227.6178        20     1.466     0.968  50.23   0
        55    878.1807    938.9839 307.5439262  +6.3077935     742.4042     1296.687     905.4125     77.80666     155.4894     311.2885      1.499     5.66     844.5264     54.88604      93.1991        11     1.388     0.650 -14.96   0
        56    295.6228    937.5265 307.7857316  +6.2889753     698.6987     1143.004     1519.556     77.68266     155.5513     311.3505      1.890     4.00     846.2037     54.88604     112.1237         6     1.329     0.344  74.57   0
        57    971.0944    937.1367 307.5054283  +6.3116433     547.1268     875.1226     728.5968     77.93045     155.8609     311.4434      1.722     5.18       841.96     54.88604      87.3598         5     1.178     0.643 -83.65   0
        58    571.3528    934.5367 307.6714084  +6.2994155     1559.191     2745.153     3154.371     77.93045     155.6133     311.4434      1.877     5.58     847.6609     54.88604     194.2121        21     1.675     0.849  51.89   0
        59   1002.7830    934.1679 307.4923765  +6.3139215     619.1654     1288.149     1422.916     77.68266     155.5513     311.2576      1.978     5.79     840.4338     54.88604     96.94037         8     1.693     0.558  19.80   0
        60    610.4115    931.2480 307.6553098  +6.3020755      1004.35     1559.866     1194.912     77.43407     155.6133     311.0717      1.703     6.01     847.5704     54.88604     132.3311        14     1.498     0.686  43.26   0
        61    290.3767    929.3053 307.7881855  +6.2921947     1386.008     2250.804     2471.947     78.05405     155.4894     311.2576      1.797     6.37     845.7599     54.88604      167.354        17     1.431     0.839  49.12   0
        62    557.8004    927.2087 307.6772788  +6.3019896     651.9986      1047.09     582.2745     77.43407     155.4274     311.1646      1.702     4.48     847.4296     54.88604     128.2416         5     0.847     0.673  55.90   0
        63    757.4800    925.6534 307.5944641  +6.3092837     771.5481     1340.501     1308.397     78.05405     155.7372     311.4434      2.059     5.42     846.0128     54.88604     126.0602         9     1.315     0.631  44.13   0
        64    894.8798    921.6866 307.5375751  +6.3154913     5797.055     10549.27     10267.47     77.80666     156.0463     311.5052      1.906     4.71     844.1136     54.88604     722.8887        36     1.773     1.097  42.77   0
        65    430.7386    918.9052 307.7302875  +6.3011787     2075.841     3273.285     3457.069     77.93045      155.799     311.4124      1.715     4.39     847.1481     54.88604     255.1365        20     1.476     0.810  39.73   0
        66    332.3343    917.3221 307.7711774  +6.2985454     8648.155     14578.96     15296.37     78.17746     155.7372     311.3505      1.815     4.98     846.0852     54.88604     1159.036        38     1.738     0.981  45.93   0
        67    252.4365    916.3455 307.8043665  +6.2962775     6562.898     11027.67     11570.22     77.93045     155.7372     311.4124      1.795     4.93     844.5035     54.88604     832.4708        33     1.678     0.984  47.37   0
        68    580.4451    910.6290 307.6684381  +6.3095910     1070.545     1898.289     1748.465     77.68266      155.799     311.2885      1.912     6.49     847.1104     54.88604     153.4536        16     1.562     0.806  46.90   0
        69    910.8327    906.7605 307.5314541  +6.3221851     832.9055     1272.767     1487.603     77.68266     155.5513     311.2266      1.730     5.58     843.6437     54.88604     118.0016         9     1.275     0.689  48.06   0
        70    142.7760    906.6055 307.8502016  +6.2966296     472.1103     780.2879       1065.2     77.55846     155.4894     311.2266      1.962     4.45     842.8493     54.88604     83.08386         7     1.281     0.439  41.31   0
        71    409.4982    906.0090 307.7395359  +6.3057947     604.6724     897.6655     1348.931     77.80666     155.3653     311.1646      1.802     3.72     846.5365     54.88604     93.72662         6     0.796     0.500 -88.97   0
        72    571.3950    901.3159 307.6725067  +6.3131349     654.3771     808.5799       614.47     77.55846     155.3653     311.0717      1.350     4.93     846.9041     54.88604     93.43823         8     0.853     0.810  -2.58   0
        73    746.9248    899.9376 307.5997067  +6.3195515     1405.828     2385.796     2564.077     78.30067     155.7372     311.3814      1.810     5.05     845.9377     54.88604     205.4946        20     1.483     0.935  41.61   0
        74    610.8593    896.3801 307.6562946  +6.3164886     751.3923     1279.716      965.688     77.68266     155.6133     311.2576      1.780     5.61     846.7109     54.88604     124.7609        11     1.404     0.631  36.22   0
        75    978.1238    895.4831 307.5039044  +6.3290774     1134.682      1759.64     2265.443     78.17746     156.0463     311.5052      1.740     6.31     841.2722     54.88604     146.6567        15     1.322     1.017  15.38   0
        76    532.1860    895.7834 307.6889645  +6.3141119     957.1887      1716.33     1707.768     77.80666     155.4274     311.3195      1.949     5.85     846.8573     54.88604     151.6571        12     1.438     0.671  37.23   0
        77    665.6022    892.9873 307.6336897  +6.3197137     2281.111     3881.134     4294.126     77.68266     155.4274     311.2266      1.823     4.75     846.2346     54.88604     319.2291        25     1.685     0.942  46.87   0
        78    826.6223    889.5690 307.5669786  +6.3264848     761.0182      1258.63      1744.14     77.55846     155.5513     311.2266      1.864     6.76     844.7177     54.88604     120.8619        12     1.522     0.842  57.78   0
        79     61.9938    889.4159 307.8843044  +6.3010217     2485.602     4649.168     4992.061     77.68266     155.4894     311.2266      1.973     5.31     841.2303     54.88604     319.5948        27     1.606     1.007  43.83   0
        80    205.4915    888.4887 307.8247868  +6.3062097     1988.304     3351.918     3129.568     78.05405     156.2316     311.4743      1.785     5.51     843.4496     54.88604     238.7296        23     1.668     0.832  43.60   0
        81     79.5354    888.7467 307.8770477  +6.3018858     1856.604     3207.036     3346.174     78.05405     155.6752     311.3505      1.889     5.51     841.5478     54.88604     226.1392        23     1.694     0.908  38.09   0
        82    943.8603    888.1320 307.5183705  +6.3309750     745.4827     1265.454      1077.81     78.17746     155.6752     311.3814      1.760     4.47     842.4103     54.88604     120.1484         6     1.012     0.635 -86.43   0
        83    344.9199    884.8158 307.7670488  +6.3123888     929.2876      1341.07     2099.218     77.68266     155.4894     311.1956      1.561     4.15     844.6474     54.88604     144.5311        11     1.153     0.714  52.27   0
        84    239.9071    885.4360 307.8106076  +6.3086217     740.2844     1243.318     1062.902     78.17746     155.6133     311.4743      1.799     5.18     843.8713     54.88604     97.81036         8     1.147     0.662  63.25   0
        85    660.0484    882.2645 307.6363544  +6.3239565     6264.273     10583.85     10977.36     77.93045     155.6133     311.3814      1.769     4.99     846.1433     54.88604     844.3698        34     1.761     0.951  45.98   0
        86    797.8177    883.2451 307.5791450  +6.3281380     677.2647     1140.841     962.7553     77.68266     155.6133     311.1337      1.675     4.08     845.0654     54.88604     105.0612         7     1.492     0.319  39.33   0
        87     20.1386    880.7642 307.9019655  +6.3031914     1129.866     1896.027     1466.364     78.05405     155.7372     311.3505      1.775     5.80     840.1906     54.88604     137.3257        16     1.548     0.701  45.23   0
        88    897.8641    878.5277 307.5377815  +6.3334127     2378.288     4112.277     4045.877     78.05405     155.7372     311.4124      1.809     4.57      843.363     54.88604     297.7524        26     1.592     0.977  42.77   0
        89     32.9270    879.2414 307.8967100  +6.3042488      1036.01     1744.852     1563.865     77.93045      155.799     311.4124      1.678     5.25     840.3799     54.88604     124.9579        19     1.451     1.004  30.61   0
        90    343.0652    875.6009 307.7681288  +6.3161319     15109.89     25416.88     27369.75     77.30948     155.4274     311.1337      1.791     5.10     844.1815     54.88604     2077.882        46     1.764     1.005  43.78   0
        91     77.8844    876.5806 307.8781434  +6.3068542     1111.228     1824.126     1893.712     77.68266     155.4274     311.3505      1.756     5.39     841.2501     54.88604     169.3333        15     1.430     0.932  62.33   0
        92    929.7784    877.5636 307.5245685  +6.3348713     438.5268     587.5953     273.2269     77.68266     155.4894     311.1337      1.285     3.46     842.6771     54.88604     70.51288         5     0.769     0.450  19.53   0
        93    214.3484    875.5225 307.8215483  +6.3118602     1104.748     1894.238     2101.746     78.05405      155.799     311.3814      1.808     5.98      843.484     54.88604     156.3923        15     1.536     0.924  22.80   0
        94    393.8234    874.4085 307.7471042  +6.3183201     506.8932     952.1132     944.0074     77.68266     155.4894     311.2266      1.627     4.13     844.9959     54.88604     100.1995         5     1.480     0.329  40.49   0
        95    106.3079    866.2503 307.8666968  +6.3120719     1434.179     2629.055     2915.543     77.93045     155.6133     311.5671      1.814     6.22     841.6122     54.88604     182.2905        21     1.695     0.816  48.95   0
        96    420.9607    866.5548 307.7361063  +6.3224694     898.0917     1303.833     993.7365     77.80666     155.7372     311.2885      1.595     5.22     845.3302     54.88604     143.9857        10     1.517     0.507  51.39   0
        97    674.5841    862.4186 307.6309878  +6.3326359     819.1562     1223.353     1591.858     77.80666     155.4894     311.2885      1.786     5.33     845.8412     54.88604     114.6192        11     1.319     0.609  44.08   0
        98    888.0684    860.1413 307.5424626  +6.3406796      1753.37     2978.737     3176.914     78.17746     155.6752     311.3814      1.789     4.77     843.2535     54.88604      237.196        21     1.552     0.862  41.97   0
        99    858.9206    859.5880 307.5545784  +6.3399391     1658.109     2853.961     2619.322     77.68266     155.4274     311.2266      1.811     5.77     843.8705     54.88604     216.2505        21     1.654     0.899  44.63   0
       100    822.2809    859.2513 307.5697962  +6.3388598     2903.075     5024.555     5607.083     78.05405     155.7372     311.3814      1.911     4.86     844.3151     54.88604       349.72        26     1.573     0.998  47.28   0
       101     89.7450    859.9420 307.8737831  +6.3141219     2289.729     3810.485     3969.707     78.17746      155.799     311.4124      1.764     5.03     841.1533     54.88604     336.8911        23     1.655     0.829  40.98   0
       102    558.1369    850.6846 307.6797098  +6.3336003     305389.6     511077.7     537893.2     78.17746     155.8609     311.3505      1.787     5.02     845.5698     54.88604     41626.46       173     1.910     1.203  46.89   0
       103    337.5257    857.4199 307.7710398  +6.3234543     665.6422     1200.724     2449.464     77.68266     155.6752     311.3195      1.976     5.13     843.5718     54.88604     107.4597         7     1.635     0.456  36.78   0
       104    402.4911    853.3961 307.7442140  +6.3272863     7121.448     11962.31     12575.67     77.68266     155.4274     311.1646      1.811     4.64     844.5085     54.88604     1040.144        37     1.748     0.975  50.08   0
       105    646.0184    853.8858 307.6431296  +6.3352078     1063.998     1964.779     1963.384     77.68266     155.4894     311.2885      1.896     6.45     845.5887     54.88604     151.3574        15     1.487     0.784  40.16   0
       106    345.5634    851.7404 307.7678953  +6.3260681     11714.36     19116.16     20625.18     78.05405     155.7372     311.3505      1.782     4.97     843.5149     54.88604     1481.823        42     1.726     0.987  43.85   0
       107    896.4500    846.7000 307.5394341  +6.3465087     4455.198     8129.833     9034.259     78.05405     155.7372     311.5362      2.008     4.70     842.7788     54.88604     591.6241        40     1.860     1.165  47.00   0
       108    663.9228    847.8853 307.6359003  +6.3382821     3182.903     5381.223     5996.369     78.05405     156.0463     311.4743      1.782     4.65     845.4269     54.88604     423.5869        29     1.648     0.954  46.05   0
       109    736.0460    845.8368 307.6060358  +6.3415298     525.4396     945.4945     962.5291     77.80666     155.7372     311.2885      1.532     5.19     845.2145     54.88604     100.2462         6     1.350     0.564  86.10   0
       110    638.8199    841.9979 307.6465162  +6.3398769     3181.089     5223.992     5954.568     77.68266     155.3653     311.1337      1.779     4.95     845.1895     54.88604     430.3804        23     1.678     0.818  41.68   3
       111    631.7472    836.5862 307.6496333  +6.3418759     1949.826     3427.054     3645.375     77.43407     155.6752     311.1337      1.886     4.83     845.0053     54.88604     271.8798        23     1.674     0.913  40.11   3
       112    827.2119    841.0334 307.5683601  +6.3465467     1422.016     2620.469      2516.46     77.55846     155.4894     311.2266      1.841     6.14     843.7388     54.88604     226.0679        21     1.781     0.804  51.66   0
       113    629.4844    841.3921 307.6504110  +6.3398160     1060.962     1593.452     2089.545     77.68266     155.4274     311.2266      1.836     6.03     845.1321     54.88604     141.7943        15     1.444     0.762  45.19   0
       114    954.0051    839.5869 307.5157846  +6.3513584     713.6192     1164.405     1831.555     77.68266     155.4894     311.2576      1.897     4.45     841.1868     54.88604     98.08398         6     1.190     0.474  73.70   0
       115    915.3124    834.4493 307.5320156  +6.3521944     2703.011     4561.331     5361.305     78.05405     155.5513     311.4434      1.934     4.73     842.0288     54.88604     369.0918        25     1.588     0.937  47.33   0
       116    325.7270    835.4572 307.7766758  +6.3321290     930.0048      1456.86     1905.046     78.05405     155.7372     311.3505      1.685     4.08     843.3768     54.88604     149.6859        12     1.185     0.675  45.25   0
       117    373.4896    830.6821 307.7570144  +6.3356968     2462.185     3884.128     3895.993     77.80666     155.9227     311.4434      1.695     4.73      843.602     54.88604     385.6869        19     1.532     0.751  40.75   0
       118    342.3592    823.1450 307.7701878  +6.3377689      536.362     633.8989     410.3561     77.93045     155.7372     311.4124      1.294     3.35     843.2902     54.88604     97.62482         5     0.789     0.412  68.55   0
       119    509.7264    820.5115 307.7008153  +6.3444451     2895.581      4816.23     5442.352     78.05405     155.9845     311.4434      1.780     4.93      844.133     54.88604     398.7689        24     1.694     0.784  45.23   0
       120    854.8329    819.5453 307.5576162  +6.3563386     841.0169     1476.635     1457.969     77.93045     155.6752     311.3195      1.738     5.54     843.0027     54.88604     124.2263        11     1.361     0.783  45.24   0
       121    574.8673    817.9811 307.6738649  +6.3476627     762.4345     1109.589     1171.826     77.68266     155.6752     311.2885      1.537     5.69      844.109     54.88604     174.6633        12     1.479     0.616  45.83   0
       122    556.5690    816.4916 307.6815093  +6.3476675     5573.055     9405.411     10426.32     78.17746     155.5513     311.3814      1.810     4.88     843.9421     54.88604     761.8062        34     1.743     0.931  46.62   0
       123    563.3898    815.6882 307.6787054  +6.3482267     1075.315     2139.011     2362.871     77.68266     155.4274     311.1956      2.241     5.51     843.9691     54.88604      197.585        15     1.690     0.632  46.76   0
       124    474.2910    815.4744 307.7156913  +6.3453426     1426.413     2495.618     2506.059     78.05405     155.9227     311.4124      1.853     5.51     843.8148     54.88604     244.6544        18     1.674     0.755  47.32   0
       125    268.0892    816.5180 307.8012343  +6.3380224     740.2603     1311.099     697.1419     77.80666     155.9227     311.4434      1.650     4.95     842.9446     54.88604     120.0377         9     1.260     0.550  47.58   0
       126    892.4926    814.5478 307.5421531  +6.3596542     1244.842     2286.838     2310.996     77.93045     155.6133     311.5981      1.900     5.97     842.1728     54.88604     173.6962        18     1.740     0.766  36.49   0
       127    115.9339    814.4920 307.8644486  +6.3337665     1135.837     1792.408     1816.891     78.05405     155.9227     311.3814      1.811     5.76     840.7231     54.88604     173.5053        17     1.627     0.687  48.67   0
       128    691.9745    813.4253 307.6254142  +6.3534463     707.0345     1274.283     1044.482     77.55846     155.5513     311.2576      1.772     4.82     844.3233     54.88604     142.2811         8     1.235     0.533  37.64   0
       129    527.2301    810.4058 307.6938904  +6.3492020     18098.15     30075.14     31167.07     77.55846     155.5513     311.1646      1.766     5.04     843.5945     54.88604     2826.561        48     1.764     0.978  45.80   0
       130    369.2038    812.2181 307.7594146  +6.3431780     439.7465     637.5674     345.9961     77.68266     155.3033     311.1956      1.798     3.75     843.3127     54.88604     79.37122         5     0.975     0.414  45.30   0
       131    940.9371    808.5330 307.5222477  +6.3637478     3340.098     5630.443     5587.074     78.05405     155.7372     311.3814      1.822     4.80      840.854     54.88604     402.4181        27     1.676     0.932  40.23   0
       132     61.1388    807.2637 307.8874328  +6.3349154     599.7158     883.9203     1189.788     78.05405     155.7372     311.4124      1.517     5.91     839.0198     54.88604     80.25592         8     1.367     0.719  50.49   0
       133    413.0438    806.1395 307.7414245  +6.3471524     568.3214     983.8258     1682.234     77.93045     155.7372     311.5052      1.890     5.48     843.3226     54.88604     82.04297         9     1.396     0.606  39.49   0
       134     37.5214    801.1584 307.8974403  +6.3366448     1455.498     2329.079     1791.229     77.93045     155.7372     311.3814      1.746     5.31     838.1896     54.88604     186.1628        18     1.518     0.826  45.78   0
       135    694.4843    801.8376 307.6247614  +6.3583149     533.5997     817.9601     921.0173     78.05405     155.6752     311.3195      1.654     3.25     843.9725     54.88604     116.4747         5     1.141     0.269  34.39   0
       136    319.7926    799.1695 307.7803608  +6.3469149     3146.007     5116.042     4923.111     77.55846     155.5513     311.1646      1.696     4.75     842.9048     54.88604     465.9165        24     1.628     0.837  46.77   0
       137    582.2288    799.4103 307.6714335  +6.3555766     567.5818     859.6003     738.8369     77.55846     155.5513     311.2266      1.622     4.50     843.3832     54.88604     97.71045         6     1.247     0.462  49.29   0
       138     19.6998    797.3993 307.9049633  +6.3375996     1973.981     3432.376     3743.913     77.55846     155.3653     311.0717      1.910     4.98     837.6862     54.88604     245.1553        22     1.581     0.861  41.85   0
       139    785.4022    794.8146 307.5872619  +6.3642415     49321.42     83301.02     87874.48     77.68266     155.4274     311.2266      1.797     4.92     842.7114     54.88604     6636.085        66     1.825     1.067  45.98   0
       140    723.9706    797.0272 307.6126847  +6.3612832     765.3466     1324.648      2007.01     77.55846     155.5513     311.1956      2.025     5.33     843.5944     54.88604     113.0569        10     1.209     0.663  26.31   0
       141    242.0495    771.3847 307.8135623  +6.3557882     734777.9      1722948      1913842     77.43407     155.7372     311.1027      2.338    14.28     841.2995     54.88604     63075.96       619     2.864     2.071  68.59   4
       142    428.9139    793.7429 307.7352550  +6.3528014      676.286     1238.068     1208.441     78.05405     155.7372     311.5362      1.732     5.04      842.847     54.88604       121.32         7     1.673     0.430  50.67   0
       143    910.6764    789.9621 307.5354291  +6.3704110     7276.699     12946.12     13769.84     77.93045      155.799     311.3814      1.891     4.87     841.1422     54.88604     916.7841        40     1.800     1.057  45.47   0
       144    713.7070    789.5186 307.6171964  +6.3640421     19992.96     33991.19     36428.45     77.80666     156.0463     311.4434      1.817     4.86     843.4252     54.88604     2687.793        44     1.649     1.029  53.18   3
       145    707.3763    785.9204 307.6199447  +6.3653171      80910.8     135291.7     144208.3     77.68266     155.4274     311.3505      1.799     5.01     843.3286     54.88604     11298.82        85     1.888     1.096  44.68   3
       146    352.2068    786.9296 307.7673202  +6.3530525     19150.47      31800.2     33405.25     77.55846     155.3033     311.2576      1.736     5.08     842.4508     54.88604     2932.365        48     1.758     0.993  43.57   0
       147    401.2466    787.1209 307.7469607  +6.3546118     1345.301     2235.993     1835.364     78.05405     155.7372     311.3505      1.744     6.30     842.4941     54.88604       206.39        17     1.616     0.795  47.42   0
       148    414.0246    784.7551 307.7417370  +6.3560155     20687.78     33969.12     35268.88     77.55846     155.7372     311.2576      1.733     4.99     842.4095     54.88604     3105.726        49     1.744     0.978  45.37   0
       149    641.3923    786.2883 307.6473188  +6.3629672     644.7006     1013.364      1049.93     77.55846     155.4274     311.1337      1.557     3.41     843.3745     54.88604     107.0409         5     1.084     0.311  18.50   0
       150    951.3037    783.5737 307.5187804  +6.3743989     1900.808     3419.726     3449.577     78.17746     155.4894     311.2885      1.924     4.95     840.0662     54.88604     225.8833        25     1.688     0.932  44.88   0
       151    907.6318    781.4656 307.5369773  +6.3738184     6075.387      10319.3     11083.99     77.93045      155.799     311.3195      1.840     4.83     841.0181     54.88604     779.7148        34     1.725     0.991  47.26   1
       152    880.8339    782.2235 307.5480746  +6.3726148     652.9765     910.1616     639.9425     77.55846     155.4894     311.1646      1.656     3.46     841.6843     54.88604     91.19952         5     1.005     0.345  45.87   0
       153    648.1786    780.5201 307.6446958  +6.3655752      5950.22      9614.88     9692.606     77.68266     155.4274     311.3814      1.716     4.98     843.2364     54.88604     830.0555        29     1.648     0.873  43.32   0
       154    138.2112    780.9442 307.8563352  +6.3483653      477.361     798.8598     665.9313     77.43407     155.6752     311.0717      1.632     3.80     840.1894     54.88604     95.93945         5     1.171     0.354  79.51   0
       155    436.9194    778.7173 307.7324379  +6.3592732     1551.086      2487.12     2645.857     78.05405     155.9845     311.4743      1.779     5.23     842.1763     54.88604     221.4985        16     1.497     0.774  43.20   0
       156    161.7467    777.9553 307.8466684  +6.3503875     693.7377     1183.982     822.2969     78.05405     155.7372     311.3814      1.591     5.69     840.5377     54.88604      118.167        11     1.654     0.551  64.89   0
       157    876.3168    772.4902 307.5502754  +6.3764839      801.449     1102.465     1428.324     77.80666     155.9845     311.4743      1.478     5.34     841.5561     54.88604     119.7351        10     1.112     0.725  56.98   0
       158    601.6194    772.7452 307.6642812  +6.3672341     866.1646     1339.794     1434.062     77.55846     155.7372     311.1956      1.780     3.96     842.8576     54.88604     156.5634        10     1.191     0.710  49.51   0
       159    682.9977    770.6242 307.6305763  +6.3708216     2294.359     3926.266     3898.676     77.68266     155.4274     311.1956      1.787     5.19     842.9012     54.88604     321.1698        22     1.633     0.829  39.11   0
       160    152.3749    771.6664 307.8507700  +6.3526706     859.9561     1415.512     1584.951     77.68266     155.6752     311.2885      1.665     5.01      840.035     54.88604      153.907        11     1.404     0.546  36.40   0
       161    127.2847    771.7497 307.8611802  +6.3517960     1038.204     1761.259     1391.955     78.05405     155.6752     311.4743      1.764     5.74     839.5809     54.88604     135.0112        13     1.450     0.640  33.20   0
       162    416.9795    767.4246 307.7410937  +6.3632705     50318.71     82084.42     86579.53     77.68266     155.5513     311.3195      1.751     4.95     841.5573     54.88604     7746.843        71     1.785     1.061  43.03   0
       163    534.7606    766.4120 307.6922435  +6.3676198     6628.017     10675.19     11426.97     77.55846     155.5513     311.1337      1.747     5.09     842.3729     54.88604     985.7556        30     1.654     0.870  44.40   0
       164    451.4996    765.0079 307.7268477  +6.3654211     4259.085     6704.224      7867.22     77.80666     155.3653     311.2266      1.749     4.96     841.6047     54.88604     609.3228        29     1.720     0.884  45.14   3
       165    448.0581    758.4117 307.7284980  +6.3680300     2057.179     3711.629     3806.157     77.43407     155.6752     311.1027      1.881     5.08     841.2866     54.88604     314.2239        20     1.707     0.770  39.74   3
       166    565.7274    765.9768 307.6794054  +6.3688323     1686.471     1679.059     1704.559     77.68266     155.5513     311.3505      0.676     1.98     842.5555     54.88604     744.2836         5     0.600     0.308  -1.37   0
       167    779.9578    762.8491 307.5905932  +6.3772602     10641.15     17999.85     19399.56     78.05405     155.6752     311.3505      1.780     4.97     841.8821     54.88604     1458.954        42     1.797     0.988  45.86   0
       168      9.2028    759.2584 307.9106081  +6.3529968     868.4796     1577.634       1349.9     77.43407     155.5513     311.1337      1.736     5.59     837.7666     54.88604     143.7176        10     1.555     0.567  33.35  16
       169    801.7959    757.2630 307.5817164  +6.3802936     1279.881     2015.328     1965.781     77.43407     155.4894     311.1337      1.676     4.70      841.446     54.88604     212.5842        14     1.416     0.706  46.60   0
       170    145.6869    755.3632 307.8540957  +6.3591786     2895.028     5005.036     5412.712     78.05405     155.6133     311.3814      1.841     4.84     839.1028     54.88604     406.6312        27     1.599     0.968  46.71   0
       171    137.6667    755.1658 307.8574310  +6.3589915     10684.18     17777.45     19273.68     77.93045      155.799     311.4434      1.777     4.91     839.0087     54.88604     1450.836        38     1.725     0.953  43.40   3
       172    129.9496    752.6450 307.8607188  +6.3597740     2686.037     4558.956     5264.233     78.17746     155.6133     311.4124      1.761     5.05     838.8298     54.88604     362.5902        25     1.758     0.792  40.04   3
       173    974.8773    751.6080 307.5100655  +6.3883820     1230.026     2220.838     3100.677     77.68266     155.2412     311.1956      1.946     5.50     838.5704     54.88604      163.022        18     1.363     0.982  45.84   0
       174    925.5002    751.4514 307.5305657  +6.3868064      5712.57     9819.982     9825.808     78.05405     155.7372     311.5981      1.862     4.94      839.978     54.88604     731.8646        32     1.744     0.971  47.40   0
       175    681.0318    749.1173 307.6321140  +6.3796371     1616.735     2552.948     2789.526     78.05405     155.5513     311.2576      1.712     4.75     842.0827     54.88604     231.2188        19     1.521     0.795  43.68   0
       176    567.8464    748.4985 307.6791132  +6.3761204     2190.968     3431.963     3578.931     78.05405     155.5513     311.5671      1.683     5.20     842.1697     54.88604      314.934        20     1.610     0.781  43.85   0
       177    415.8958    748.1094 307.7421934  +6.3712102     1072.355     1773.676     2008.293     78.05405     156.2316     311.3814      1.842     5.51     840.6514     54.88604     167.8233        13     1.583     0.602  47.29   0
       178    130.0576    745.9758 307.8608991  +6.3625315     1753.078     3026.312     3096.877     77.68266     155.7372     311.2266      1.990     5.18     838.5331     54.88604      278.922        21     1.756     0.861  58.62   1
       179    699.8647    747.0181 307.6243676  +6.3811312     565.1601     729.4659     990.5656     77.68266     155.7372     311.2266      1.445     3.77     841.9862     54.88604       86.466         5     0.808     0.506  29.74   0
       180    919.6964    743.5347 307.5332397  +6.3898827     2613.385     4494.832     4767.444     78.05405     155.8609     311.4124      1.859     5.31     839.9585     54.88604     312.6837        27     1.802     0.904  49.45   1
       181    949.2775    743.0808 307.5209767  +6.3910529     2644.847     4668.547     4673.406     78.30067     155.9845     311.5362      1.881     5.21     839.1246     54.88604      323.459        28     1.645     1.033  52.84   0
       182    672.0291    742.9334 307.6360582  +6.3818908     1329.304     2294.234     2577.603     77.80666     155.7372     311.3505      1.984     5.48     841.8663     54.88604     222.5585        16     1.611     0.755  40.29   0
       183    980.0037    742.6903 307.5082361  +6.3922348      1675.24     3105.622     3376.125     77.55846     155.4274     311.1027      1.943     5.23       838.15     54.88604     232.8268        20     1.591     0.909  36.93   0
       184    819.5452    741.2261 307.5748867  +6.3875063     944.0308     1530.573     1560.428     77.68266      155.799     311.2266      1.895     5.29     841.0151     54.88604     140.7299        11     1.441     0.584  42.78   0
       185    244.6671    738.0331 307.8136000  +6.3696476     1701.402     2985.511     4011.469     77.93045      155.799     311.3814      1.883     6.34     840.0042     54.88604     243.0463        17     1.525     0.741  50.97   0
       186    893.9554    738.3080 307.5440991  +6.3911856     659.0855     1195.133     1632.993     78.05405     155.6752     311.5052      2.179     4.66     840.3538     54.88604     147.9851         6     1.193     0.516  24.61   0
       187    937.3149    733.0712 307.5262770  +6.3947889     877.1368     1694.027     1693.415     78.17746     155.9845     311.4124      2.005     6.13      839.301     54.88604     128.7091        12     1.754     0.602  51.61   0
       188    265.0055    733.3146 307.8053178  +6.3722763      757.603     1035.409     877.0918     77.55846     155.4274     311.1027      1.487     5.31     839.7399     54.88604     117.0862        11     1.301     0.612  37.01   0
       189    160.1428    733.1158 307.8488466  +6.3688491     672.4402     947.1504     386.5009     78.05405     155.7372     311.4743      1.367     5.18     838.1266     54.88604     111.5874         9     1.406     0.539  38.58   0
       190    964.0153    730.7825 307.5152710  +6.3966210     2000.611     3755.856     4221.694     77.80666     155.4274     311.3195      1.921     5.65     838.4254     54.88604     270.1628        27     1.839     0.953  47.86   0
       191    911.1778    732.1124 307.5371580  +6.3943164     996.7977     1655.547      1994.05     78.05405     155.5513     311.2885      1.705     6.10     839.8879     54.88604     128.6652        12     1.494     0.701  35.50   0
       192    683.6498    730.1985 307.6316623  +6.3875367     865.5591     1377.085     2073.724     77.43407     155.3653     310.9787      1.751     5.30     841.4702     54.88604     107.7076        12     1.299     0.773  52.16   0
       193   1005.6281    724.0255 307.4982245  +6.4007932      1385.13     2678.396     2553.566     77.55846     155.5513     311.2576      1.847     6.21     837.1161     54.88604     162.9291        19     1.808     0.775  47.93   0
       194    474.5822    725.2625 307.7186041  +6.3826039     689.8676     999.0694     766.7653     77.68266     155.6752     311.2266      1.595     5.02     840.1307     54.88604     104.6873         8     1.068     0.668  43.91   0
       195    404.3036    726.0835 307.7477460  +6.3799182     504.0481     774.8381     707.4894     78.05405     156.1081     311.4434      1.619     5.23     839.7064     54.88604     90.61096         6     1.144     0.675  12.59   0
       196    632.2030    723.9560 307.6532256  +6.3884004     751.0822     1258.317     1172.414     77.43407     155.3033     311.0407      1.783     6.19     841.4147     54.88604     111.5281        10     1.458     0.739  55.33   0
       197    807.4537    722.8492 307.5805215  +6.3946927     1037.529     1573.837     1350.958     78.17746     155.7372     311.4124      1.640     5.45     840.6873     54.88604     153.8265        12     1.534     0.545  42.54   0
       198    893.7208    720.0536 307.5448078  +6.3987158     1401.566     2499.405     2728.763     78.05405     155.7372     311.4124      1.975     6.88     839.9608     54.88604      176.642        21     1.920     0.830  44.40   0
       199    868.1373    715.3224 307.5555854  +6.3998190     974.6213     1516.589      1453.09     78.30067      155.799     311.3505      1.717     5.38     840.3359     54.88604     136.3209        13     1.436     0.817  42.34   0
       200    652.7775    714.1717 307.6450143  +6.3931263     504.7128     729.2488     652.0369     77.55846     155.5513     311.2576      1.658     3.45     841.1004     54.88604     78.16571         5     0.999     0.345  44.03   0
       201    850.5098    711.4910 307.5630306  +6.4008151     1403.695     2315.945      2437.57     78.05405     156.2316     311.4743      1.848     5.54     840.3458     54.88604     191.3666        18     1.661     0.775  29.05   0
       202    113.2543    709.0638 307.8691187  +6.3772104     1000.041     2140.014     2161.643     78.05405     155.6752     311.3505      2.346     7.50     837.0739     54.88604     122.4879        18     1.799     0.875  63.63   0
       203     49.2181    710.4241 307.8956502  +6.3745030     2259.406      3678.69     3712.427     77.68266     155.5513     311.2885      1.710     6.08     837.3326     54.88604     315.4018        18     1.521     0.739  41.94   0
       204    567.1805    705.0358 307.6808499  +6.3940456     616.4766     796.3074     981.5145     77.55846     155.5513     311.1646      1.624     5.36     840.5958     54.88604     83.54431         8     1.238     0.654  13.86   0
       205    662.0038    698.8494 307.6416991  +6.3997609     5852.782     9554.272     9832.731     77.43407     155.5513     310.9787      1.692     5.20     840.7201     54.88604     917.1427        30     1.683     0.847  46.25   0
       206    520.0555    698.7270 307.7006220  +6.3950788     758.9839     1155.547      1278.17     77.93045     155.6133     311.3505      1.659     5.57     839.8276     54.88604     154.2924         8     1.613     0.542  44.07   0
       207    608.7626    698.1084 307.6638231  +6.3982925     1364.389     2192.434     2411.704     78.17746     155.6752     311.4124      1.732     6.01     840.5244     54.88604     224.6409        17     1.619     0.745  45.83   0
       208    530.9017    699.2865 307.6961013  +6.3952096     640.7877     937.8408     919.3267     78.05405     156.1698     311.4434      1.466     3.40      840.006     54.88604      128.191         5     0.991     0.338  41.11   0
       209    999.0840    694.0071 307.5019451  +6.4129718     2216.985     3771.039     3536.848     77.68266     155.4274     311.2266      1.793     4.58     837.2597     54.88604     291.8491        23     1.590     0.907  50.71   0
       210    635.7880    694.5414 307.6527253  +6.4006662     1938.334     3305.866     3589.454     77.43407     155.6752     311.1027      1.848     5.30     840.5194     54.88604     268.3193        20     1.618     0.769  46.44   0
       211    311.4934    695.0867 307.7873110  +6.3896163     668.2801     1118.292     916.3879     78.05405     156.1698     311.4743      1.525     5.20     837.4296     54.88604     113.9172         8     1.639     0.466  50.35   0
       212    247.5204    694.8571 307.8138711  +6.3875715     698.9445     1167.789     1348.646     78.05405     155.7372     311.3814      1.863     4.99     836.8309     54.88604     120.3059         9     1.313     0.536  53.68   0
       213    124.8838    694.8856 307.8647705  +6.3834545     3383.342     5711.406     6106.286     77.80666     155.9227     311.4434      1.757     5.08     836.5496     54.88604     463.8188        25     1.642     0.847  40.45   0
       214    778.9327    690.9427 307.5934296  +6.4069192     18372.32     30399.56      31631.1     78.17746     155.6752     311.3505      1.744     4.96     840.3375     54.88604      2761.56        45     1.790     0.956  44.25   0
       215    477.9533    691.3459 307.7183455  +6.3967217     1396.994      2245.34     1772.168     78.05405     155.7372     311.4124      1.724     4.89     838.8799     54.88604      192.968        18     1.533     0.784  44.99   0
       216    908.9950    690.5535 307.5394557  +6.4114053     3434.777     5866.949     6176.382     77.43407     155.5513     311.0717      1.812     4.60     839.0726     54.88604      446.262        27     1.585     0.981  44.13   0
       217    324.1828    691.5274 307.7821640  +6.3915102     735.9551     1004.046     858.7773     77.55846     155.6752     311.2885      1.541     5.69     837.5443     54.88604     101.3013        10     1.163     0.783  46.25   0
       218    506.8257    690.8915 307.7063767  +6.3978729     828.2553     1313.544     1816.476     78.17746     155.4894     311.2266      1.562     4.58      839.293     54.88604     150.5704         8     1.296     0.461  46.61   0
       219    279.7879    690.7461 307.8006169  +6.3903484     592.0104     893.6949     985.0537     77.43407     155.6752     311.1027      1.876     4.38     836.6291     54.88604     96.55719         7     1.150     0.474  28.58   0
       220    252.4431    684.7343 307.8121691  +6.3919162      5969.56     9699.793     10005.29     78.05405     155.6752     311.4124      1.739     5.00      836.094     54.88604      834.561        31     1.683     0.961  41.29   0
       221    659.4630    683.8225 307.6432582  +6.4058814     6664.311     10862.64     11010.66     77.68266     155.7372     311.2576      1.736     5.18     840.3218     54.88604     931.3866        30     1.684     0.857  46.41   0
       222    642.3387    685.2056 307.6503197  +6.4047396     1014.898     1775.615     1867.786     77.43407     155.5513     311.1646      1.828     6.08     840.2485     54.88604     156.4914        13     1.335     0.779  44.99   0
       223    354.1565    683.5173 307.7699929  +6.3958197     734.1126      1020.62     1000.228     78.05405     155.7372     311.3505      1.782     4.15      837.927     54.88604     116.6093         7     1.068     0.459  48.01   0
       224    919.6458    676.4633 307.5355064  +6.4175777      1156.94     1747.586     1481.988     77.93045     155.6752     311.4124      1.732     6.04     838.5813     54.88604     160.3501        15     1.429     0.812  47.58   0
       225    731.2208    672.2075 307.6138625  +6.4130676      3351.92     5707.751     6126.175     77.68266     155.5513     311.1956      1.789     5.01     840.1098     54.88604      452.428        28     1.719     0.858  43.34   0
       226    686.4497    672.4688 307.6324376  +6.4114688      1123.11      1797.98     2277.796     77.93045     155.6752     311.3814      1.741     5.67     840.1098     54.88604     157.0499        13     1.393     0.649  54.05   0
       227    997.5219    668.5974 307.5034437  +6.4234128     7830.387     13708.71     14461.92     77.43407     155.2412     311.1646      1.859     4.93     837.0886     54.88604     968.8743        41     1.790     1.061  47.01   0
       228    936.1073    669.1879 307.5289170  +6.4211291     2168.278     3643.546     4138.602     77.80666     155.4894     311.1956      1.759     5.27      838.186     54.88604     331.3069        22     1.541     0.878  42.61   0
       229    738.5649    669.5921 307.6109018  +6.4143921     463.7158     907.2806     1310.022     77.55846     155.5513     311.1646      1.862     4.51     840.0195     54.88604     82.46271         5     1.362     0.424  45.86   0
       230     16.8135    668.9276 307.9105012  +6.3905513     1814.495      3239.32     3634.161     77.55846     155.4894     311.1646      1.952     5.07      836.704     54.88604     243.7803        21     1.647     0.841  33.67   0
       231    550.3272    667.2688 307.6891144  +6.4090788     595.1613     1070.642     1075.033     78.17746     155.8609     311.3814      1.756     6.51     838.9722     54.88604     96.14642         9     1.540     0.774  40.68   0
       232    434.1342    667.4714 307.7373367  +6.4051173     499.4557      710.244      889.282     78.05405      155.799     311.4434      1.234     3.29     837.9097     54.88604     108.0702         5     0.755     0.457  19.60   0
       233    536.0917    664.7383 307.6951083  +6.4096489     1884.072     3127.176     3351.606     78.05405      155.799     311.4743      1.734     4.92     838.7745     54.88604      291.491        20     1.629     0.759  44.92   0
       234     74.7628    663.8347 307.8866214  +6.3945969     24069.97     39478.57     41286.54     77.80666     155.5513     311.1646      1.750     4.99     836.0074     54.88604      3278.51        55     1.758     1.030  41.42   0
       235    505.0098    662.0116 307.7081015  +6.4097378     1328.372     1894.691     1732.617     77.80666     155.5513     311.3505      1.550     5.33     838.3318     54.88604     232.9698        14     1.454     0.639  39.42   0
       236    926.0009    660.7954 307.5333931  +6.4242589     959.6244      1378.83     955.4626     77.43407     155.3033     311.1337      1.476     4.76     838.2199     54.88604     121.8875         9     1.033     0.622  51.47   0
       237    545.3141    658.4379 307.6914920  +6.4125582     1006.275     1470.853     1658.239     78.05405     155.6752     311.3814      1.771     5.22     838.7243     54.88604     157.4866        11     1.341     0.591  40.40   0
       238    720.8026    655.8848 307.6187346  +6.4194611     3265.923     5208.953     5523.777     77.43407     155.3653     311.1027      1.654     5.29      839.436     54.88604     518.4996        23     1.622     0.841  46.56   0
       239    742.7531    654.0710 307.6096840  +6.4209408     3861.089     6181.503     6535.044     78.05405     155.7372     311.3814      1.716     5.07     839.3382     54.88604     604.8682        26     1.655     0.832  38.47   0
       240    410.5076    652.7180 307.7476400  +6.4104204     1283.036      1838.45      1932.71     77.80666     156.0463     311.4434      1.598     5.53     837.3925     54.88604     186.2637        12     1.471     0.587  44.62   0
       241    574.3150    652.0538 307.6796687  +6.4161617     3264.238     5092.256     4765.097     78.05405     155.6752     311.5362      1.614     5.18     838.7528     54.88604     510.9775        22     1.531     0.795  41.42   0
       242    318.6901    651.2872 307.7857994  +6.4079429     1340.258     2010.033     1942.002     77.80666     156.1698     311.5052      1.564     5.60     835.7571     54.88604     217.7834        15     1.526     0.652  47.58   0
       243    234.8886    651.8347 307.8205644  +6.4049141     1568.485     2652.535      2777.86     78.17746     155.6752     311.3814      1.764     5.31      834.899     54.88604     221.8965        17     1.597     0.718  46.86   0
       244   1015.7520    650.0532 307.4964967  +6.4316758      4149.94     7230.078     7957.349     78.17746     155.7372     311.4124      1.840     5.04     835.9882     54.88604     498.9502        32     1.717     0.996  45.91  16
       245    981.1071    648.9566 307.5109147  +6.4309782      6840.67     12010.95     12729.44     78.05405     155.7372     311.5052      1.872     5.55     836.7643     54.88604     898.1165        36     1.824     0.978  48.07   0
       246    534.9641    650.2106 307.6960647  +6.4156103     651.4674     1100.357      1343.58     77.55846     155.5513     311.1646      1.851     5.18     838.4306     54.88604     96.13043         7     1.026     0.740  79.54   0
       247    700.7712    647.6462 307.6273260  +6.4221960     885.4847     1504.364     1272.586     77.55846      155.799     311.2576      1.549     5.39     839.0991     54.88604     132.9456        11     1.566     0.524  32.93   0
       248     92.9195    646.4432 307.8796725  +6.4023866     858.6605     1441.227     1463.756     78.05405     155.7372     311.3505      2.050     6.65      835.599     54.88604     110.5303        15     1.549     0.801  41.50   0
       249    426.5022    643.5706 307.7413088  +6.4147319      2759.74     4409.333     4089.021     78.17746     155.4894     311.4124      1.705     5.59     837.3069     54.88604     374.0548        20     1.524     0.784  46.98   0
       250    139.5190    642.7136 307.8604568  +6.4054878     22914.05     36818.09     38280.98     77.80666     155.9845     311.5052      1.725     4.65     835.1878     54.88604     3333.025        47     1.728     0.958  42.36   0
       251    807.9732    642.8038 307.5829891  +6.4277640     1054.003     1841.236     2114.836     77.55846     155.5513     311.2266      1.790     6.14     838.7601     54.88604     151.4573        13     1.741     0.609  45.51   0
       252    359.0924    637.8732 307.7694811  +6.4148325     613.3978     971.1604     901.0654     77.93045     155.8609     311.4124      1.667     5.19     836.2021     54.88604     99.17072         6     1.622     0.470  49.92   0
       253    976.1054    631.9728 307.5135593  +6.4378255      6058.16     11109.41     11974.23     78.17746     155.4894     311.2266      1.982     5.34     836.3737     54.88604      727.256        43     1.949     1.058  44.73   0
       254     20.8162    631.5939 307.9101012  +6.4061013     1077.154     1773.985     2188.059     77.68266     155.4894     311.2266      1.898     5.63     835.8295     54.88604     154.8859        12     1.577     0.567  52.54   0
       255    569.5430    627.3788 307.6824787  +6.4261917     46082.89      73204.9     76294.09     77.68266     155.6752     311.1956      1.731     5.07     838.0652     54.88604     6916.523        61     1.751     0.955  44.60   0
       256    794.7923    628.7649 307.5889312  +6.4331228     401.6156     620.6863     623.3435     77.55846     155.5513     311.1646      2.171     5.59     838.2406     54.88604     72.65619         5     1.202     0.732   5.07   0
       257    212.4944    628.3242 307.8306523  +6.4138727     661.2786     1189.603     1570.633     77.80666     155.9227     311.3814      2.075     5.38     834.6414     54.88604     103.9424         8     1.519     0.538  61.55   0
       258    529.4258    628.2189 307.6991029  +6.4245067      657.803     776.0971     697.4083     77.68266     155.5513     311.2885      1.228     3.40     837.8945     54.88604     103.2664         6     0.699     0.663  -5.58   0
       259    499.6773    624.2716 307.7115839  +6.4251440     690.4213     986.3812     1072.096     78.30067     155.9845     311.3814      1.496     4.83     837.5798     54.88604     123.2387         7     1.311     0.536  56.59   0
       260    177.1363    624.1096 307.8454707  +6.4144295      2629.29     4423.884     4992.229     78.05405     155.9227     311.4434      1.699     5.75     834.6756     54.88604      438.538        21     1.585     0.834  44.07   0
       261     69.7105    618.4894 307.8902496  +6.4131516     1363.626     2000.046     2145.435     78.05405     156.2316     311.4743      1.645     5.73     835.3307     54.88604     192.1993        14     1.290     0.717  37.48   0
       262    466.7921    611.2122 307.7256736  +6.4294390     59957.84     95844.84     100050.1     77.68266     155.5513     311.2885      1.696     5.10     837.0306     54.88604     9648.671        69     1.775     0.971  44.96   0
       263     10.4119    613.0781 307.9150453  +6.4133980     1495.662     2530.115     2715.315     77.68266     155.3653     311.2266      1.775     5.35     835.4362     54.88604     228.3184        18     1.586     0.732  44.25  16
       264    652.3251    608.0259 307.6487659  +6.4369429     759.7248      1186.28     1293.674     77.68266     155.6133     311.3505      1.699     5.53      837.463     54.88604      117.369        10     1.436     0.600  44.89   0
       265    141.1922    606.3824 307.8609883  +6.4205458     1477.256     2431.038      1992.53     77.68266     155.4894     311.2266      1.802     6.17     834.6506     54.88604     238.7377        20     1.825     0.777  34.39   0
       266    420.2388    604.1946 307.7452338  +6.4307823     852.5125     1469.632     1603.056     77.18468     155.4894     311.1337      1.939     5.75     836.1406     54.88604     132.7942        12     1.517     0.614  43.07   0
       267    613.0723    602.9401 307.6652308  +6.4377347     881.4305     1330.906     1343.501     78.17746     155.7372     311.4124      1.721     5.39     837.3893     54.88604     157.9411        11     1.259     0.663  49.61   0
       268     13.6853    602.5836 307.9140412  +6.4178411     706.7668     1045.019     1801.158     77.68266     155.4894     311.2885      1.599     4.05     835.1971     54.88604     111.1721         7     0.857     0.698  67.85   0
       269    312.2327    600.5083 307.7901904  +6.4286951     2054.981     3173.471     3192.845     78.17746     155.6133     311.4124      1.670     4.90     834.3514     54.88604      352.864        19     1.614     0.711  46.30   0
       270    464.5499    599.4906 307.7269987  +6.4342044     896.8841     1534.821      1926.52     78.05405     155.5513     311.5671      1.762     4.89     836.6781     54.88604     140.5731        10     1.282     0.529  44.74   0
       271    738.8617    594.7111 307.6132906  +6.4453234     4959.289     8120.682     8259.022     78.05405     155.8609     311.4434      1.719     5.37     837.2645     54.88604     732.6655        28     1.647     0.833  40.06   0
       272    792.3680    589.9023 307.5912406  +6.4490900     12741.73     20743.06     21775.04     78.05405     155.6133     311.4743      1.747     5.15     836.9626     54.88604     1842.871        39     1.733     0.902  44.93   0
       273   1009.4945    590.2433 307.5010953  +6.4561662      725.561     1402.218     1230.858     78.05405     155.6752     311.5052      1.888     5.53     834.5999     54.88604     122.6752        10     1.617     0.534  34.15   0
       274    534.8401    590.1520 307.6981351  +6.4404065     1189.545     1828.746     2552.738     77.93045     155.7372     311.2266      1.615     5.28     836.9528     54.88604     164.9396        13     1.442     0.626  42.70   0
       275    616.4254    588.0300 307.6643397  +6.4440035     2809.125     4220.276     4454.873     77.55846     155.5513     311.2266      1.606     4.84     836.9017     54.88604     487.8235        20     1.496     0.792  44.08   0
       276    933.5594    584.3186 307.5328162  +6.4560906      1081.39     1744.936     1948.179     78.05405     155.7372     311.3195      1.885     5.55      836.201     54.88604     165.4861        12     1.432     0.606  47.97   0
       277    374.8127    582.0714 307.7648348  +6.4384001     933.4305     1292.212       1301.8     77.55846     155.4894     311.1956      1.500     4.83     834.4049     54.88604     141.5024         9     1.456     0.455  45.54   0
       278    228.8104    581.6475 307.8254539  +6.4336928     1095.869     2122.744     2046.731     77.55846     155.6133     311.0717      2.007     6.12     833.9187     54.88604     155.7365        13     1.549     0.680  40.79   0
       279    868.4200    573.0143 307.5602359  +6.4585935     2605.688     4380.246     5003.949     77.80666     155.4894     311.2885      1.859     5.11     836.5196     54.88604     359.5483        23     1.617     0.826  50.02   0
       280    163.6678    572.8224 307.8527916  +6.4351562     591.6873     1069.663     1341.493     77.68266     155.6752     311.3505      1.737     5.07     834.3298     54.88604     86.00641         8     1.302     0.558  45.16   0
       281    827.2483    570.5436 307.5774101  +6.4582445     2362.802     3679.292     4155.575     78.05405     155.7372     311.4743      1.646     4.83     836.4293     54.88604     330.0624        19     1.544     0.773  47.54   0
       282    798.1235    566.5331 307.5896350  +6.4589316     2295.537     3812.031     5078.857     78.17746      155.799     311.3505      1.906     5.07     836.3059     54.88604     359.9214        20     1.601     0.765  48.04   0
       283    807.7755    561.7738 307.5857878  +6.4612181     147098.8     238765.5     250886.1     77.55846     155.5513     311.2885      1.723     5.31     836.1433     54.88604     22266.84       118     1.835     1.095  44.86   0
       284    739.3527    564.8884 307.6140874  +6.4576547     598.4163     1382.339      1728.78     78.05405     155.6133     311.4743      2.886     6.61     836.8525     54.88604     112.2012        12     2.390     0.513  55.56   0
       285    255.1687    565.7379 307.8150491  +6.4411443     7410.128     11622.26     11922.38     77.80666      155.799     311.3195      1.685     5.10     833.4625     54.88604     1073.377        28     1.665     0.821  41.62   0
       286    189.3497    560.3337 307.8425526  +6.4411730     55805.95     90261.77     95295.95     77.93045     155.6133     311.3814      1.766     5.09     833.9872     54.88604     8961.856        78     1.791     1.068  44.28   0
       287    113.3438    556.5249 307.8742307  +6.4402002     6161.507     9895.544     10387.75     77.93045     155.6752     311.3195      1.764     5.18     834.1794     54.88604     903.3109        35     1.734     0.932  36.92   0
       288    978.7363    553.5731 307.5150912  +6.4702876     1281.977     2071.517     2109.063     77.68266     155.6752     311.2885      1.855     5.94     834.8521     54.88604     161.0479        16     1.529     0.795  44.09   0
       289    228.5490    552.5740 307.8265428  +6.4456892     879.6606     1538.345     1738.737     77.68266      155.799     311.2885      2.085     5.10     833.4129     54.88604     119.5703        12     1.248     0.786  53.79   0
       290    844.2834    549.0527 307.5710587  +6.4676856     4126.692     6622.244     6379.507     78.05405     155.7372     311.5052      1.687     5.23     835.7812     54.88604     635.8926        26     1.644     0.844  45.15   0
       291    362.7592    547.3909 307.7710061  +6.4523179      16595.9     26166.23     27165.58     77.43407     155.5513     311.1027      1.691     4.96      832.899     54.88604     2603.754        42     1.691     0.905  44.00   0
       292    453.3845    547.4058 307.7333858  +6.4553392     587.1379     974.7369     695.8748     77.68266     155.4274     311.2266      1.564     4.68     834.8297     54.88604      91.8139         7     1.665     0.373  32.04   0
       293    164.6061    546.4780 307.8532911  +6.4460659      1871.19     2958.116     2584.232     77.68266     155.2412     311.1646      1.657     4.40     834.2109     54.88604     308.8619        18     1.533     0.763  43.55   0
       294    239.8329    544.0031 307.8221478  +6.4496060     853.4614     1304.621     907.7986     77.30948     155.5513     311.1027      1.772     5.53     833.1281     54.88604      139.931        12     1.465     0.589  46.49   0
       295    100.7240    543.1589 307.8799203  +6.4452965     748.5725     1716.426     1773.019     77.93045     155.7372     311.4124      2.155     6.61     833.9013     54.88604     234.2561        11     2.172     0.565  32.55   0
       296    798.3721    542.4064 307.5903408  +6.4689028     5651.823     9201.464     10253.85     77.55846     155.5513     311.1956      1.771     5.17     835.6117     54.88604     927.0839        29     1.670     0.863  42.37   0
       297    529.1257    542.1921 307.7021197  +6.4600201     6106.747     9670.353      9827.92     77.68266     155.3033     311.2266      1.671     4.89     835.4417     54.88604     1073.917        32     1.658     0.860  43.20   0
       298    170.1608    543.3804 307.8510898  +6.4475309     568.3179     886.5851      851.689     77.68266     155.5513     311.1027      1.585     4.48      834.058     54.88604     86.80273         6     1.190     0.480  47.14   0
       299    387.3595    538.9362 307.7610789  +6.4566312     1299.136     1997.064     2143.842     78.05405     155.6752     311.4743      1.599     3.93     833.0324     54.88604     212.8646        15     1.430     0.699  39.39   0
       300    573.8297    535.2885 307.6837940  +6.4643621     2277.472     4116.928      4188.05     78.17746     155.4894     311.2885      1.922     4.98     835.0934     54.88604     368.5197        27     1.534     1.192  37.33   0
       301    176.0348    535.5012 307.8489174  +6.4509811     6311.443     10364.58     10263.81     78.05405     155.6133     311.5362      1.728     4.85      833.713     54.88604      987.973        31     1.682     0.875  41.04   0
       302     47.7462    534.3371 307.9022090  +6.4471635     4801.792     7835.584     8008.786     78.05405     155.6752     311.3505      1.754     5.09     833.7528     54.88604     677.1868        29     1.763     0.825  44.52   0
       303    814.7079    534.6504 307.5838193  +6.4726491     1211.903     1972.514     1683.779     77.93045     155.6133     311.5671      1.644     5.99     835.3632     54.88604     198.0711        14     1.668     0.605  42.13   0
       304    491.8040    536.2009 307.7178142  +6.4612486     380.1195     497.1386     509.3581     77.43407     155.3033     311.1337      1.673     3.45     835.1313     54.88604     76.62762         5     0.999     0.344  43.01   0
       305    271.3144    531.8718 307.8094886  +6.4556686     82140.95     132477.9       139076     78.17746     155.9845     311.4124      1.737     5.13     832.3695     54.88604     12541.29        84     1.794     1.040  44.02   0
       306    561.0553    529.3207 307.6892976  +6.4664003      982.723      1430.16     2282.346     78.17746     155.7372     311.4124      1.644     4.73     834.7775     54.88604     181.9974        11     1.273     0.807  48.82   0
       307    255.0902    527.0482 307.8163861  +6.4571176     1366.698     2223.872     2347.977     78.05405     155.6133     311.5362      1.755     5.13     832.3765     54.88604     224.4758        19     1.754     0.792  47.87   0
       308    970.9939    525.4915 307.5192454  +6.4816265     1448.392     2154.785     2071.611     77.68266     155.4274     311.1956      1.604     5.23     834.1004     54.88604     213.7174        15     1.445     0.703  43.73   0
       309    794.5156    524.1433 307.5925542  +6.4763161     15214.57     24046.85     25019.47     78.05405     155.7372     311.4743      1.717     5.17     835.0898     54.88604     2252.622        44     1.732     0.907  44.94   0
       310    498.1072    522.6143 307.7156545  +6.4670694     39087.38     65932.76     70768.09     77.80666     155.4894     311.2266      1.808     5.50     834.4559     54.88604     5474.261        70     1.887     1.082  36.75   0
       311    648.5917    520.9802 307.6532388  +6.4727629     892.8095     1579.879      2243.67     77.80666     155.4894     311.1646      1.708     5.45      834.342     54.88604     125.4724        11     1.548     0.542  49.78   0
       312    210.6331    519.2451 307.8351038  +6.4588520     1576.679     2947.978     3265.475     77.68266     155.7372     311.2576      2.073     5.71     832.6516     54.88604     245.0116        21     1.676     0.891  50.18   0
       313     46.0431    519.4533 307.9034188  +6.4532522     1171.878     1890.466     1898.847     78.05405     155.7372     311.3814      1.715     5.26     833.5375     54.88604     173.1861        14     1.535     0.618  42.69   0
       314    668.3376    517.6877 307.6451521  +6.4747805     1189.045     1776.549     1917.955     77.93045     155.9227     311.4124      1.642     4.62     834.2072     54.88604     196.8176        13     1.407     0.595  42.71   0
       315    658.0306    517.6065 307.6494337  +6.4744706     2737.186     4930.326      5132.55     77.43407     155.4894     311.1646      1.855     5.08      834.222     54.88604     436.6719        24     1.649     0.827  44.08   0
       316    720.4315    516.7429 307.6235577  +6.4769059     1249.683     1863.546      1846.53     77.93045     155.7372     311.3195      1.637     5.79     834.9756     54.88604     214.2671        14     1.304     0.723  56.76   0
       317     76.1632    515.3026 307.8910561  +6.4559758     758.1179     1680.332     1449.506     78.05405     155.6133     311.5362      2.182     7.16       833.48     54.88604      108.428        14     1.923     0.747  34.07   0
       318    395.7717    513.3196 307.7584493  +6.4674901     1688.213     2814.266     2427.039     77.93045     155.5513     311.3505      1.761     5.58     832.4677     54.88604     299.6754        17     1.599     0.646  42.35   0
       319    327.3244    511.6586 307.7869192  +6.4658884     3849.529     5800.422      5555.84     78.17746      155.799     311.3505      1.654     4.91      831.393     54.88604     591.3318        26     1.639     0.785  44.50   0
       320    142.3875    510.2955 307.8637351  +6.4602623     24145.03      39304.7     40448.09     77.80666     155.4894     311.1646      1.749     5.04      833.075     54.88604     3738.459        50     1.749     0.960  43.06   0
       321    507.1819    510.9632 307.7122792  +6.4721834     1970.673     3151.443     3345.859     77.68266     155.5513     311.1646      1.637     5.11     833.8304     54.88604     371.8964        17     1.645     0.647  41.31   0
       322    870.5761    510.0251 307.5614515  +6.4846761       1467.6     2490.554     2643.546     77.55846     155.5513     311.3195      1.804     4.73     834.5929     54.88604     211.6427        14     1.436     0.741  44.08   0
       323    107.5363    508.6218 307.8782586  +6.4597859     2502.367     4082.953     4409.168     77.68266     155.7372     311.2576      1.820     5.26     833.3083     54.88604     367.4929        22     1.689     0.773  49.96   0
       324    344.3787    506.6564 307.7800081  +6.4685240      978.399     1544.642     1677.562     77.68266     155.7372     311.1956      1.725     5.53     831.2003     54.88604     144.5596        11     1.546     0.557  40.19   0
       325    968.0479    504.6883 307.5211648  +6.4901192     4585.908     7366.003     7568.116     78.05405     155.6133     311.4743      1.707     5.10     833.5162     54.88604     636.3383        29     1.707     0.839  41.72   0
       326    541.2894    497.3244 307.6985787  +6.4789534      1394.89     2137.945     1768.556     78.05405     156.0463     311.4743      1.429     4.43     833.0894     54.88604     300.1336        14     1.497     0.630  48.70   0
       327      6.6508    494.6953 307.9206072  +6.4621543     23602.41     38677.68     40998.41     77.93045     155.6752     301.3119      1.765     4.91     833.1929     54.88604     3144.266        51     1.761     0.991  43.89  16
       328    439.4373    491.3350 307.7410625  +6.4780269     40636.48     64120.21     66689.05     77.93045     155.6752     311.4434      1.712     5.34     832.5886     54.88604     6775.597        59     1.741     0.948  43.54   0
       329    647.4660    490.9252 307.6547155  +6.4851362     11729.98     18251.11     18803.29     78.17746     155.7372     311.3505      1.678     5.20     833.2608     54.88604     1693.297        33     1.664     0.849  42.19   0
       330    287.5344    491.8477 307.8041045  +6.4727382     970.8263     1396.073     1174.843     77.93045     155.6752     311.4124      1.588     5.65     830.6376     54.88604     128.7762        11     1.308     0.688  38.34   0
       331    204.5775    489.0613 307.8386357  +6.4711129     18236.35     30376.99     31673.41     77.68266     155.6752     311.2885      1.787     5.15     831.7055     54.88604     2600.997        49     1.856     0.943  43.13   0
       332    170.4205    490.0509 307.8527815  +6.4695607     1470.257      2266.06     2568.199     77.55846      155.799     311.2576      1.737     5.53     832.0845     54.88604     240.3942        17     1.615     0.685  44.13   0
       333   1014.0884    490.2671 307.5025335  +6.4976034      508.276     869.2098     422.4943     78.17746     155.9227     311.3505      1.753     4.18     832.0513     54.88604      73.8291         6     1.217     0.410  33.98   0
       334    981.4685    489.0919 307.5161153  +6.4970054     1012.047      1464.29     1576.452     78.05405     155.8609     311.3814      1.630     5.30     832.7394     54.88604     177.9758        11     1.322     0.658  34.88   0
       335    821.6139    489.1087 307.5824792  +6.4916849     914.8588     1483.961      1403.05     77.80666     155.4894     311.1956      1.684     5.40     834.0059     54.88604     142.8021        11     1.368     0.602  36.95   0
       336    910.2687    489.0255 307.5456766  +6.4946672     649.6444     921.9094     462.1852     77.68266     155.6133     311.2885      1.676     4.35      833.935     54.88604     99.20416         7     1.182     0.456  35.45   0
       337    569.3510    487.7558 307.6872509  +6.4838406     2657.889     4123.025     4109.144     78.05405     155.6752     311.3814      1.685     5.02     832.7029     54.88604     400.2462        21     1.555     0.759  42.90   0
       338    943.1378    484.8599 307.5321703  +6.4974797     4383.088     6883.433     7318.086     78.05405     155.6752     311.4124      1.655     4.95     833.5063     54.88604     641.3217        25     1.645     0.798  45.26   0
       339    616.2770    483.2888 307.6679199  +6.4872500     6203.381     9731.028     9823.941     78.05405     155.9845     311.4434      1.687     5.13     832.6719     54.88604     1068.982        27     1.634     0.795  45.32   0
       340    103.7093    484.0628 307.8806765  +6.4697986     1060.392     1578.349     1299.652     78.05405     155.8609     311.4434      1.651     5.47     832.9157     54.88604     141.2238        12     1.281     0.765  49.57   0
       341    514.8549    483.0191 307.7100337  +6.4839785     566.8456     905.4462     1394.022     77.55846     155.7372     311.1956      1.836     4.36     832.3706     54.88604      73.5542         6     1.230     0.441  36.62   0
       342    965.8320    477.1155 307.5230079  +6.5014316     3148.042     4960.829     5100.998     78.05405     155.5513     311.2885      1.674     4.67     832.7086     54.88604      435.675        23     1.546     0.827  44.83   0
       343    404.5765    476.4189 307.7560365  +6.4830217     642.4073     823.0845      935.798     77.80666     155.6752     311.3195      1.296     4.26     831.5827     54.88604     116.1218         6     1.208     0.428  44.33   0
       344    528.4492    474.5434 307.7046751  +6.4879320     7113.258     11408.83     12027.25     78.05405     155.7372     311.4434      1.750     5.05     831.9759     54.88604     1043.802        31     1.686     0.859  46.13   0
       345    374.5250    474.8508 307.7685648  +6.4826651     2487.435     4055.938     4165.682     78.05405      155.799     311.3814      1.766     5.33     830.6433     54.88604     356.0698        20     1.634     0.719  36.45   0
       346    744.1084    475.0330 307.6151280  +6.4949179     522.6411      910.864     899.5272     78.17746     155.6133     311.4124      1.691     3.80     833.2914     54.88604     88.77557         5     1.057     0.392  33.37   0
       347    884.8367    470.1755 307.5568664  +6.5016058     2931.654     4895.805     5299.022     77.68266     155.5513     311.1337      1.778     5.56     833.3516     54.88604     457.4567        28     1.769     0.869  43.82   0
       348    538.3008    471.7131 307.7006805  +6.4894294     667.3834     1081.718     1190.761     78.05405     156.1698     311.4434      1.717     5.41     831.8377     54.88604      110.034         7     1.372     0.601  45.24   0
       349    233.3512    470.7031 307.8273103  +6.4796566     686.8586     1098.895     955.6752     77.93045     155.6752     311.5362      1.714     5.72     830.8128     54.88604     119.7894         8     1.173     0.785  68.92   0
       350    892.3745    464.7445 307.5539190  +6.5040991     1947.786     3219.023     3423.877     77.68266     155.7372     311.1956      1.727     5.17     833.1447     54.88604     301.0166        19     1.714     0.702  44.92   0
       351    931.7715    464.0294 307.5375867  +6.5057038     1130.084      1878.56     2001.777     77.55846     155.4894     311.1337      1.693     5.43     832.9801     54.88604     190.0527        15     1.392     0.789  55.00   0
       352    110.9192    463.7290 307.8783702  +6.4784364     643.2093     1141.102      829.007     78.30067     156.0463     311.4124      1.765     6.86     832.3931     54.88604     123.9642        11     2.080     0.635  36.43   0
       353    269.3795    463.5341 307.8125956  +6.4838224     426.7912     746.2522     654.4871     77.68266     155.7372     311.2576      1.896     7.73      829.972     54.88604     112.3336         7     1.926     0.869  -4.08   0
       354    716.4427    460.8257 307.6270903  +6.4998634      2761.47     4397.905     4532.791     77.68266     155.7372     311.2266      1.678     4.60     832.5192     54.88604     457.7548        20     1.481     0.847  42.95   0
       355    610.5061    460.9875 307.6710650  +6.4962666     446.9733     803.3781     1182.559     77.80666     155.4894     311.1956      2.073     3.99     831.8165     54.88604     103.8215         5     1.391     0.327  39.36   0
       356     78.0315    459.9742 307.8921493  +6.4788846     1806.308     3070.737     2926.853     77.55846     155.4894     311.2266      1.601     6.00     832.6577     54.88604     298.3694        15     1.585     0.639  41.85   0
       357    427.4908    459.3662 307.7470980  +6.4908288     1039.951      1535.31     1745.115     78.17746     155.6133     311.3814      1.513     4.74     830.9269     54.88604      185.735        10     1.320     0.482  44.67   0
       358    387.2051    458.9013 307.7638379  +6.4896749     3567.294     5741.323     6205.724     77.80666     155.4274     311.0407      1.698     5.53     830.2165     54.88604      648.076        25     1.646     0.832  42.61   0
       359    614.9232    455.5542 307.6694138  +6.4986574     9714.362     15250.41     15896.95     77.93045      155.799     311.3814      1.670     4.88      831.671     54.88604      1530.08        34     1.678     0.859  43.66   0
       360    777.6398    452.0670 307.6019776  +6.5055177     15449.05     24274.81     25910.91     77.93045     155.6752     311.4743      1.690     5.08     832.5117     54.88604     2338.811        39     1.699     0.867  44.33   0
       361    297.3815    452.5088 307.8013426  +6.4893117     2597.577     4020.369     3646.325     77.93045     155.4894     311.2576      1.673     4.78     829.2534     54.88604     418.6123        23     1.655     0.813  46.62   0
       362    420.8505    451.8386 307.7501081  +6.4937153     619.3985     1027.739     695.8046     77.80666     155.7372     311.3505      1.878     5.08     830.4735     54.88604     95.17682         7     1.342     0.543  45.47   0
       363    907.2327    449.8487 307.5482494  +6.5107441     450.2387     786.5209     526.6324     77.80666     155.7372     311.3195      1.469     4.80     832.5002     54.88604     106.8052         5     1.261     0.517  38.68   0
       364    806.5579    449.0051 307.5900746  +6.5077444     1184.751      1760.71     1644.468     77.43407     155.4274     311.1027      1.735     5.41     832.5872     54.88604     189.0463        14     1.514     0.756  43.81   0
       365    380.2373    449.0430 307.7670625  +6.4935128      1480.61     2482.512      2748.94     77.80666     155.7372     311.2576      1.769     5.28     829.6035     54.88604     223.3028        18     1.532     0.761  42.87   0
       366    962.8083    446.9707 307.5252725  +6.5137793     1567.976     2506.617     2442.365     77.68266     155.5513     311.1646      1.665     4.99     831.7865     54.88604     203.3898        17     1.460     0.773  50.12   0
       367    781.5548    447.3488 307.6005105  +6.5075963     1278.473     2237.791     2914.525     78.17746     155.6752     311.4124      1.908     5.88     832.3448     54.88604     220.9709        14     1.656     0.588  43.08   0
       368    114.9520    444.1872 307.8773559  +6.4866408     4135.438     6982.646     7727.876     77.43407     155.6133     311.1027      1.795     4.85     831.9391     54.88604     689.0981        30     1.591     0.959  41.46   0
       369    369.2578    445.5268 307.7717390  +6.4945978     670.9091      1035.45     1195.866     78.17746     155.7372     311.3505      1.869     3.41     829.2838     54.88604     146.5182         5     0.830     0.406  23.65   0
       370    753.2531    442.9143 307.6124091  +6.5084854      2306.11      3664.43     4008.054     78.05405     155.6752     311.5362      1.770     4.57     831.9111     54.88604     360.1881        21     1.496     0.835  40.55   0
       371   1016.8660    441.6812 307.5030062  +6.5177589     3670.958     6590.089     6923.496     78.30067     155.9227     310.4823      1.904     5.11     830.8873     54.88604     448.9854        33     1.791     0.993  38.24  16
       372    272.8352    441.3491 307.8119089  +6.4930987     1349.643      2229.75     2282.437     77.93045     155.7372     311.3195      1.656     5.43     829.1457     54.88604      216.916        16     1.677     0.651  40.16   0
       373    351.0034    438.8363 307.7795426  +6.4967504      3055.31     5051.112     5349.352     77.18468     155.6133     311.1646      1.675     5.47     828.7818     54.88604     472.1051        23     1.629     0.783  45.46   0
       374    706.9866    436.5630 307.6318305  +6.5095674     1549.498     2448.136     2465.298     77.55846     155.5513     311.1027      1.649     4.70     831.4233     54.88604     263.3354        18     1.535     0.724  47.16   0
       375    410.1217    434.7174 307.7551385  +6.5004268      414.829     759.2985     411.8781     78.17746     155.9845     311.4743      2.260     5.44      829.317     54.88604     114.7112         7     1.678     0.497  36.87   0
       376    238.6217    434.5515 307.8263415  +6.4947608      823.497     1616.683     1203.042     77.68266     155.7372     311.2576      1.779     6.43      829.591     54.88604     144.5055        11     1.655     0.701  40.85   0
       377    548.0494    428.8729 307.6980737  +6.5074449     889.7555     1538.422     1530.109     78.05405      155.799     311.4124      1.839     6.66     829.9145     54.88604     164.6442        14     1.692     0.735  48.17   0
       378    449.2688    430.1519 307.7390401  +6.5036196     505.4514     856.9861     662.3076     78.05405     155.6752     311.3814      1.540     4.52     829.3623     54.88604      92.6463         7     1.727     0.336  25.52   0
       379    833.2098    426.5459 307.5797626  +6.5179054     1356.959     2154.958     2328.633     77.43407     155.6752     311.1027      1.716     5.85     831.7781     54.88604     209.0521        15     1.582     0.675  47.68   0
       380    818.8456    425.6790 307.5857553  +6.5177855     2007.641     3077.738     2877.358     78.05405     155.7372     311.3814      1.699     5.54     831.7406     54.88604     318.6975        20     1.714     0.752  51.23   0
       381    470.5991    427.3886 307.7302777  +6.5054729     1295.751     2091.066     2006.456     77.68266     155.4274     311.1956      1.655     5.34     829.3895     54.88604     222.9171        11     1.537     0.523  49.83   0
       382    716.0783    423.7549 307.6284859  +6.5151592      14210.2     22506.86     24118.06     77.93045     155.7372     311.3814      1.684     5.52     830.8551     54.88604     2349.747        37     1.728     0.839  45.67   0
       383    637.0869    419.7161 307.6614163  +6.5141951     2401.715     3866.441     4353.948     77.80666     155.9227     311.4124      1.762     5.19     830.4857     54.88604      436.703        21     1.650     0.739  49.01   0
       384    609.5165    414.9384 307.6730231  +6.5152489     14342.29     25221.83     30375.51     78.17746     155.7372     311.4124      2.108     7.45     830.1201     54.88604     2240.516        56     2.581     0.892  37.84   0
       385    941.3188    413.6124 307.5353115  +6.5268404     3552.323     5621.599     5706.398     77.68266     155.4274     311.2266      1.720     4.70     830.8154     54.88604       515.34        27     1.640     0.872  42.19   0
       386    380.4552    409.7074 307.7682968  +6.5097629     27544.04     44296.01     45966.08     77.93045     155.6752     311.5362      1.739     5.17     827.7677     54.88604     3948.434        50     1.759     0.914  44.51   0
       387    417.4353    410.9094 307.7529038  +6.5105022     597.4294     835.9554     1170.795     78.17746     155.6752     311.4124      1.570     5.08     827.9784     54.88604     92.64978         9     1.299     0.562  42.09   0
       388    126.5528    409.1829 307.8737219  +6.5014835     2351.065     3913.898     3610.409     77.55846     155.6752     311.1646      1.729     5.67      831.137     54.88604     388.8363        22     1.638     0.819  45.12   0
       389    896.5764    408.6912 307.5540526  +6.5273855      1291.71     2536.408     2828.535     78.05405     155.5513     311.2266      2.277     7.31     830.9139     54.88604      199.468        21     2.017     0.742  49.53   0
       390     59.9683    405.0354 307.9015038  +6.5009644     1455.183     2583.135     3098.308     77.68266     155.4894     311.1337      1.897     5.13     832.0598     54.88604      213.991        16     1.555     0.699  40.75   0
       391    592.8524    406.0082 307.6802416  +6.5183809     519.3237     784.9624     1296.052     77.55846     155.6133     311.1027      1.746     3.67     829.3294     54.88604     112.7916         5     1.229     0.315  26.20   0
       392    910.1564    403.9459 307.5485734  +6.5297964      4696.99     7231.722     6222.991     78.05405     155.7372     311.3814      1.663     4.90     830.6673     54.88604     739.8873        24     1.581     0.811  43.15   0
       393    966.2454    402.3796 307.5253385  +6.5323070      615.295     793.6804     739.6741     77.68266     155.6133     311.1956      1.608     4.33     830.1516     54.88604      121.088         7     1.030     0.529  46.09   0
       394    238.0075    400.3268 307.8277507  +6.5088725     13031.63     21350.99     22040.87     77.68266     155.3033     311.2576      1.729     5.08     828.4875     54.88604     2170.386        38     1.722     0.909  44.65   0
       395    733.0246    394.0876 307.6224460  +6.5279743     717.8121     1068.862     1369.625     78.17746     155.5513     311.2576      1.504     4.96     829.3135     54.88604     112.1052         9     1.411     0.494  49.89   0
       396     73.6246    394.8747 307.8961778  +6.5056178     747.7377     1165.059     1262.589     77.68266     155.5513     311.3195      1.559     4.88     831.5172     54.88604     124.7431         9     1.155     0.584  28.81   0
       397    701.1327    393.4760 307.6357074  +6.5271647     761.2011     1016.544     993.1307     78.17746     155.8609     311.3505      1.503     4.20     829.1858     54.88604     137.9786         7     1.150     0.439  48.04   0
       398    961.4108    392.6693 307.5276709  +6.5361562     991.6285     1649.721      1529.44     77.55846     155.5513     311.1956      1.670     4.63     829.8367     54.88604     186.0906        10     1.293     0.637  29.65   0
       399    351.0919    390.0285 307.7811501  +6.5169074     1226.546     1852.967     1404.504     78.17746     155.4894     311.2885      1.510     5.52     826.5518     54.88604     245.7203        12     1.434     0.600  48.84   0
       400    184.2520    390.2824 307.8504063  +6.5112205     697.1408     1076.706     997.3818     78.05405     155.7372     311.4434      1.699     4.87     829.7332     54.88604     86.00903         8     1.031     0.651  54.12   0
       401    138.2574    389.0176 307.8695436  +6.5102023     4750.654     7806.471     7845.648     77.55846     155.6752     311.1337      1.723     5.05        830.6     54.88604     777.3077        28     1.693     0.831  43.82   0
       402    242.9566    388.0179 307.8261113  +6.5141208      1211.86     1854.698     1807.678     77.55846     155.6133     311.1337      1.546     5.95     827.9662     54.88604     200.0323        15     1.609     0.728  41.49   0
       403    435.4194    387.6962 307.7462189  +6.5206883     707.9668     932.9756     833.1412     77.93045     155.5513     311.1646      1.496     5.52     827.0599     54.88604      109.612        11     1.452     0.605  42.96   0
       404    631.5469    387.7822 307.6647892  +6.5271971     488.0486      625.046     821.3809     77.55846      155.799     311.1646      1.251     3.47     828.5634     54.88604     80.93024         5     0.752     0.461  71.63   0
       405    824.6372    385.5053 307.5846978  +6.5345675     580.4296      803.124     1000.704     78.17746     155.6133     311.5052      1.713     4.59     830.0814     54.88604     104.4047         7     1.449     0.414  36.50   0
       406    160.3946    384.6675 307.8605002  +6.5127401     2284.746     4233.602     4475.613     77.55846     155.3653     311.1956      1.937     5.50      830.334     54.88604      378.225        28     1.816     0.980  58.09   0
       407    555.8726    383.8618 307.6963391  +6.5262925     942.9873     1456.014     1358.387     78.17746     155.7372     311.4434      1.696     5.50     827.4915     54.88604     161.5635        12     1.380     0.617  30.74   0
       408    383.7572    379.3857 307.7679472  +6.5223940     1866.696     3259.037     3184.211     77.30948     155.4894     311.1337      1.804     5.47      826.134     54.88604      295.738        21     1.807     0.713  48.09   0
       409    271.8085    380.0529 307.8144018  +6.5183752     778.3889     1241.033     991.8508     77.55846     155.6133     311.1027      1.548     4.95     826.9379     54.88604     125.8862         9     1.349     0.515  47.47   0
       410    972.6045    378.6137 307.5234940  +6.5423322     850.2586      1477.84     1771.229     77.68266     155.4894     311.2576      1.771     5.61     829.0924     54.88604     135.4188        12     1.233     0.719  44.74   0
       411    317.2520    376.9090 307.7956413  +6.5211934     590.9514     1071.183     1348.088     77.93045     155.5513     311.5671      2.087     5.78     826.1281     54.88604     79.25348         9     1.766     0.533  38.29   0
       412    437.6120    373.0793 307.7458006  +6.5267973     6824.749     11102.96     11638.11     77.68266     155.4274     311.2266      1.729     5.29     826.3757     54.88604     1045.573        30     1.689     0.812  44.94   0
       413     33.9902    374.1281 307.9133328  +6.5128555     2723.089     4770.521     4894.109     77.55846     155.3653     311.1956      1.830     4.97     831.6974     54.88604     379.2574        24     1.547     1.006  39.88   0
       414    778.2597    370.3045 307.6044631  +6.5393012     11927.42     19133.21     20391.67     77.93045     155.7372     311.4743      1.699     5.06     828.8463     54.88604     2096.171        39     1.714     0.892  44.60   0
       415    770.2413    371.8769 307.6077395  +6.5383850     1856.761     3270.826     3561.036     77.93045     155.7372     311.4434      1.833     5.07     828.7889     54.88604     288.5359        19     1.630     0.706  43.85   0
       416    341.7633    369.0563 307.7857296  +6.5252556     1106.863     1796.721     2090.003     78.05405     155.7372     311.4124      1.811     5.02     825.4874     54.88604     181.0702         9     1.440     0.495  43.41   0
       417   1022.0665    365.4390 307.5033985  +6.5494152     3172.132     5200.975     5201.262     77.93045     144.4994     258.7643      1.773     5.37     827.5878     54.88604     449.4219        26     1.648     0.901  48.84  24
       418    952.8859    361.8845 307.5322413  +6.5485853     638.2897     884.3701     996.2551     77.80666     155.9227     311.4434      1.560     4.71     828.7407     54.88604      102.616         7     1.215     0.517  37.83   0
       419    903.3131    360.7332 307.5528625  +6.5474132     660.8694     1030.906     787.8065     78.05405     155.9227     311.4124      1.725     5.21     829.1875     54.88604     101.4325         7     1.223     0.663  74.40   0
       420    392.5648    360.0483 307.7649418  +6.5306733      621.402     1124.948     1359.422     77.80666     155.7372     311.3195      1.642     5.11     825.1942     54.88604      122.332         7     1.498     0.492  51.94   0
       421    185.8608    360.9282 307.8507289  +6.5233954     650.9238     1033.635     1215.703     78.17746     155.7372     311.4434      1.749     4.96     828.9188     54.88604     98.43115         9     1.099     0.635  58.67   0
       422    485.7941    356.7810 307.7263450  +6.5351363     3014.609     4626.894     4577.223     77.68266     155.3653     311.1956      1.625     5.26     826.3046     54.88604     423.2084        21     1.575     0.732  45.44   0
       423    457.9489    357.2290 307.7378907  +6.5340216     2142.461     3221.828     3232.032     77.68266     155.8609     311.2885      1.608     5.12     825.9509     54.88604     350.0977        18     1.574     0.682  42.51   0
       424    914.9319    356.6508 307.5481751  +6.5494852     772.9851     1048.089     746.7103     77.93045     155.6133     311.3195      1.503     5.24     829.0416     54.88604     151.9034        10     1.413     0.549  40.52   0
       425    843.6015    353.2088 307.5779069  +6.5485348     30295.61     50895.79     53700.54     77.43407     155.4274     311.1646      1.803     5.61     828.7811     54.88604     4095.147        57     1.806     1.036  51.63   0
       426    988.4849    352.6031 307.5177713  +6.5536006     462.1955     715.5034     1024.515     77.43407     155.3653     311.1027      1.822     5.46     827.6517     54.88604     84.32617         5     1.285     0.653  46.94   0
       427    335.8663    349.4080 307.7888400  +6.5331717     956.7568     1193.759     1102.219     77.55846     155.4894     311.2266      1.374     5.37     824.6477     54.88604     139.8481        10     1.327     0.613  52.35   0
       428    615.3260    345.6636 307.6729390  +6.5440486     2719.896     4577.998     5311.474     78.17746     155.7372     311.3505      1.856     4.95     825.9342     54.88604     389.2229        26     1.702     0.829  44.67   0
       429     23.7114    346.4644 307.9185350  +6.5239336     1056.731     1500.808     1892.759     78.05405     155.9845     311.3814      1.798     5.20     831.2393     54.88604     162.0632        14     1.506     0.690  40.26   0
       430    700.0277    339.2089 307.6379882  +6.5495368     74325.03     119366.3     124529.5     77.68266     155.5513     311.2576      1.680     5.01     826.3812     54.88604     13478.51        67     1.760     0.944  45.00   0
       431    858.3776    340.6743 307.5721920  +6.5542022     1139.217      1898.18     1825.126     77.68266     155.6133     311.3195      1.760     5.47     828.2214     54.88604     182.1989        14     1.576     0.632  40.48   0
       432     79.2192    339.0932 307.8957396  +6.5288386     1340.228     2199.944     2223.518     77.93045     155.4894     311.2266      1.592     4.91     830.3369     54.88604     197.4296        14     1.529     0.599  43.52   0
       433    941.1911    335.7599 307.5379720  +6.5589846      704.116     1275.648     969.3898     77.43407     155.5513     311.1337      1.899     6.35     827.9009     54.88604     112.3812        13     1.757     0.645  48.50   0
       434    562.4854    336.0076 307.6952026  +6.5462737     2724.152     4149.353     4972.145     77.68266     155.4274     311.2266      1.636     4.90     824.9724     54.88604     415.2809        17     1.538     0.686  42.97   0
       435     99.6364    334.8924 307.8874051  +6.5312575      6036.48     9962.164     10219.71     78.17746     155.6133     311.4124      1.757     4.91     829.9767     54.88604     814.8812        33     1.724     0.904  45.38   0
       436    545.7023    332.1768 307.7022996  +6.5472956     6934.617      10948.6     11323.74     78.17746     155.4894     311.2266      1.679     5.07     824.6678     54.88604     1148.005        30     1.676     0.823  42.75   0
       437    408.6307    327.4119 307.7593706  +6.5446866     25178.96      39904.9     42035.18     77.55846     155.4894     311.2885      1.721     5.12     823.9342     54.88604     3815.193        49     1.740     0.920  44.89   0
       438    274.8048    330.0317 307.8148444  +6.5391304     2584.038     4081.105     3983.767     77.43407     155.6133     311.1646      1.623     5.33     825.4098     54.88604     397.3954        19     1.555     0.724  42.39   0
       439    587.7135    326.9249 307.6850333  +6.5508657     769.2103     1155.655      1106.23     78.05405     156.0463     311.4434      1.422     4.56     824.8008     54.88604     169.8225         7     1.326     0.469  38.18   0
       440    516.4420    326.2348 307.7146481  +6.5487728     1252.675     1895.256     1467.995     77.80666     155.7372     311.2266      1.636     5.82      824.479     54.88604     169.6689        14     1.489     0.641  43.12   0
       441    388.6750    325.6067 307.7677167  +6.5447652     1216.927     1613.334     1749.828     77.68266     155.2412     311.2576      1.608     5.46     823.9188     54.88604     176.7104        12     1.281     0.657  42.86   2
       442    386.1841    320.7175 307.7689156  +6.5467008     823.0494     1410.511     1917.483     77.68266     155.4274     311.2576      2.050     5.38     823.7662     54.88604     126.2037        10     1.408     0.581  54.14   3
       443    487.9144    322.6028 307.7266147  +6.5493203     1249.462     2040.193     2225.689     77.43407     155.3653     311.1027      1.645     5.27     824.3606     54.88604     212.8442        15     1.675     0.644  46.00   0
       444    803.7568    319.7675 307.5955720  +6.5610184     747.4717     1353.361     824.3674     77.68266     155.6752     311.1956      1.649     5.61     826.9419     54.88604       112.61        11     1.502     0.590  57.90   0
       445    639.7328    319.8347 307.6636733  +6.5555279     636.8463     867.8911     900.9283     77.93045      155.799     311.4743      1.488     4.62     825.0122     54.88604     113.2825         7     1.329     0.456  43.58   0
       446    497.7166    317.7868 307.7227070  +6.5516362     8251.295     12987.39     13467.77     77.68266     155.4894     311.2266      1.663     5.45     824.0758     54.88604     1291.587        30     1.660     0.809  42.74   0
       447    766.8201    316.4972 307.6110181  +6.5611395     3009.068     4890.387     5446.885     77.93045     155.5513     311.1646      1.739     5.36     826.2494     54.88604     459.9037        21     1.622     0.756  40.55   0
       448    922.3369    316.2457 307.5464542  +6.5664163     815.0852     1250.644     1632.313     77.93045     155.6752     311.4124      1.842     5.22     827.1019     54.88604     111.9147        10     1.474     0.521  41.68   0
       449    714.6344    316.3741 307.6326901  +6.5594526     713.9008     1082.827     1174.225     77.43407     155.4894     311.1337      1.621     4.14     825.6238     54.88604     116.0411         6     1.121     0.438  35.10   0
       450    324.1046    314.7265 307.7948920  +6.5470993     1153.221      1879.36     2072.168     77.80666     155.8609     311.3814      1.780     6.44     824.2416     54.88604     184.0144        16     1.613     0.873  27.88   0
       451    160.2037    308.4723 307.8631515  +6.5441963     1161.052     1913.921     2158.935     77.55846     155.3033     311.2266      1.839     5.04     828.6257     54.88604     221.3287        12     1.496     0.703  42.92   0
       452    259.3369    308.2228 307.8220018  +6.5476183     740.4094     1318.105     1591.062     77.68266     155.7372     311.2885      1.724     4.39     825.3853     54.88604     113.9236         8     1.114     0.493  36.26   0
       453    607.5444    307.2060 307.6774623  +6.5596696     411.7494     551.4247     557.0117     77.55846     155.6133     311.0717      1.351     3.35     824.0017     54.88604     99.07812         5     1.148     0.283  35.75   0
       454    387.6190    302.0237 307.7689495  +6.5544680     7352.214     11577.23     12218.93     77.80666     155.6133     311.3195      1.669     4.84     823.1526     54.88604     1110.655        30     1.647     0.844  44.56   0
       455    243.4092    302.6229 307.8288036  +6.5493976     2169.192     3390.003     3672.057     77.68266     155.4894     311.2266      1.680     5.61     825.6145     54.88604     338.6176        19     1.545     0.737  41.97   0
       456    740.7959    301.5794 307.6223243  +6.5664331     886.6518     1475.941     1636.082     77.68266     155.4894     311.1956      1.763     5.63     825.3583     54.88604     163.6997        12     1.627     0.548  44.49   0
       457    755.4885    297.7754 307.6163514  +6.5684932     51941.86     81219.78     84851.84     78.17746     155.5513     311.2576      1.713     5.11      825.365     54.88604     7315.492        63     1.763     0.939  45.02   0
       458    427.1990    297.4810 307.7526690  +6.5576663     2217.545     3614.455     3740.745     77.30948     155.3033     311.1337      1.667     5.60     822.6768     54.88604     394.6338        21     1.620     0.775  42.87   0
       459    990.3106    294.9084 307.5189449  +6.5774857     1491.029     2417.086     2697.158     78.05405     156.2316     311.4743      1.861     4.99     825.9957     54.88604     248.0297        17     1.541     0.830  37.37   0
       460    573.6650    294.9494 307.6919412  +6.5636008     1269.119     2096.058     2291.663     77.93045     155.6752     311.4124      1.886     6.08     823.2991     54.88604     206.5254        15     1.439     0.722  44.48   0
       461    931.3156    293.9028 307.5434747  +6.5759409     2185.696     3391.723     3581.831     78.05405     156.1081     311.4434      1.680     4.76     826.0658     54.88604     377.8113        20     1.458     0.819  47.57   0
       462    464.2355    293.8175 307.7374148  +6.5604160     1296.032     2047.816     2235.548     77.55846     155.5513     311.1646      1.658     5.49      822.593     54.88604      198.851        13     1.431     0.595  36.00   0
       463    413.8236    293.0834 307.7583705  +6.5590353     1939.995     3098.732     3717.609     77.93045     155.4894     311.3195      1.752     4.71     822.5239     54.88604     289.1517        17     1.516     0.763  37.15   0
       464    293.2179    292.2426 307.8084736  +6.5553505       666.39     946.9337     143.7141     77.55846     155.6133     311.1956      1.600     5.60     824.4379     54.88604     124.6078         9     1.555     0.568  48.53   0
       465    834.8702    287.3908 307.5837391  +6.5754232     1124.747     1945.664     2229.399     77.55846     155.4274     311.2266      1.943     5.53      825.355     54.88604     154.3684        12     1.508     0.572  45.33   0
       466    464.2078    287.7081 307.7376319  +6.5629379     766.5367     1225.195     1390.611     77.68266     155.4274     311.1956      1.716     4.88     822.2979     54.88604     120.3707         8     1.225     0.549  49.87   0
       467    190.1655    284.3069 307.8515276  +6.5551782     2343.617     3615.657     4102.852     78.17746     155.6133     311.4434      1.697     5.05     827.0138     54.88604     424.9237        19     1.580     0.714  45.39   0
       468    966.7375    285.0628 307.5290627  +6.5807683     616.7878      987.269     951.3117     78.05405     155.7372     311.4124      1.700     4.25     825.5481     54.88604     90.12549         7     1.210     0.425  34.53   0
       469    753.9349    282.3517 307.6175141  +6.5748104     5775.895     9288.074     9820.398     77.93045     155.6133     311.4434      1.731     5.36     824.7608     54.88604     979.2051        30     1.689     0.836  47.71   0
       470    444.0894    284.4253 307.7460957  +6.5636215     1177.677     1869.863     2063.925     78.17746     155.5513     311.2266      1.632     5.88     822.2621     54.88604     193.4923        14     1.470     0.662  47.71   0
       471    225.8301    282.6089 307.8367773  +6.5570734     711.3352      1125.58     1201.234     77.55846     155.5513     311.1956      1.701     5.50     825.6168     54.88604     122.3688         9     1.625     0.525  31.89   0
       472    770.3309    280.3383 307.6107737  +6.5761877     2453.053     3809.875     3834.438     78.05405     155.7372     311.4124      1.694     5.54     824.8206     54.88604     390.9476        21     1.612     0.744  45.05   0
       473     86.2063    281.7876 307.8947748  +6.5527353     1035.069     1844.512     2492.046     77.68266     155.5513     311.2885      1.967     5.53     829.9437     54.88604     170.7579        12     1.530     0.564  38.05   0
       474    472.2230    279.2319 307.7345893  +6.5667056     617.1344     1083.574     581.3013     77.55846     155.5513     311.1646      1.666     5.75     822.1195     54.88604     97.92426         8     1.620     0.574  50.15   0
       475    313.1093    277.2371 307.8007207  +6.5622120     549.1844     743.0468     674.7848     78.17746     155.6752     311.4124      1.424     3.76     823.8329     54.88604     108.9805         5     0.917     0.444  48.73   0
       476     73.5036    275.8053 307.9002508  +6.5547796     1234.292     1839.488     1713.826     77.80666     155.4274     311.1337      1.584     4.54      830.168     54.88604     222.6854        14     1.462     0.667  38.30   0
       477    359.8652    275.1840 307.7813769  +6.5646232     1723.121     3380.659     3882.792     77.55846     155.6133     311.2885      2.057     6.63       822.96     54.88604     219.5552        28     1.902     1.029  19.58   0
       478   1008.5259    271.1013 307.5121784  +6.5879216     5455.852     9105.188     9809.375     77.55846     155.8609     311.3505      1.792     5.36     824.2751     54.88604     731.4935        32     1.733     0.913  44.74   0
       479    486.7114    271.2061 307.7288437  +6.5705035     2110.971     3126.734     2681.598     77.55846     155.4274     311.1337      1.605     5.43     821.9645     54.88604     327.9554        16     1.503     0.650  47.94   0
       480    249.2101    266.8776 307.8276008  +6.5643518     5603.568     8964.912     10192.66     77.68266     155.4274     311.2266      1.728     4.74     825.1202     54.88604     862.3356        29     1.719     0.814  43.05   0
       481    917.8593    266.1109 307.5499932  +6.5869701     444.6716     746.9811      268.672     77.93045      155.799     311.4743      1.590     3.92     824.5418     54.88604     95.56329         5     0.817     0.539  37.99   0
       482    814.1442    265.5363 307.5930780  +6.5837581     599.3739      854.825     1139.081     78.17746     155.7372     311.3814      1.520     3.87     824.4972     54.88604     113.9731         5     1.274     0.338  48.31   0
       483    768.9265    260.1216 307.6120352  +6.5844891     698.7214     935.1979     919.9785     78.30067     155.9845     311.4124      1.566     3.82     824.0864     54.88604      124.324         6     0.968     0.432  48.71   0
       484    226.3642    260.1431 307.8373135  +6.5663679     613.8312     1114.825     891.7209     77.93045     155.7372     311.4124      1.558     4.95     825.7147     54.88604     101.2828         8     1.389     0.498  27.86   0
       485    383.3617    257.4074 307.7722200  +6.5727490     1580.449     2596.339     2916.081     77.30948     155.4894     311.1027      1.901     5.51     822.5336     54.88604     269.0826        18     1.523     0.789  49.90   0
       486    970.2650    256.4795 307.5285553  +6.5926887     1114.078     1952.247     2235.814     78.30067      155.799     311.3505      2.127     6.65     823.4753     54.88604     180.8484        15     1.852     0.747  55.12   0
       487    305.7642    253.6463 307.8045657  +6.5717075     1233.715     1723.889     1646.657     77.80666     155.7372     311.2885      1.588     5.24     823.6213     54.88604     177.6526        11     1.280     0.606  44.27   0
       488    152.8443    253.3582 307.8680677  +6.5667075     1775.714     3054.614     3245.172     77.80666     155.7372     311.2266      1.857     5.95     828.1887     54.88604       297.23        16     1.672     0.659  41.97   0
       489    562.7417    248.9486 307.6980235  +6.5822316     2184.913     3341.231     3281.733     78.05405     155.7372     311.3814      1.647     5.38     822.0025     54.88604     344.3754        19     1.586     0.709  42.71   0
       490    905.9995    247.8010 307.5555314  +6.5941367     1555.808     2793.847     2945.739     77.43407     155.3033     311.0717      2.009     6.63     823.6269     54.88604     209.9304        18     1.730     0.713  39.95   0
       491    726.3393    246.6013 307.6301725  +6.5886541     4992.865     7867.787     7883.491     77.43407     155.5513     311.1027      1.665     5.17     823.4306     54.88604     782.0118        26     1.623     0.812  46.62   0
       492    190.2020    255.0862 307.8524986  +6.5672453     558.1655     866.1414     1155.409     77.43407     155.3653     311.1027      1.552     3.96     826.9819     54.88604     100.2539         6     0.978     0.458  53.96   0
       493    667.1013    246.3014 307.6547798  +6.5868044     2110.231     3238.503     3611.443     78.05405     156.1081     311.2266      1.583     5.46     822.9543     54.88604     390.6927        17     1.537     0.671  42.85   0
       494    382.4321    241.0607 307.7731566  +6.5794679      745.959     1233.092      1220.27     77.80666      155.799     311.3195      1.819     6.02     822.4006     54.88604     103.3357        11     1.511     0.674  42.37   0
       495    922.4497    238.4833 307.5490129  +6.5985312     974.8353     1643.868     1901.123     78.05405     155.7372     311.4434      1.894     6.39     823.0348     54.88604     140.1537        14     1.345     0.852  32.44   0
       496    225.9053    232.0952 307.8384504  +6.5779342     2383.829     3861.472     4119.055     78.05405     156.3549     311.2885      1.675     4.92      825.834     54.88604     360.3915        20     1.559     0.785  39.03   0
       497    868.7104    230.8949 307.5715819  +6.5998781     1710.468     2384.625      2609.89     78.05405     156.1698     311.4434      1.472     4.59     823.0388     54.88604      288.506        16     1.518     0.660  47.10   0
       498    759.2512    230.3123 307.6170531  +6.5964764     1595.813     2464.125     2701.548     78.05405     155.6133     311.4743      1.625     5.81     822.9879     54.88604     261.8848        16     1.395     0.832  37.53   0
       499    579.9116    226.3368 307.6916544  +6.5921415     620.6935     857.2896     1058.538     77.93045     155.9227     311.4124      1.795     4.69     821.5469     54.88604     101.9492         8     1.315     0.474  43.33   0
       500    459.7363    221.7171 307.7417098  +6.5900381     22832.13     35698.69     37230.98     78.17746      155.799     311.4124      1.683     4.87     821.2553     54.88604     3311.053        50     1.705     0.957  45.47   0
       501    321.6830    224.3695 307.7989430  +6.5843290     586.7869     924.1953     1014.652     78.05405     155.5513     311.2885      1.808     4.11     822.9053     54.88604     85.43109         6     0.917     0.525  41.34   0
       502    785.8035    220.7387 307.6063489  +6.6013136     12647.44     20327.06     21633.38     77.43407     155.4894     311.1027      1.719     5.86     822.7245     54.88604     2035.295        44     1.739     1.056  35.74   0
       503    465.4330    216.2870 307.7395272  +6.5924706      1332.01     2262.659     2736.401     78.05405     155.5513     311.3814      1.940     4.99     821.0442     54.88604     230.3225        16     1.668     0.675  37.95   0
       504    147.9926    215.2136 307.8713701  +6.5822956     2330.969     3920.761     3819.705     77.68266     155.4894     311.2266      1.710     4.93     828.0268     54.88604     416.2729        22     1.715     0.751  42.84   0
       505    122.5654    214.0919 307.8819655  +6.5819067       1086.9     1521.694     1950.826     78.17746     155.6133     311.4434      1.564     5.80     828.6702     54.88604     156.4876        14     1.445     0.655  50.84   0
       506    174.6171    212.9943 307.8603903  +6.5841039     668.6855     1033.208     1245.584     77.68266     155.4274     311.2266      1.720     5.64     827.2745     54.88604     102.7034        10     1.273     0.705  44.12   0
       507    724.5848    216.9621 307.6318961  +6.6008347     700.0135     896.0201      423.022     77.80666     155.5513     311.1337      1.412     5.03      822.566     54.88604     106.1921         8     1.112     0.642  50.59   0
       508    922.1348    211.0777 307.5500619  +6.6098375     1242.884     1709.378       2261.5     78.17746     155.7372     311.3505      1.633     4.70     821.8919     54.88604     210.8535        14     1.525     0.575  45.26   0
       509    304.4411    208.6761 307.8066312  +6.5902325     1161.359     1700.371     1409.968     77.93045     155.7372     311.4124      1.609     4.78     823.6241     54.88604     206.3067        14     1.609     0.600  50.62   0
       510    620.7189    209.3436 307.6752811  +6.6005194     428.3019     755.7994     563.7264     78.17746     155.7372     311.4124      1.105     3.48     821.5475     54.88604     119.1788         5     1.155     0.303  36.79   0
       511    583.8325    207.3655 307.6906642  +6.6001061     4408.677     7008.616     7282.053     77.68266     155.4894     311.1337      1.671     5.21     821.1601     54.88604     647.6235        24     1.605     0.796  43.97   0
       512    546.5812    207.4335 307.7061299  +6.5988353     2095.369     3003.515     2886.221     77.55846     155.5513     311.1956      1.629     5.08     820.8633     54.88604     324.6285        17     1.555     0.671  37.94   0
       513    388.4887    206.6770 307.7718001  +6.5938682     1605.702      2499.89     2437.098     78.05405     155.9845     311.4434      1.623     5.12     822.0398     54.88604     237.6949        15     1.412     0.686  40.77   0
       514    944.8127    204.4801 307.5408659  +6.6133156     2485.932     4120.648     4379.023     77.68266     155.4274     311.2266      1.824     5.31     821.3696     54.88604      348.562        21     1.548     0.834  43.53   0
       515    890.8339    203.8875 307.5633006  +6.6117661     10657.79        16873     17945.37     78.05405     155.6133     311.3814      1.684     4.83     821.8497     54.88604     1701.627        35     1.693     0.863  42.38   0
       516    565.8644    203.8478 307.6982434  +6.6009593     907.0251     1321.848     1272.495     77.93045     155.6133     311.4434      1.603     5.34     820.9479     54.88604     167.1927        12     1.531     0.526  43.08   0
       517    318.4854    204.1202 307.8009533  +6.5925835     899.0191     1741.585     2079.281     77.93045     156.0463     311.4743      2.267     6.89     823.3348     54.88604     150.7839        12     1.681     0.792  65.59   0
       518    211.3015    205.2617 307.8454195  +6.5885253     515.3361     843.2802     1414.749     77.80666      155.799     311.5052      1.500     2.10      826.277     54.88604     123.0089         4     0.651     0.437 -89.26   2
       519    977.4763    201.6971 307.5273955  +6.6155500     9221.793     14975.65     15907.43     77.68266     155.9227     311.4124      1.746     5.22     820.8239     54.88604     1227.742        36     1.722     0.921  43.97   0
       520    688.8833    201.7544 307.6472315  +6.6059252     2672.336     4135.781      4315.73     78.05405     155.7372     311.3814      1.635     5.35     822.1019     54.88604     451.2673        18     1.531     0.694  49.44   0
       521    263.2318    201.4540 307.8239856  +6.5918359     1228.733     1984.585     2191.407     77.93045      155.799     311.3195      1.692     4.38     824.9554     54.88604     179.8437        16     1.466     0.758  42.50   0
       522     16.9122    200.8405 307.9262809  +6.5838358     24404.52     39539.55        41081     78.05405     155.6752     311.4124      1.705     4.85     831.1644     54.88604     3688.175        49     1.747     0.948  42.74   0
       523    497.5771    196.8132 307.7268354  +6.6015852     1939.968     3188.138     3273.104     77.80666     155.5513     311.2885      1.734     5.66     820.4498     54.88604     268.0203        18     1.567     0.699  44.26   0
       524    829.4017    193.3747 307.5891629  +6.6140640     1842.459     3030.777     2818.603     77.68266     155.4274     311.1646      1.663     4.91     821.8466     54.88604     337.2012        18     1.715     0.668  41.54   0
       525    881.7743    192.4609 307.5674456  +6.6161833     1802.863      3168.25     3684.097     77.68266     155.7372     311.2885      1.972     5.36     821.4587     54.88604     266.3374        19     1.663     0.736  45.95   0
       526    509.4572    192.6474 307.7220426  +6.6037019     2530.135     3781.876     3774.654     78.05405     155.7372     311.5052      1.686     5.39     820.4071     54.88604     441.2199        21     1.559     0.788  43.14   0
       527    741.0244    189.9052 307.6259780  +6.6125550     38620.23     60573.88     62897.84     78.17746     155.4894     311.2576      1.650     4.95     821.9858     54.88604     6758.393        54     1.723     0.918  45.21   0
       528    344.0527    191.3158 307.7907687  +6.5987258     3832.409      6157.61     6882.485     78.05405     155.6752     311.5052      1.709     5.55     822.6169     54.88604     545.9371        22     1.759     0.778  43.70   3
       529    344.5255    188.0764 307.7906816  +6.6000792     4692.217     7294.859     8265.055     78.30067     155.9845     311.4434      1.695     5.28     822.5908     54.88604      728.639        23     1.689     0.750  44.52   3
       530    974.6945    188.6326 307.5289882  +6.6208525     2731.893     4458.354     4803.945     78.17746     155.6133     311.4743      1.795     5.91      820.693     54.88604     373.5553        23     1.607     0.864  45.48   0
       531   1013.0001    187.2860 307.5131266  +6.6226808      1609.87     2861.913      2657.22     77.30948     155.2412     311.0407      1.884     5.50     820.3027     54.88604     211.3475        21     1.672     0.827  53.07  16
       532    908.9327    186.9649 307.5563522  +6.6193558     6969.933     11101.52     11602.35     77.93045      155.799     311.4743      1.680     4.93     821.1801     54.88604     1143.257        33     1.673     0.886  44.43   0
       533    452.3304    186.1669 307.7459818  +6.6044704     4925.683     7838.479       8336.7     77.93045     155.7372     311.4124      1.695     5.08     820.7401     54.88604     768.3225        24     1.606     0.785  40.74   0
       534    318.6898    185.8516 307.8014843  +6.6001339     512.5989      737.858      350.313     78.05405     155.5513     311.5052      1.487     4.15     823.6136     54.88604      110.236         7     1.065     0.652  52.55   0
       535    227.2149    183.0297 307.8395622  +6.5982381     785.0766     1296.885     1608.167     77.68266     155.4894     311.3195      1.845     5.66     825.9095     54.88604       122.27        11     1.581     0.570  43.23   0
       536    109.7197    177.6365 307.8885306  +6.5965292      4659.21     7466.878     7796.423     77.93045      155.799     311.3814      1.696     5.11     828.2828     54.88604      646.713        24     1.627     0.795  44.56   0
       537    929.4682    176.6669 307.5481697  +6.6242908     848.9053     1221.299     1974.513     78.05405      155.799     311.4124      1.800     5.37     820.8043     54.88604     159.9575        10     1.358     0.781  37.57   0
       538    280.0859    174.2585 307.8179046  +6.6036295     33177.87     53001.71     55017.64     78.05405     155.7372     311.5052      1.692     4.78     825.2893     54.88604     5511.719        50     1.731     0.936  43.23   0
       539    255.3306    175.3194 307.8281479  +6.6023630     6512.869     10535.51     10988.32     78.30067     155.9845     311.4124      1.735     5.37     825.5743     54.88604     1032.853        34     1.696     0.896  42.14   0
       540    606.0342    175.6951 307.6825099  +6.6139243     567.6194     964.4583     1521.683     78.17746     155.6133     311.4743      1.819     5.85      820.694     54.88604     111.5386         7     1.513     0.636  39.67   0
       541    195.1997    174.7804 307.8531340  +6.6005725     397.4564     496.2688     713.3231     77.68266     155.3033     311.0717      1.906     3.42     826.5108     54.88604     71.06256         5     0.970     0.349  46.00   0
       542    709.5745    173.5218 307.6395877  +6.6182727      965.662     1314.593     1279.149     77.80666     155.6752     311.3505      1.533     4.85     821.5703     54.88604     169.8536        10     1.320     0.504  42.93   0
       543    404.1599    169.6988 307.7665386  +6.6096612     49618.08     78057.24     80643.25     78.05405     155.6133     311.5981      1.683     4.88     821.3101     54.88604     7429.904        59     1.723     0.954  43.00   0
       544    160.1115    171.0774 307.8678284  +6.6009262     3884.816     6183.227      5947.12     78.05405     155.9845     311.4743      1.625     4.68     827.1127     54.88604     610.2032        24     1.573     0.846  47.58   0
       545    421.6680    170.1973 307.7592517  +6.6100404     1435.939     2167.314     2076.756     77.43407     155.3653     311.1956      1.538     4.71     820.9752     54.88604     230.4997        14     1.370     0.697  40.17   0
       546    308.1815    167.4397 307.8064684  +6.6073851     17757.51     28272.89     29619.17     77.68266     155.5513     311.1337      1.712     4.97      824.479     54.88604      2954.58        45     1.746     0.916  42.82   2
       547    315.6061    167.5177 307.8033828  +6.6076012     2091.265     3736.348     4738.138     77.68266     155.3653     311.1646      1.960     4.89     824.0677     54.88604     320.1256        18     1.616     0.711  38.03   3
       548    691.5903    167.6366 307.6472534  +6.6201038     1023.926     1406.527     982.0879     77.55846     155.5513     311.1337      1.677     4.98     821.4229     54.88604     153.0109        10     1.372     0.512  44.83   0
       549    542.2073    167.9573 307.7092740  +6.6149903     475.3509     892.2502     902.4196     77.55846     155.4894     311.1027      1.661     3.95     819.9258     54.88604      93.0705         6     0.940     0.474  49.69   0
       550    791.6836    166.0117 307.6057435  +6.6241080     1240.649     2239.275     2454.673     77.68266     155.5513     311.2266      1.898     6.19     821.4218     54.88604      212.572        15     1.600     0.673  46.52   0
       551     60.2025    163.3078 307.9095751  +6.6007856     8632.438        13943     14214.04     77.55846     155.4274     311.1337      1.714     5.02     829.8146     54.88604     1325.024        34     1.692     0.882  43.02   0
       552    743.4703    165.7675 307.6257727  +6.6226037     32168.79     50100.45     51106.41     77.93045     155.7372     311.4124      1.691     5.08      821.421     54.88604     4645.418        53     1.712     0.941  45.34   0
       553     94.1809    161.4007 307.8955311  +6.6027124     1438.627     2299.951     2958.754     77.68266     155.3033     311.0717      1.764     4.84     828.3188     54.88604     239.8217        14     1.398     0.653  45.82   0
       554   1002.0840    160.1551 307.5185680  +6.6335217      943.685     1591.434     1586.493     78.05405     155.7372     311.4124      1.800     5.41      820.304     54.88604     168.7512        12     1.589     0.519  42.71   0
       555    969.8323    159.5049 307.5319829  +6.6327189     505.7461     660.6192     680.8343     78.17746     155.6133     311.4434      1.214     4.76     820.2958     54.88604     98.51044         6     1.276     0.504  41.31   0
       556    728.6302    154.5003 307.6323134  +6.6267621     511.7278     750.2733     474.6435     78.05405     155.4894     311.4434      1.815     3.40     821.0002     54.88604     95.06012         5     1.082     0.309  69.05   0
       557    577.1967    150.1595 307.6953432  +6.6235069     756.9715     987.3505     1047.293     77.30948     155.4894     311.1337      1.330     4.50     819.7812     54.88604     132.3405         7     1.205     0.479  38.71   0
       558   1002.8597    146.3083 307.5187095  +6.6392653     2225.699     3553.616     3790.764     77.93045     155.6752     311.4743      1.713     5.66     819.4915     54.88604     298.1793        19     1.554     0.765  50.51   0
       559    585.7793    144.0252 307.6919855  +6.6263262      869.038     1637.535     1546.192     77.68266     155.5513     311.3195      1.835     5.96      819.681     54.88604     163.1642        13     1.623     0.616  38.87   0
       560    594.2525    142.1295 307.6885307  +6.6273916     1902.976     2933.558     2967.746     77.93045     155.6752     311.3195      1.556     4.76     819.6794     54.88604      348.389        19     1.579     0.738  42.32   0
       561    338.4940    142.5327 307.7947211  +6.6186835     1044.308     1584.144     1564.522     77.93045     155.9227     311.4124      1.759     5.46      823.374     54.88604     149.5478        13     1.215     0.811  45.25   0
       562    278.9832    140.4987 307.8195011  +6.6175327     30180.43     47586.44     49903.17     78.05405     155.5513     311.1956      1.694     4.88     825.7629     54.88604     4697.535        52     1.740     0.938  41.55   0
       563     24.2104    139.0246 307.9253407  +6.6096052     4188.735     7033.167     7848.108     77.68266     155.5513     311.2576      1.771     5.30     831.2908     54.88604     697.5272        28     1.729     0.825  42.22   0
       564    710.7256    136.9527 307.6403378  +6.6334117     7964.931      12107.7     12657.68     77.93045      155.799     311.3814      1.615     5.33     820.0974     54.88604     1270.137        26     1.602     0.800  45.25   0
       565    187.9141    138.5122 307.8573835  +6.6153043     1035.268     1689.449     1953.967     77.80666     155.9845     311.5052      1.661     5.76     826.3287     54.88604     154.4875        14     1.551     0.622  40.29   0
       566    264.9125    135.5336 307.8255113  +6.6191121     833.2037     1380.952      1071.92     78.05405     155.9227     311.3814      1.835     5.97     825.8289     54.88604     148.4387        11     1.513     0.663  39.36   0
       567    121.3118    134.3031 307.8851811  +6.6148108     4902.724     7669.267      7591.39     78.05405     156.1698     311.4124      1.685     4.86     827.2067     54.88604     723.0889        24     1.610     0.804  40.56   0
       568    583.2622    132.0381 307.6934338  +6.6311921     684.2452     1286.401     1205.856     78.05405      155.799     311.3814      1.962     6.38     819.3123     54.88604     107.0817        13     1.613     0.709  39.24   0
       569    460.3339    131.5020 307.7444988  +6.6273103     1352.063     2259.246     2194.335     78.05405      155.799     311.4124      1.647     4.58     819.5666     54.88604     226.4808        15     1.432     0.758  51.24   0
       570    392.1391    130.2065 307.7728605  +6.6255668     3753.376     6579.005     6583.296     77.43407     155.5513     311.1646      1.804     5.28     821.3825     54.88604     510.0803        30     1.723     0.994  47.24   0
       571    649.7173    130.8279 307.6658782  +6.6339078     765.7634     1069.956     1099.489     77.93045     155.5513     311.3195      1.430     4.64     819.6579     54.88604     154.3416         8     1.124     0.558  19.95   0
       572    356.5838    129.1141 307.7876617  +6.6248293     3216.469     4907.497     4856.242     77.68266     155.4894     311.2885      1.590     5.01     822.8026     54.88604     469.2584        20     1.605     0.699  42.96   0
       573    569.1921    128.5983 307.6993923  +6.6321431     637.8859      1404.98     1593.085     77.43407     155.4274     311.1646      2.600     6.50     819.1545     54.88604     106.4133         9     1.571     0.754  51.61   0
       574    111.1309    129.2338 307.8895798  +6.6165628     1563.955     2492.764     2946.636     77.93045     155.7372     311.4434      1.729     4.97     827.2806     54.88604     225.9502        17     1.498     0.716  46.70   0
       575    672.3515    126.9129 307.6566105  +6.6362788     724.4368     1095.973     714.2971     78.05405     155.6133     311.4434      1.671     5.19     819.5869     54.88604     121.2335         9     1.423     0.536  48.64   0
       576    747.1113    126.9071 307.6255653  +6.6387717     642.5678     781.2993     441.8527     78.05405     156.1698     311.4434      1.426     5.24     819.6335     54.88604     117.3803         8     1.240     0.624  43.22   0
       577   1003.6028    123.2065 307.5191745  +6.6488296     1424.748     2140.471     1946.463     77.43407     155.4274     311.2576      1.624     4.78     818.1423     54.88604     201.8027        14     1.357     0.690  42.44   0
       578    208.3895    118.0113 307.8495733  +6.6244552     5274.295     8509.719     8873.949     77.80666     155.5513     311.3505      1.690     5.16     826.0396     54.88604      829.701        28     1.666     0.859  44.43   0
       579     91.0459    118.0769 307.8982967  +6.6204963     2039.255     3403.467     3858.422     77.93045      155.799     311.3814      1.735     4.80     827.6112     54.88604     329.1904        21     1.585     0.780  47.89   0
       580    670.2419    116.7860 307.6578268  +6.6403902     6169.117     9570.482     9723.741     77.43407     155.5513     311.1337      1.630     4.65     819.0911     54.88604     982.7317        28     1.627     0.778  43.84   0
       581    818.4415    116.5648 307.5962908  +6.6454168     1113.413     1620.297      1554.71     77.80666     155.7372     311.2266      1.724     4.82     819.2885     54.88604     158.2018        10     1.279     0.515  47.66   0
       582    622.3774    114.0096 307.6777968  +6.6399411     9012.837     14492.22     15344.36     77.68266     155.4894     311.2266      1.691     5.04     818.8805     54.88604     1490.001        33     1.672     0.852  45.15   0
       583    257.2935    114.8907 307.8293714  +6.6273809     705.6555      1028.26     860.5539     78.05405     156.2316     311.3814      1.686     5.17     825.9143     54.88604     116.4581        10     1.822     0.415  51.08   0
       584    560.6605    114.0966 307.7034229  +6.6378466     656.4669     989.7746     1191.205     77.80666     155.7372     311.4743      1.769     5.42     818.7333     54.88604      121.244         9     1.465     0.648  30.21   0
       585     21.1436    112.9891 307.9274945  +6.6202526     842.4222     1677.569     1464.184     77.43407     155.6752     311.0717      2.018     7.42     831.3569     54.88604     111.4171        13     1.607     0.959  89.95   0
       586    349.4655    109.9763 307.7912626  +6.6324937     3587.959     6303.865     7243.737     77.68266     155.7372     311.3195      1.951     4.97     823.5369     54.88604     589.0532        29     1.608     1.140  39.20   0
       587    531.4116    109.1035 307.7157369  +6.6389324     1690.385     2746.545     2675.625     77.80666     155.4894     311.1956      1.668     4.78     818.5963     54.88604     316.7717        18     1.622     0.720  45.72   0
       588    625.8853    105.5243 307.6766253  +6.6435619     52192.79      81426.4     84384.92     78.17746     156.0463     311.4434      1.668     4.93      818.587     54.88604     7871.916        59     1.737     0.920  43.78   0
       589    304.8540     99.3230 307.8101469  +6.6354006     3427.305      5630.73     5990.775     78.17746     155.7372     311.3814      1.723     5.02     825.3699     54.88604     552.5898        22     1.657     0.757  41.21   0
       590    500.6902     96.9147 307.7289047  +6.6429399     514.8174     654.5063     284.7824     77.80666     156.0463     311.5052      1.503     5.55     818.3806     54.88604     79.74548         6     1.548     0.562  60.35   0
       591      2.9667     82.6859 307.9360670  +6.6321553     690290.8      1343399      1420862     78.05405      144.766     259.0621      2.026     7.03     831.3607     54.88604     64027.04       273     2.100     1.506  62.89  28
       592    704.8673     93.6553 307.6442248  +6.6510953     959.9395      1441.21     1663.204     78.05405     155.6133     311.3195      1.735     4.84     818.0067     54.88604     140.7474        12     1.205     0.807  28.67   0
       593    676.3172     92.7809 307.6561104  +6.6505051      1332.49     2065.694      1680.42     77.68266     155.4274     311.3195      1.581     4.35     817.9931     54.88604     230.8981        14     1.366     0.643  43.92   0
       594    690.2488     89.3948 307.6504387  +6.6523676     2944.774     4713.725     4688.145     77.43407     155.5513     311.0717      1.678     5.22     817.8572     54.88604     518.8094        20     1.612     0.703  43.16   0
       595    431.9854     80.5751 307.7579858  +6.6473923     4036.528     6445.736     6385.409     77.80666     155.5513     311.3195      1.696     4.91      819.576     54.88604     603.4572        24     1.573     0.817  45.91   0
       596    886.6370     76.7251 307.5693064  +6.6641364     2203.759     3415.684     3348.737     77.93045      155.799     311.4124      1.716     5.06     817.6237     54.88604     318.4863        19     1.462     0.853  45.39   0
       597    904.5531     75.7654 307.5618981  +6.6651284     3669.904     5968.361     6272.736     77.68266     155.7372     311.3195      1.711     5.50     817.5359     54.88604      517.451        23     1.632     0.776  45.84   0
       598    584.6926     76.3150 307.6947137  +6.6542494     851.5219      1178.24     1237.829     77.80666     156.1698     311.4743      1.458     4.33     817.6511     54.88604     147.6483         9     1.280     0.500  37.86   0
       599    596.6875     74.6894 307.6897871  +6.6553208     1817.781     2824.458     2811.229     77.80666     156.1698     311.4743      1.750     5.56     817.6176     54.88604     263.2562        13     1.406     0.621  45.96   0
       600    616.9689     74.1244 307.6813836  +6.6562304     542.5121     569.9495     370.5599     77.93045      155.799     311.3505      1.159     3.95     817.5676     54.88604     85.03094         6     0.928     0.481  35.14   0
       601    395.5203     72.4697 307.7734017  +6.6495206     1923.974     2975.837     3075.256     78.30067     155.9845     311.3505      1.706     4.43     821.3005     54.88604     324.7535        18     1.599     0.694  43.22   0
       602    242.1033     73.4128 307.8370786  +6.6439995     826.4153      1417.29     2039.443     77.93045     155.4894     311.1337      1.774     5.60     825.2377     54.88604     161.5024        10     1.469     0.601  48.79   0
       603    143.3087     69.2947 307.8782429  +6.6423909     3089.321     4994.302     5422.297     78.05405     156.2316     311.3814      1.750     5.07     825.2003     54.88604     471.4912        26     1.695     0.870  47.17   0
       604     25.1207     67.2496 307.9273897  +6.6392724     11780.05     19053.93     20164.04     78.05405      155.799     311.3814      1.696     4.98     829.2096     54.88604     1870.913        37     1.701     0.899  43.99   0
       605    291.7592     67.9699 307.8166420  +6.6479088     1243.538     2029.818     2596.205     77.55846     155.6133     311.2576      1.788     5.68     825.5623     54.88604     166.7433        14     1.463     0.633  42.91   0
       606    946.1200     66.1036 307.5449594  +6.6704998     549.8298     946.0137     1069.998     77.80666     155.9845     311.4743      1.996     4.30     816.5122     54.88604     96.37878         6     1.595     0.331  38.60   0
       607    759.6318     65.8753 307.6224147  +6.6643906      668.974     1287.527     1685.866     77.93045      155.799     311.3505      2.309     5.11     816.9298     54.88604     93.00714         7     1.358     0.543  55.11   0
       608    552.4017     66.7808 307.7084441  +6.6571090     932.6986     1245.308     813.3109     77.68266     155.3033     311.1027      1.535     5.05     817.3814     54.88604     168.5527        10     1.272     0.566  38.68   0
       609    983.1900     65.5948 307.5295813  +6.6719415       450.45     810.2107     708.8293     77.55846     155.4894     311.2576      1.433     3.44     815.3885     54.88604     70.25348         5     1.203     0.283  54.86   0
       610    155.2412     66.2094 307.8733921  +6.6440647     421.9711     600.9205     553.5189     77.43407     155.5513     311.1337      1.508     3.92     824.8899     54.88604     76.24298         5     0.958     0.459  44.29   0
       611    771.9672     62.0248 307.6174212  +6.6663913      3052.39     5071.929     5285.734     77.43407     155.4894     311.1956      1.751     5.51     816.7872     54.88604     550.3268        23     1.635     0.814  50.67   0
       612    416.9099     62.5515 307.7648533  +6.6543310     1150.568     1976.347     2074.546     78.05405     155.6133     311.5362      1.758     6.19     819.8519     54.88604     193.9062        14     1.617     0.665  47.84   0
       613    826.9301     61.6113 307.5946092  +6.6683914     5920.266     9362.079     10163.89     77.55846     155.5513     311.1956      1.681     5.77      816.886     54.88604     920.5748        28     1.659     0.797  44.51   0
       614    565.5046     67.1249 307.7029912  +6.6574041     588.4963     600.0404     394.1432     77.80666     155.9227     311.3814      1.432     4.37     817.3774     54.88604     107.0198         6     1.244     0.458  35.44   0
       615    534.5145     60.3091 307.7160901  +6.6591844     1064.884       1724.3     1864.674     77.80666     156.1698     311.5052      1.685     5.09     817.4574     54.88604     155.7592        14     1.560     0.598  39.94   0
       616     65.5222     59.0877 307.9108889  +6.6439978     3289.043     5309.599      5067.28     78.05405     156.0463     311.5052      1.735     5.00      826.981     54.88604     432.3088        27     1.667     0.881  40.88   0
       617     50.4612     60.2032 307.9171054  +6.6430321     879.2095     1408.781     1063.045     77.43407     155.4894     311.1027      1.741     4.89     827.7081     54.88604     160.1416        11     1.223     0.704  47.19   0
       618    654.4968     59.1394 307.6663025  +6.6636694     578.5518     744.7992     1265.104     77.80666     155.7372     311.4743      1.778     5.18     817.0529     54.88604     108.3914         7     1.534     0.495  56.95   0
       619    426.7672     59.1581 307.7608741  +6.6560616     878.1052     1503.197      1829.73     77.80666     155.7372     311.2266      2.111     5.89     819.7236     54.88604     132.9387         9     1.330     0.759  54.68   0
       620    589.3545     55.8169 307.6934670  +6.6628692     1285.219     1938.562     2098.166     77.55846     155.6133     311.1646      1.618     5.48     817.0294     54.88604     182.4171        13     1.406     0.633  48.73   0
       621      7.9516     54.7139 307.9349431  +6.6438724     2357.217     4010.657     5339.188     78.05405     155.6752     309.7363      1.991     4.67     829.1528     54.88604     344.7227        23     1.584     0.843  50.46  16
       622     80.7206     50.7722 307.9048588  +6.6479411     846.2443     1223.209     1112.605     77.93045     155.6752     311.3814      1.670     4.51     826.0441     54.88604     151.0558         8     1.225     0.471  44.75   0
       623    766.5984     49.2355 307.6200801  +6.6714936      1892.19     3141.792     3529.307     77.18468     155.5513     311.1956      1.765     5.47     816.2252     54.88604     311.5192        19     1.679     0.717  46.29   0
       624    657.7988     49.2363 307.6652640  +6.6678687     515.5767     828.1099     988.8712     77.18468     155.5513     311.1956      1.417     5.06     816.7559     54.88604     89.24042         7     1.518     0.476  50.33   0
       625    407.4690     49.8944 307.7692003  +6.6592419     1146.926     1642.984      1813.93     77.93045      155.799     311.4124      1.567     5.27     820.6246     54.88604     171.0327        11     1.290     0.608  37.77   0
       626    104.5248     48.5622 307.8950486  +6.6496517     938.5587     1404.192     1253.827     77.93045      155.799     311.4124      1.563     4.81     825.2134     54.88604     167.6408        10     1.314     0.499  47.61   0
       627    422.3682     43.1578 307.7632398  +6.6625214     2430.429     3940.721     4347.677     77.55846     155.6133     311.1956      1.707     4.76      819.808     54.88604     439.1579        18     1.663     0.673  42.87   0
       628     93.2172     43.3561 307.8999201  +6.6514223     8968.228     14635.08     15280.32     77.55846     155.6133     311.1646      1.736     5.06      825.317     54.88604      1400.38        36     1.732     0.893  44.06   0
       629    243.8084     42.8992 307.8374002  +6.6566561     684.0197     1023.913     1217.532     77.80666     155.3653     311.2266      1.433     4.59      824.372     54.88604     133.2299         8     1.255     0.477  35.09   0
       630    260.0628     37.4043 307.8308356  +6.6594692     1531.446     2545.776     3720.773     77.30948     155.4894     311.1646      1.886     5.35     824.5718     54.88604     238.3284        16     1.570     0.684  49.46   0
       631    635.9774     35.2318 307.6747970  +6.6729241     17770.71     28200.65     29367.39     77.55846     155.5513     311.1646      1.663     5.06      816.356     54.88604     3096.798        41     1.751     0.855  44.84   0
       632    535.7508     31.3352 307.7165516  +6.6711897     5169.885     7950.028       8140.2     77.93045     155.6133     311.3814      1.666     4.88     816.7313     54.88604     750.2463        26     1.598     0.803  43.14   0
       633    254.0051     31.8399 307.8335390  +6.6615641     2026.068     3141.507     4473.388     77.30948     155.4894     311.1027      1.731     4.84     824.3027     54.88604     293.1018        18     1.479     0.737  41.56   1
       634      3.0442     29.5925 307.9378306  +6.6540806     1102.371     1928.882     1834.978     77.55846     145.5629     260.0278      1.812     6.36     827.5649     54.88604     142.3962        16     1.720     0.660  45.25  24
       635    892.6655   1020.6601 307.5351807  +6.2745474     1155.524     2052.507     2101.139     78.17746     155.2412     277.3217      1.885     5.10     845.3705     54.88604     153.7393        16     1.472     0.802  29.31  16
       636    441.3110     27.0054 307.7559172  +6.6698241      22149.2     35196.84     36508.54     77.55846     155.4274     311.1337      1.683     4.96     819.7379     54.88604     3683.198        41     1.709     0.867  44.10   0
       637    321.7246     28.0919 307.8055430  +6.6653777     1067.694     1605.234     1520.275     78.05405     155.8609     311.3814      1.677     5.62     825.2408     54.88604     141.9976        12     1.355     0.657  47.35   0
       638    261.8961     27.4357 307.8304106  +6.6636467     9044.817     14554.35     16089.05     78.17746     155.6133     311.5362      1.738     5.00     824.3947     54.88604     1364.073        35     1.704     0.884  46.16   0
       639    919.3110     26.9501 307.5574055  +6.6857765     1888.477     2911.147     2768.821     78.05405     155.5513     311.5052      1.610     4.46     815.2551     54.88604     276.5433        17     1.447     0.725  44.57   0
       640    554.8145     27.0571 307.7087785  +6.6735925     785.0001       1203.1     1124.078     77.43407     155.6133     311.0717      1.542     4.42     816.1519     54.88604     144.0726         8     1.287     0.454  47.70   0
       641    507.4171     28.6200 307.7284097  +6.6713651     487.9434     776.1364     830.1027     77.80666     155.5513     311.2885      1.182     3.34     818.1765     54.88604     103.2478         5     1.006     0.322  22.41   0
       642     27.3054     27.1062 307.9278401  +6.6559213     2271.022     3601.841     3693.493     78.05405     156.2932     311.3505      1.695     4.84     826.6683     54.88604     322.0454        21     1.632     0.778  41.96   0
       643    249.8528     24.0018 307.8355278  +6.6646615     2917.269     4870.771      5675.22     77.43407     155.4894     310.9787      1.837     4.70     823.9836     54.88604     445.8729        23     1.627     0.817  38.82   0
       644    303.1072     22.5142 307.8134626  +6.6670580     1042.361     1691.322     1667.296     77.93045     156.1698     311.4743      1.661     5.29     825.1676     54.88604     143.9276        13     1.544     0.604  39.86   0
       645    215.0490   1019.5682 307.8164026  +6.2524035      1814.16     3360.433     3724.135     77.80666     155.7372     289.6985      1.890     4.63     846.3156     54.88604     287.7022        24     1.559     1.022  45.39  16
       646    433.0204   1016.4913 307.7260587  +6.2609586     3287.305     6071.828     6149.226     77.93045     155.5513     311.2266      1.967     5.27     848.9312     54.88604     425.9437        31     1.878     0.972  44.46  16
       647    202.9888     12.7146 307.8553704  +6.6677530     687.7014     1052.583     919.3818     77.68266     155.4894     311.2266      1.591     4.04     822.8679     54.88604     136.8008         9     1.104     0.597  14.44   0
       648    718.3383   1016.1265 307.6076739  +6.2706210     6141.779     11374.02     12343.61     78.17746     155.7372     311.4124      1.969     4.85     848.8654     54.88604     778.1827        42     1.807     1.152  41.68  16
       649    710.9325   1015.7273 307.6107605  +6.2705393     945.7764     1743.137     2163.877     78.17746     155.8609     311.3814      1.993     7.28     848.9596     54.88604     107.9073        15     1.442     1.028  50.25  17
       650    750.7646   1011.5194 307.5943723  +6.2736028     1100.029     1852.938      2303.11     77.93045      155.799     311.4124      1.795     4.12     847.8724     54.88604     181.4055        14     1.319     0.811  39.01   0
       651    957.9073   1005.5923 307.5086108  +6.2829371     5039.415      10199.6     11221.86     77.68266     155.4274     311.1956      2.182     5.14     842.9125     54.88604     542.8909        50     1.985     1.314  49.47   0
       652    242.4329   1006.0492 307.8054952  +6.2589019     1087.782     1954.851      2363.08     77.80666     155.7372     311.3195      1.875     6.66      846.772     54.88604     161.0507        20     1.736     0.950  48.62   0
       653    712.6893   1006.2274 307.6103500  +6.2745206      854.852     1614.171     1909.115     78.17746     155.4894     311.2576      2.013     5.94     848.6334     54.88604     128.1588        12     1.529     0.838  40.87   1
       654    717.4925   1003.8018 307.6084382  +6.2756822     2141.748     4059.098     4847.501     77.43407     155.4274     311.1027      2.051     5.48     848.5247     54.88604     283.1099        25     1.746     0.984  39.89   0
       655    733.6144   1003.2491 307.6017665  +6.2764471     874.9608     1673.725     1551.268     77.43407     155.6752     311.1027      1.972     6.57     848.2892     54.88604     120.6712        12     1.466     0.827  56.56   0
       656    440.9777   1004.6465 307.7231550  +6.2661153      702.971     1279.492     1241.977     77.68266     155.7372     311.2266      1.751     5.39     848.9825     54.88604     91.77118        10     1.232     0.666  34.86   0
       657    364.3119   1001.4744 307.7550750  +6.2648649     1619.559     2641.326     2409.914     78.05405     156.0463     311.4743      1.721     5.28     848.2676     54.88604     233.0452        20     1.599     0.821  40.62   0
