#   1 NUMBER                 Running object number                                     
#   2 X_IMAGE                Object position along x                                    [pixel]
#   3 Y_IMAGE                Object position along y                                    [pixel]
#   4 ALPHA_J2000            Right ascension of barycenter (J2000)                      [deg]
#   5 DELTA_J2000            Declination of barycenter (J2000)                          [deg]
#   6 FLUX_APER              Flux vector within fixed circular aperture(s)              [count]
#   9 FLUXERR_APER           RMS error vector for aperture flux(es)                     [count]
#  12 FLUX_RADIUS            Fraction-of-light radii                                    [pixel]
#  13 FWHM_IMAGE             FWHM assuming a gaussian core                              [pixel]
#  14 BACKGROUND             Background at centroid position                            [count]
#  15 THRESHOLD              Detection threshold above background                       [count]
#  16 FLUX_MAX               Peak flux above background                                 [count]
#  17 ISOAREA_IMAGE          Isophotal area above Analysis threshold                    [pixel**2]
#  18 A_IMAGE                Profile RMS along major axis                               [pixel]
#  19 B_IMAGE                Profile RMS along minor axis                               [pixel]
#  20 THETA_IMAGE            Position angle (CCW/x)                                     [deg]
#  21 FLAGS                  Extraction flags                                          
         1    307.1357     43.9480 307.8302829  +6.6634236     6560.722     13438.89     15134.18      84.9081     169.3453     338.6907      2.198     5.15     1004.352     59.70567     668.2076        52     2.001     1.320  50.69   0
         2    568.9443     24.2877 307.7221396  +6.6803579     2083.692     4126.021     4396.144      84.9081      169.278     338.8927      2.139     5.81     988.3298     59.70567     210.8547        29     1.723     1.126  53.61   0
         3    970.2006     23.5432 307.5553929  +6.6941326     3753.372     6344.078     7745.231     84.09815     169.0757     338.3874      1.881     4.50     976.9156     59.70567     474.2496        27     1.671     0.897  54.24   0
         4    754.5462     16.4868 307.6452630  +6.6898150     5851.409     10318.75     11469.38      84.9081      169.278     338.8927      1.932     4.59     984.8267     59.70567     706.4913        38     1.795     1.081  54.01   0
         5    674.6291     15.6971 307.6785051  +6.6874572     2824.785     5128.427     5594.339     85.04235     169.1431     338.7243      1.936     4.69     985.7964     59.70567     369.1141        27     1.643     1.017  54.22   0
         6    474.8302     12.1040 307.7616662  +6.6822212     4601.934     9237.357     10236.29     85.04234     169.1431      338.758      2.152     4.83     991.9231     59.70567      538.482        41     1.834     1.256  56.21   0
         7     21.4125     11.3480 307.9501303  +6.6672328     774.9546     1541.371     1440.057     84.23369     169.3453     338.4211      2.114     4.91      1007.22     59.70567     132.5085         7     1.227     0.755  67.59   0
         8    371.3690      6.8904 307.8048420  +6.6808887     9177.243      18558.3     21337.93     85.04234     169.2106     329.6445      2.190     5.05     998.1169     59.70567     958.8406        59     2.045     1.332  53.32  16
         9    145.0199      7.1999 307.8989018  +6.6731236     1860.848     3589.572     3869.216      84.5041     168.9407     331.9206      2.046     5.56     1006.976     59.70567     212.7729        27     1.672     1.151  57.46  16
        10    550.9848      9.2998 307.7301101  +6.6859418     705.7084     999.1202     615.7706      84.9081     169.1431     338.4211      1.371     3.95      988.166     59.70567     119.3428         6     1.063     0.421  10.68   0
        11     75.8193     11.5969 307.9275115  +6.6689698     6377.473      12414.3     14127.53      84.5041     168.9407     338.5222      2.104     5.08     1006.875     59.70567     689.2341        45     1.901     1.255  53.45  16
        12    136.3674      6.3116 307.9025278  +6.6731980     1100.116     2264.961     2995.096     85.04235     169.2106     324.4826      2.267     7.73     1006.896     59.70567     140.4144        16     1.748     0.957  54.57  16
        13    437.5633      4.9369 307.7773971  +6.6839254     1698.808     3309.936     3550.951      84.9081       169.48     309.3284      2.069     5.13     992.4564     59.70567     218.7864        23     1.567     1.084  49.80  16
        14    839.2738      4.7015 307.6104447  +6.6975238     756.6215     1268.783     1916.664      84.5041       169.48      306.364      1.936     5.21     979.6693     59.70567     100.1085         7     1.166     0.659  -2.35  16
        15    699.0064      1.8044 307.6688419  +6.6940120      5912.69     7701.435     7941.995     79.20853     141.8534      262.922      1.364     3.32     985.1775     59.70567     969.8934        20     1.225     0.876   8.62  24
        16    576.0809      1.6339 307.7199385  +6.6899509     589.2248     863.0406     636.0346     77.75504     139.6653     260.4372      1.502     4.25     987.4349     59.70567     95.48352         5     0.824     0.626 -79.54  24
        17    930.7144    996.8445 307.5390775  +6.2909462     11633.35     19334.54     21180.03      84.9081      169.278     338.6907      1.797     4.88     1017.213     59.70567     1538.622        51     1.804     1.168  40.69   0
        18   1002.5931   1022.0039 307.5083809  +6.2829643     6135.445      9452.84     9827.519     84.23368     157.6953     282.2557      1.638     4.56     1016.284     59.70567     862.3936        27     1.575     0.883  44.69  24
        19    757.4303   1023.0685 307.6101605  +6.2743110     888.2505     1497.604      2004.44     80.91827     143.9291     265.2115      1.964     5.19     1019.948     59.70567     126.5792        10     1.216     0.625  24.66  24
        20    287.4077   1022.3936 307.8053735  +6.2587875     1331.056     1908.723     1986.932     84.23369     153.2192     276.2096      1.646     5.42     1024.916     59.70567      170.193        11     1.142     0.725  51.44  24
        21    643.3928    997.0912 307.6583942  +6.2812092     1275.377     2252.278     2288.585      84.5041     169.0757     338.5222      1.882     6.80     1023.394     59.70567     191.1462        16     1.635     0.794  57.48   0
        22      5.1250    997.2205 307.9234460  +6.2596556     2192.709     3531.788     2836.166      84.5041     169.2106     311.5332      1.705     4.26     1029.274     59.70567     325.2692        21     1.510     0.843  55.69  16
        23    575.0860    995.8366 307.6868038  +6.2794327      3648.14     6392.794     7644.743      84.9081     169.3453     338.7243      2.004     4.52      1025.12     59.70567     459.4697        34     1.676     1.120  42.61   0
        24    684.5933    995.3559 307.6413423  +6.2833090     1228.164     2250.426     2658.527       84.369     169.1431     338.3874      2.175     4.96      1021.75     59.70567     189.3365        14     1.486     0.715  51.93   0
        25    109.7077    994.4070 307.8801127  +6.2643492     841.5123      1331.36     1227.986      84.5041     169.0757     338.5222      1.858     5.04     1024.993     59.70567      111.428        10     1.257     0.572  53.40   0
        26    840.4736    993.5826 307.5766647  +6.2892698     542.2844     999.7222     1384.507       84.369      169.278     338.6233      1.949     4.86     1018.587     59.70567     102.0731         7     1.308     0.512  36.56   0
        27    528.2467    992.5085 307.7063679  +6.2792324     1998.147      3538.18     3364.163      84.9081     169.3453      338.859      1.945     4.79     1025.445     59.70567     244.2831        24     1.551     1.023  53.07   0
        28    962.4645    984.3998 307.5263094  +6.2971476     41453.39     67367.79     71841.25     84.09815     169.0082     338.4211      1.776     4.68     1015.741     59.70567      5986.78        66     1.851     1.076  45.92   0
        29     35.3994    984.4342 307.9113079  +6.2659574     2730.579     4564.867     4927.473      83.9624     169.2106     338.4885      1.803     4.52      1027.59     59.70567     355.7242        24     1.602     0.935  60.41   0
        30    270.0262    983.0577 307.8139216  +6.2744424     1577.366     2667.792     2604.318      84.5041     169.4127     338.5559      1.682     4.65     1025.463     59.70567     236.4607        19     1.452     0.946  52.00   0
        31    157.5883    981.3426 307.8606720  +6.2713589     455.2325     924.5522     659.5276     84.23369     169.3453     338.4211      1.988     5.97     1025.029     59.70567     99.13074         7     1.652     0.608  67.05   0
        32    668.9412    980.7296 307.6483352  +6.2888226     816.8522     1101.247     910.9827     85.04235     169.4127     338.7243      1.368     4.39     1021.994     59.70567     121.1879         8     1.061     0.518  51.99   0
        33    860.4781    978.1305 307.5688763  +6.2963202     2340.294      3687.39     4229.135     85.17638     169.6818     338.6907      1.801     4.51     1017.911     59.70567     295.0847        19     1.475     0.816  53.16   0
        34     14.6793    978.2077 307.9201232  +6.2678281     543.4702     1119.677     1613.069      84.5041     168.9407     338.5222      2.995     6.85     1028.198     59.70567     101.0215         9     1.957     0.672  50.69   0
        35    808.7282    976.0177 307.5904396  +6.2954579     6120.377     10208.16     11522.82       84.369     169.3453      338.657      1.814     5.05     1018.648     59.70567     779.3469        32     1.642     0.939  52.82   0
        36    596.2425    976.2842 307.6786768  +6.2882163     683.0048     1112.965     810.6129      84.9081     169.3453      338.657      1.720     4.66     1024.108     59.70567     120.5742         6     0.942     0.653  82.18   0
        37    278.4687    975.2295 307.8106804  +6.2779590      1258.23     2381.302      2254.65     84.63898     169.4127      338.657      1.968     6.17      1025.59     59.70567     156.4487        17     1.525     0.937  57.26   0
        38    242.7150    974.8269 307.8255418  +6.2769200     737.6223     1578.455     2010.645     85.04235     169.1431     338.5896      2.166     5.90     1025.425     59.70567     119.6781         8     1.795     0.546  69.57   0
        39    103.2779    973.2340 307.8835000  +6.2728737     2378.989     3948.719     3820.694     84.77365     169.4127     338.6907      1.754     4.82     1025.221     59.70567     317.4491        23     1.585     0.870  53.05   0
        40    996.9407    971.2112 307.5124338  +6.3037470     6511.043     10750.33      11611.2     84.23368      169.278     338.4211      1.759     4.91     1014.338     59.70567     848.7545        32     1.732     0.885  51.72   0
        41    679.4814    965.4783 307.6444716  +6.2954734     717.2282     943.1596     875.3463     85.17638     169.6818     338.8927      1.623     5.01     1021.294     59.70567     94.06396         8     0.866     0.820 -21.98   0
        42    970.6301    962.7691 307.5236447  +6.3063520     1975.228     3166.809      2799.66       84.369     169.1431     338.4548      1.699     5.82     1014.534     59.70567     270.6388        19     1.575     0.764  52.86   0
        43     28.7960    961.2772 307.9148350  +6.2752950     1031.539     1521.877     1616.305      84.5041     168.8732     338.5559      1.577     5.05     1027.267     59.70567     153.0186        12     1.305     0.620  56.45   0
        44    303.6159    958.9521 307.8007876  +6.2855269     4042.701       6746.1     6956.404       84.369     169.4127     338.4885      1.794     4.43     1025.936     59.70567      513.459        32     1.740     1.000  53.37   0
        45    830.2530    959.2370 307.5820645  +6.3031081     1306.189      2061.79     1911.961     84.77365     169.4127      338.758      1.720     5.82     1017.979     59.70567      159.546        14     1.289     0.836  60.87   0
        46    691.3510    958.7892 307.6397674  +6.2986337      4199.63     6799.283     6802.992       84.369      169.278     338.3874      1.741     4.72     1020.796     59.70567     581.6858        27     1.586     0.905  49.78   0
        47     72.4348    956.5162 307.8968746  +6.2787345     1883.198     3210.813     3295.098      84.9081     169.4127     338.6907      1.849     5.44     1026.069     59.70567     230.6202        20     1.575     0.863  57.48   0
        48    513.6454    956.9005 307.7136330  +6.2934433     981.0223     1431.557     1316.939      84.9081     169.3453       338.96      1.527     5.49     1024.484     59.70567     156.0182        11     1.265     0.672  47.60   0
        49    923.1459    955.3401 307.5436154  +6.3078295     957.7136     1435.536     1488.704     85.04235     169.3453     338.6907      1.536     5.54     1015.152     59.70567     138.7454        10     1.206     0.848  64.90   0
        50    995.3376    952.8958 307.5137146  +6.3112556     601.5513     883.1409       720.33     84.63898       169.48     338.7917      1.290     4.59      1013.62     59.70567     101.7767         7     1.090     0.549  65.46   0
        51    616.0457    951.2251 307.6712972  +6.2992281     1640.328     2843.083     3302.026       84.369       169.48     338.5896      1.873     5.90      1022.77     59.70567     214.1844        14     1.402     0.720  43.23   0
        52    335.4453    945.3728 307.7880282  +6.2922057     1164.754     2042.454     2575.459       84.369       169.48     338.6233      2.063     5.59     1026.183     59.70567     166.2811        15     1.511     0.724  43.11   0
        53    655.4287    947.6547 307.6550613  +6.3020249     979.4211     1637.845     1232.082     84.63898       169.48      338.657      1.648     5.33     1021.583     59.70567     182.9713        13     1.579     0.727  48.45   0
        54    802.1718    941.4932 307.5943241  +6.3094928     863.3419     1486.085     1066.911     85.04235     169.1431     338.6233      1.564     4.81     1018.412     59.70567     141.2604         9     1.396     0.470  40.45   0
        55    939.5483    937.9932 307.5373860  +6.3155411     6486.123      10702.1      11103.1       84.369     169.2106       338.32      1.761     5.44     1013.843     59.70567     942.8083        34     1.701     0.921  50.22   0
        56    475.6897    935.4604 307.7301196  +6.3010190     1688.421     2656.519     2628.253     84.77365     169.5473      338.758      1.631     5.45     1024.377     59.70567     228.8348        16     1.510     0.717  49.72   0
        57    377.1495    933.6443 307.7711050  +6.2984526     8389.261     14281.99     15130.89     85.04235      169.278      338.758      1.830     4.55     1025.986     59.70567     1067.857        40     1.745     1.046  52.81   0
        58    297.2715    932.6006 307.8043133  +6.2961929      6202.16     10628.36     11357.48     84.23369     168.8732     338.5559      1.830     4.42     1026.305     59.70567     796.9182        37     1.689     1.052  53.94   0
        59    625.4622    927.0094 307.6682026  +6.3095427     1055.525     1609.612     1782.505     84.23368     169.2106     338.5222      1.588     3.28     1021.701     59.70567     194.3766         9     1.001     0.600  39.83   0
        60    911.3487    921.4471 307.5496541  +6.3214285     766.0756     1281.185     1875.871     85.04235      169.278     338.7917      2.161     5.85     1014.099     59.70567     110.6645         9     1.429     0.674  21.11   0
        61   1022.6556    918.6637 307.5035180  +6.3263039     742.8826     1026.702     1065.209       84.369     149.8315     272.0064      1.550     5.24     1011.778     59.70567     104.8785         8     1.260     0.616  48.60  24
        62    791.7906    916.3831 307.5994805  +6.3195124     1698.004     2929.857     3411.312     84.63898     169.1431     338.5896      1.976     6.20     1017.997     59.70567     215.8683        18     1.692     0.733  51.69   0
        63    955.4587    922.7252 307.5312908  +6.3223779     1015.974     1695.931     2657.468     85.04235     169.4127     338.6907      1.868     5.09     1013.025     59.70567      148.494        12     1.466     0.748  67.46   0
        64     42.7470    913.8959 307.9106477  +6.2953283     690.4128     1231.231     1095.842     84.77365     169.4127     338.9937      1.735     5.51     1026.225     59.70567     109.4152         8     1.545     0.555  46.34   0
        65   1022.7224    911.8199 307.5037201  +6.3291318     1086.304     1630.034     1840.647     83.55383     148.9917     270.9559      1.733     6.32      1011.47     59.70567     175.0777        14     1.567     0.762  57.28  24
        66    655.8596    913.2488 307.6560416  +6.3162451     771.1254     1048.661     934.6135      84.9081     169.4127     338.7917      1.509     4.36     1020.377     59.70567     109.7618         7     1.049     0.515  64.49   0
        67    576.9734    911.9344 307.6888490  +6.3141377     1054.268     1924.127     1933.842      84.5041     169.3453     338.6233      1.967     5.95     1022.405     59.70567     138.9655        13     1.438     0.693  54.61   0
        68    710.2247    909.7161 307.6335815  +6.3195287     2271.365     3930.281     4641.488     84.77365     169.1431      338.657      1.887     4.74     1018.957     59.70567     327.0698        23     1.588     0.936  59.23   0
        69    250.5806    904.9776 307.8246382  +6.3060240     1832.125      2839.48     3030.006     84.63898     169.3453      338.657      1.701     5.23     1026.022     59.70567     208.0857        19     1.406     0.867  62.29   0
        70    124.3681    904.9501 307.8770546  +6.3017778     1585.063     3083.895     3645.198     84.77365     169.4127      338.657      2.127     5.92     1025.436     59.70567     228.5344        23     1.733     0.944  57.24   0
        71    106.9178    905.6723 307.8842771  +6.3008905     2738.918     4800.462     4901.468     85.17638      169.749      338.758      1.858     4.84     1025.567     59.70567     317.1576        24     1.555     0.924  50.73   0
        72    988.3010    904.8373 307.5182511  +6.3308630     814.6912     1175.586      1316.56      84.9081      169.278       338.96      1.609     5.53     1011.915     59.70567     110.3752        10     1.454     0.592  63.59   0
        73    870.7183    905.6600 307.5670600  +6.3265856     759.0228     1097.672     558.1005     85.04235     169.4127      338.758      1.648     4.25     1014.992     59.70567     110.7921         7     1.119     0.460  59.56   0
        74     32.4077    905.3495 307.9152311  +6.2985074     12940.83     15093.26      15048.7       84.369     169.2106     338.3874      0.899     0.48     1026.265     59.70567     6888.429        15     0.965     0.845 -13.56   0
        75    704.8640    898.6895 307.6361793  +6.3239016     6022.193     10340.29     10959.77     84.77365     169.6146      338.758      1.788     4.78     1018.624     59.70567     714.0153        35     1.724     0.986  53.43   0
        76    389.0277    900.6703 307.7672859  +6.3124667     895.8385     1519.382     1241.667     84.63898     169.3453      338.657      1.880     5.38     1025.519     59.70567     122.6643         8     1.020     0.802  59.51   0
        77    842.2859    899.2122 307.5790858  +6.3282950     696.2084     1324.113     1158.422      84.5041     169.1431     338.5559      1.710     4.32      1015.75     59.70567     104.5545         7     1.321     0.403  64.77   0
        78    494.6170    897.3415 307.7235455  +6.3173942     611.4453     939.7211     660.0576      84.5041     169.3453     338.4885      1.498     4.49     1023.262     59.70567     97.53339         7     1.177     0.486  89.74   0
        79     64.8498    896.7875 307.9020486  +6.3031383     1013.823     1637.595     1651.835     84.23368     169.3453     338.4211      1.744     6.51     1025.894     59.70567     116.6294        16     1.400     0.850  56.13   0
        80    942.7487    895.0082 307.5375010  +6.3333964      2506.72     3741.152     3941.279       84.369      169.278     338.3874      1.571     4.24     1012.701     59.70567     341.6094        19     1.375     0.827  45.43   0
        81     77.8436    895.1182 307.8967089  +6.3042663     807.6562     1231.326     1318.258      84.9081     169.4127     338.6907      1.867     4.90     1025.761     59.70567     111.9111         9     1.297     0.525  43.19   0
        82    387.9052    891.8839 307.7680489  +6.3160566     13787.22     24124.04      26507.7     84.77365     169.8162      338.859      1.897     4.60     1025.446     59.70567     1556.177        53     1.812     1.199  46.95   0
        83    122.6388    893.0312 307.8781765  +6.3066403     1180.784     1917.681     2433.233      84.5041     169.1431     338.5559      1.884     6.01     1025.416     59.70567     169.3287        14     1.483     0.685  59.25   0
        84    258.7656    891.3976 307.8216983  +6.3119067     1144.375     1769.967     2255.133      83.9624     169.2106     338.4885      1.717     4.61     1026.314     59.70567     145.6226        14     1.064     1.007  -2.37   0
        85    151.4041    882.7189 307.8665796  +6.3118688     1396.429      2533.65      3122.36       84.369     168.9407     338.4211      2.051     6.10     1025.254     59.70567     199.3141        21     1.731     0.902  59.48   0
        86    466.0643    883.3135 307.7358775  +6.3222256     997.8298     1485.876     1636.474      84.9081     169.6146     338.7243      1.601     5.38     1023.372     59.70567      119.331         9     1.069     0.765  11.06   0
        87    719.4399    878.9557 307.6307900  +6.3325385     796.1364     1470.658     2473.404     84.63898     169.4127     338.6233      2.514     5.83     1017.647     59.70567     111.5574        12     1.540     0.621  52.67   0
        88    932.8444    876.6143 307.5422328  +6.3406594     1730.454     3130.194     3342.716     84.23369     169.2106     338.4548      1.894     5.33     1012.677     59.70567     268.6017        17     1.592     0.815  53.32   0
        89    867.0585    875.6500 307.5695891  +6.3388538     2780.174     4362.243      4734.38      84.9081     169.4127      338.758      1.665     4.51     1013.765     59.70567     361.6799        24     1.553     0.882  54.31   0
        90    134.9097    876.2249 307.8736497  +6.3139933     2275.059     3807.439     4570.569     85.04234     169.2106     338.5559      1.801     4.52     1025.328     59.70567     299.8833        22     1.512     0.935  44.29   0
        91    903.7000    876.0795 307.5543558  +6.3399041     2054.494     3134.398     3474.603     84.63898     169.6818      338.758      1.658     4.98      1013.18     59.70567     287.1782        17     1.446     0.762  59.35   0
        92    602.8881    867.0683 307.6795987  +6.3335330     287110.2     495058.6     534060.6     85.04235     169.6818      338.758      1.882     4.55      1020.86     59.70567     34217.63       175     2.013     1.372  46.35   0
        93    497.5799    873.7711 307.7231104  +6.3272256     570.1931     907.9226     2162.773      84.5041     169.2106     338.6233      1.266     2.59     1022.744     59.70567     102.0671         5     0.705     0.461  70.66   0
        94    690.8136    869.9618 307.6429825  +6.3352912     1127.608     1777.464     1883.625      84.5041     169.2106     338.4211      1.537     5.58     1017.621     59.70567     138.6328        12     1.574     0.557  54.55   0
        95    447.2235    869.6857 307.7441626  +6.3272183     6452.053     11423.53     12328.93      84.9081     169.1431     338.5896      1.899     4.63     1023.528     59.70567      801.549        39     1.767     1.075  50.71   0
        96    390.4571    868.0247 307.7677951  +6.3259934     10601.94     18757.37      20044.5      84.5041     169.4127     338.5222      1.882     4.58     1025.122     59.70567     1327.981        50     1.847     1.145  49.48   0
        97    708.8380    864.3176 307.6356863  +6.3382265     2965.731     5027.624     5323.328      84.9081       169.48     338.6907      1.820     4.87     1017.218     59.70567     358.6259        27     1.648     0.984  47.08   0
        98    941.3130    863.1594 307.5391674  +6.3464984     4749.313     7584.972     8211.271      84.9081     169.4127      338.758      1.705     4.76     1012.139     59.70567     664.3077        26     1.619     0.840  53.94   0
        99    683.6445    858.3263 307.6463521  +6.3398546     2949.425     5098.111      5348.53     84.77365       169.48      338.758      1.847     4.74      1017.34     59.70567     390.3951        25     1.635     0.943  45.53   0
       100    871.9365    857.1885 307.5681838  +6.3466398     1498.056     2646.117      2555.65       84.369     169.2106     338.5222      1.795     5.04     1012.941     59.70567     223.3259        17     1.487     0.871  58.52   0
       101    676.5628    853.0006 307.6494728  +6.3418158     2030.438     3678.802     5248.449      83.9624     169.2106     338.5222      2.317     5.10     1017.308     59.70567     246.3007        24     1.616     0.966  50.64   2
       102    999.2646    856.6930 307.5153142  +6.3511084     826.6481     1119.121     1282.992      84.9081     169.6146      338.758      1.576     4.61     1009.817     59.70567     126.2922         8     1.063     0.568  65.99   0
       103    960.2372    851.0305 307.5317147  +6.3521400     2895.263     4621.616     4560.696      84.5041     169.1431     338.5896      1.685     4.88     1010.951     59.70567      374.337        24     1.596     0.883  49.79   0
       104    370.5420    851.5797 307.7766220  +6.3321126     762.0024     1269.125     1423.424      84.5041      169.278     338.5222      1.834     4.45     1025.331     59.70567     128.0525         8     1.219     0.462  36.11   0
       105    418.2534    847.1258 307.7569566  +6.3355578     2208.977     3822.008     3979.638     84.77365     169.4127     338.6907      1.838     4.26     1023.688     59.70567      279.626        23     1.481     0.949  56.65   0
       106    554.5038    836.5919 307.7007224  +6.3444901     2772.024     4569.633     5238.039     84.63898     169.0082     338.4885      1.855     4.61     1020.417     59.70567      324.802        22     1.542     0.851  48.55   0
       107    898.7668    835.6141 307.5577651  +6.3564466      913.288     1537.021     1816.077      84.5041     169.1431     338.6233      1.572     5.48     1011.887     59.70567     124.6292        10     1.751     0.484  50.10   0
       108    620.2015    834.2330 307.6735147  +6.3476718     704.7359     1032.933     721.7038     84.09815     169.2106     338.4548      1.516     5.76     1018.542     59.70567     108.4497         8     1.131     0.825  35.08   0
       109    601.3540    832.7949 307.6813915  +6.3476324      5094.63     9025.692     10135.96     84.23369     169.1431     338.3874      1.896     4.59      1019.01     59.70567     635.5958        35     1.730     1.073  54.21   0
       110    937.1442    831.0393 307.5419784  +6.3596209     1269.428     2083.431     1757.822      84.9081       169.48     338.6907      1.614     5.77     1011.006     59.70567     182.3573        14     1.395     0.785  68.25   0
       111    608.6297    832.2405 307.6783882  +6.3481057      1095.97     1883.378     1856.836       84.369     169.2106     338.5896      1.858     4.44     1018.751     59.70567     154.6027        10     1.199     0.699  48.08   0
       112    518.9514    831.4359 307.7156627  +6.3454236     1216.727     2053.903     1918.722     84.63898     169.3453     338.6233      1.801     5.32     1020.818     59.70567     176.8492        13     1.329     0.767  36.99   0
       113    160.9522    830.6256 307.8643782  +6.3336987     1112.703     1889.418     2076.547      84.5041       169.48     338.6233      1.756     3.81      1024.83     59.70567     176.2203        12     1.131     0.792  70.87   0
       114    736.9005    829.5297 307.6252022  +6.3535318     644.2819     1058.599     695.4705     84.77365     169.5473      338.758      1.848     4.10     1016.444     59.70567     103.5711         5     1.151     0.416  65.26   0
       115    572.0256    826.8119 307.6937746  +6.3491171     16237.72      28511.8     30726.27      84.5041     169.2106      338.657      1.858     4.59     1019.371     59.70567     1960.352        52     1.798     1.136  52.79   0
       116    985.6378    825.0321 307.5220376  +6.3637248     3439.479     5775.251     5656.675      84.5041     169.1431     338.4885      1.738     4.95     1008.722     59.70567     476.3062        26     1.634     0.906  51.40   0
       117     82.3894    817.1664 307.8974627  +6.3366034     1108.662     2310.047     2551.149       84.369     169.2106     338.5559      2.143     7.27      1025.05     59.70567     171.0776        16     1.481     1.000  49.07   0
       118    627.9980    816.8080 307.6708638  +6.3551282     483.8804     691.5802     909.9622     84.23369     169.0757     338.4885      1.523     3.46     1017.523     59.70567     88.80676         5     0.802     0.495  58.53   0
       119    364.6147    815.5259 307.7803022  +6.3467987     2584.656     4634.701     5192.212       84.369     169.1431     338.5559      1.935     4.59     1024.351     59.70567      329.022        28     1.721     1.002  49.87   0
       120    830.1509    811.2803 307.5870839  +6.3641943      48765.5        81199     87387.72      84.9081       169.48     338.7243      1.784     4.51     1012.456     59.70567     6698.752        85     1.877     1.210  46.13   0
       121     64.7084    813.6087 307.9049266  +6.3374751     1831.271     3419.717     3417.367      84.5041     169.0757     338.4548      1.930     5.16     1025.168     59.70567     242.5601        24     1.609     1.025  57.15   0
       122    287.4452    809.1858 307.8125679  +6.3468165     4309.919     8083.762     10549.19     84.23369     169.2106     338.4885      2.365     4.71     1025.365     59.70567     514.3975        41     1.886     1.224  59.00   1
       123    473.9880    809.8597 307.7350663  +6.3528197     734.3277     1450.404     1451.927     84.23369      169.278     338.4211      2.007     3.90     1021.182     59.70567     104.0934         5     0.844     0.516  59.14   0
       124    955.4360    806.5321 307.5352040  +6.3703522     7806.715     12678.73     13792.08     84.77365       169.48     338.8253      1.792     4.61     1009.241     59.70567     1093.581        33     1.649     0.950  47.94   0
       125    758.5343    805.9529 307.6170102  +6.3639921     18941.08     32531.61      35457.8      84.9081     169.3453      338.758      1.832     4.79      1015.03     59.70567      2481.75        46     1.755     1.075  52.65   3
       126    752.1777    802.3854 307.6197706  +6.3652518     76782.48     130890.2     143002.9     84.63898     169.2106     338.6233      1.836     4.54     1015.267     59.70567     9903.879       100     1.958     1.265  46.79   3
       127    397.0651    803.3303 307.7672364  +6.3529267     16634.17     30070.49     32837.98      84.9081       169.48     338.7243      1.942     4.66     1023.129     59.70567     1878.445        56     1.848     1.244  49.46   0
       128      8.8820    805.0394 307.9284027  +6.3391269     3072.323     5442.982     6203.923      84.9081       169.48      338.657      1.868     5.28     1025.577     59.70567     364.7257        25     1.635     0.915  54.03  16
       129    458.8876    801.1352 307.7416328  +6.3559138     18006.52     32502.65     35685.38      84.9081     169.6146     338.7243      1.935     4.70     1021.361     59.70567     2120.593        61     1.920     1.233  47.71   0
       130    446.2619    803.5839 307.7467941  +6.3544779     1206.535      1887.25     2029.827       84.369     169.3453     338.5222      1.768     5.14     1021.818     59.70567     146.1748        17     1.364     0.930  76.39   0
       131    686.2462    803.3064 307.6471251  +6.3626588     811.5854     1101.475     1419.086     84.77365     169.3453      338.859      1.431     4.47     1016.314     59.70567     124.5055         8     1.110     0.512  55.53   0
       132    286.8221    787.7171 307.8135529  +6.3556593     766441.9      2005117      2339734     84.63898     169.0757     338.5896      2.519     8.54     1024.875     59.70567     63339.09       556     2.672     2.019  48.96   4
       133    692.9604    796.9397 307.6445507  +6.3655130     5353.878     9411.759      9990.36      84.9081     169.4127     338.7917      1.895     4.49     1016.045     59.70567      668.599        39     1.799     1.108  52.73   0
       134    481.8148    794.9190 307.7323198  +6.3592517     1409.425     2577.551     2448.541      84.5041     169.1431     338.5559      1.850     6.46     1020.464     59.70567     177.1489        16     1.456     0.806  59.25   0
       135    206.5389    794.1285 307.8466806  +6.3503052     1008.103      1849.99     2791.451     85.04235     169.4127     338.7917      2.181     5.89     1024.855     59.70567     120.5396        12     1.237     0.790  78.59   0
       136    197.3960    788.0858 307.8506825  +6.3524917     838.4252     1457.206     1648.295       84.369     169.0082     338.4211      1.695     6.52      1024.71     59.70567     116.8927        14     1.459     0.817  43.30   0
       137    173.2795    789.1212 307.8606638  +6.3512505     711.5023     1055.053     1536.668     85.17638     169.6818      338.859      1.657     5.15     1024.523     59.70567     120.0458         9     1.009     0.744  66.55   2
       138    727.9882    786.9734 307.6303370  +6.3708036     2241.744     3694.482     3409.939      84.5041     169.2106      338.657      1.711     4.67     1015.242     59.70567     267.2661        21     1.503     0.885  44.61   0
       139    461.8370    783.8050 307.7409929  +6.3631683     42214.26     77918.76     85014.09      83.9624     169.1431     338.5222      1.961     4.64     1020.638     59.70567     4894.142        87     1.945     1.336  47.29   0
       140    952.3344    797.9147 307.5367819  +6.3738065     6161.864     10256.16     11606.84     85.04235     169.6146     338.7917      1.826     4.78     1009.047     59.70567     862.2825        34     1.662     1.007  46.78   0
       141    579.6335    782.8456 307.6920975  +6.3675257     6096.683     10710.79     11043.88      84.5041     169.4127     338.6233      1.886     4.65     1016.789     59.70567     680.5188        35     1.704     1.070  53.11   0
       142    496.3835    781.3613 307.7267263  +6.3653395     3542.611     6465.443     7476.149      84.5041      169.278     338.4885      1.973     4.79     1019.438     59.70567     426.1967        32     1.807     1.045  54.93   3
       143    493.1715    774.9831 307.7282758  +6.3678648     1890.165     3531.574     3710.906      84.5041     169.1431      338.657      1.935     4.96     1019.328     59.70567     242.2869        23     1.513     1.026  39.63   3
       144    824.8005    779.3919 307.5903792  +6.3771813     10114.85     16820.71      18082.1     84.23369     169.0757     338.5222      1.792     4.47     1011.406     59.70567     1237.014        40     1.725     1.020  51.25   0
       145    995.9446    799.8376 307.5186027  +6.3744724     1947.611     3303.209     3007.949      84.9081       169.48      338.758      1.688     4.46     1007.081     59.70567     249.1767        19     1.468     0.833  50.48   0
       146     54.6652    776.2663 307.9103636  +6.3525532     911.6077     1462.981     2044.659      84.9081     169.4127      338.758      1.805     4.12     1024.935     59.70567     137.2261         8     1.061     0.807  87.88   0
       147    212.6986    771.7361 307.8448802  +6.3597581     778.5196     1839.342     3686.746     84.77365       169.48      338.758      3.371     6.33      1024.65     59.70567     110.0615        10     1.630     0.691  76.41   2
       148    846.5911    773.7548 307.5815175  +6.3802392      1091.17     1818.778     2549.298       84.369      169.278     338.3874      1.876     6.92     1010.849     59.70567     149.7181        17     1.655     0.909  46.32   0
       149    190.8930    771.9417 307.8539300  +6.3589377     2284.734     4564.863     5265.765     84.77365     169.3453      338.859      2.169     6.12     1024.529     59.70567     277.4723        26     1.774     0.978  57.13   0
       150    182.5672    771.4536 307.8574045  +6.3588583     9548.041     17307.98     19218.02     84.77365     169.3453      338.657      1.976     4.69     1024.478     59.70567     1121.847        50     1.850     1.243  46.04   3
       151    175.0504    769.0372 307.8606084  +6.3596024     2464.844     4639.282     5809.862     84.63898     169.3453     338.5896      2.192     5.34     1024.424     59.70567     314.4435        25     1.737     0.949  50.76   3
       152    925.1118    798.3813 307.5480738  +6.3727022     608.6398     997.3847     972.5201     84.63898     169.1431     338.6233      1.728     4.55     1010.143     59.70567      103.136         6     1.233     0.477  47.40   0
       153    242.8201    771.4009 307.8323808  +6.3609124     612.6991     1361.086     2316.748      84.5041     169.0082     338.4211      2.734     3.64     1024.662     59.70567     87.16321         5     1.014     0.376  85.32   0
       154   1019.5103    767.8346 307.5098888  +6.3884748     1402.641     2240.059     3010.833     85.04235     169.3453     315.8605      1.830     4.72     1005.987     59.70567     207.8027        15     1.560     0.699  58.11  16
       155    970.3031    767.9969 307.5303233  +6.3867608     5826.278     9459.131        10311     84.63898     169.0757     338.3874      1.758     4.59     1007.686     59.70567     788.1587        30     1.688     0.896  48.31   0
       156    725.9501    765.6273 307.6319025  +6.3795487     1411.655     2335.206     2565.164      84.5041     169.5473      338.657      1.778     5.04     1014.054     59.70567      208.214        16     1.473     0.750  54.11   0
       157    612.7376    765.0661 307.6789468  +6.3759789      1924.45     3499.766     3295.469      84.9081     169.4127     338.7243      1.897     5.09     1015.043     59.70567     230.8345        22     1.545     0.953  55.66   0
       158    460.6485    764.2130 307.7421481  +6.3712175     1092.233     1836.105     2348.438     84.23369     169.3453     338.4211      1.820     5.57     1019.919     59.70567     150.6176        14     1.441     0.760  63.10   0
       159    175.0494    762.4252 307.8608327  +6.3623322     1585.266     2686.178      3446.17      84.5041       169.48     338.6233      1.972     4.92     1024.383     59.70567     201.1564        17     1.451     0.831  50.81   1
       160    964.5964    759.9676 307.5329636  +6.3898850     2788.924     4553.065     4765.529     84.09815      169.278     338.4885      1.750     4.76     1007.694     59.70567     403.6455        21     1.536     0.831  47.48   0
       161    994.1583    759.4835 307.5207002  +6.3910745     2793.276     4537.465     4284.675      84.9081     169.3453      338.657      1.706     4.86     1006.785     59.70567     412.6932        22     1.516     0.854  48.42   0
       162    716.6993    758.8817 307.6359723  +6.3820234     1164.759     2064.185     1704.362      84.9081     169.8834     338.8253      1.955     7.03       1013.8     59.70567     171.5457        18     1.601     0.866  49.44   0
       163   1023.6822    758.2357 307.5084782  +6.3925778     896.2635     1093.572     1183.505     73.53258     134.2515     254.5003      1.151     3.24     1005.867     59.70567     188.3042         6     0.953     0.426  77.20  24
       164    864.5524    757.7802 307.5745940  +6.3874370     991.9972     1679.342     1731.861       84.369     169.4127     338.5222      1.798     3.86      1010.19     59.70567     175.4507        10     1.115     0.635  39.12   0
       165    289.2797    754.2909 307.8136627  +6.3695429     1434.041     2776.024     2927.279     84.63898     169.6146     338.7917      2.124     6.08     1024.248     59.70567     192.0962        20     1.727     0.902  49.34   0
       166    982.4568    749.5501 307.5258946  +6.3947843     989.5309     1576.767     1904.237      84.9081     169.4127      338.758      1.736     5.15     1007.028     59.70567     144.9399        13     1.452     0.649  62.24   0
       167    205.3161    749.6266 307.8486949  +6.3686375     681.8682     1344.128     1586.176      84.9081     169.1431      338.657      2.297     7.26     1024.375     59.70567     87.08643         9     1.279     1.154 -68.71   0
       168    956.3745    748.8912 307.5367511  +6.3941831     1064.057     1645.356     1700.303     85.04234     169.1431     338.5559      1.600     5.06     1007.715     59.70567     159.0003        10     1.293     0.560  54.83   0
       169    939.1837    754.9425 307.5436886  +6.3911089     762.7701     1242.542     1593.136     84.23368     169.3453     338.4548      1.742     4.65     1008.352     59.70567     133.6391         8     0.928     0.662  49.81   0
       170   1008.8806    747.3160 307.5149934  +6.3965911     2372.394     3803.069     3815.152     84.77365     169.6818     338.7917      1.682     5.15     1006.279     59.70567     332.4963        19     1.481     0.764  55.55   0
       171    728.4160    745.8958 307.6315428  +6.3877783     574.8948     1093.935      1092.59     84.63898     169.2106     338.5896      1.755     4.18     1012.865     59.70567      98.3855         5     0.941     0.531  42.97   0
       172    518.9542    741.5864 307.7186937  +6.3825209     624.3332     961.7291     991.9423     84.23368     169.2106     338.4885      1.257     4.13     1017.187     59.70567     90.09589         5     1.063     0.459 -63.92   0
       173    851.7286    738.7701 307.5805603  +6.3948562     990.5295     1813.399     1821.604     84.77365     169.4127     338.6907      1.920     6.17     1009.884     59.70567     154.9415        14     1.661     0.644  49.82   0
       174    938.4818    736.5364 307.5445988  +6.3986851     1164.285     2112.132     2490.233     85.04235       169.48     338.7243      2.379     5.99     1007.838     59.70567      156.946        17     1.674     0.784  43.16   0
       175    912.7204    731.7911 307.5554594  +6.3997815     852.1328     1381.516     1116.456      84.5041     169.0082     338.5559      1.667     5.31     1008.349     59.70567     107.5009         9     1.164     0.683  51.86   0
       176    895.1909    727.9174 307.5628713  +6.4007937     1409.678     2167.247     2000.692      84.5041     169.0082     338.5559      1.700     5.45     1008.724     59.70567     193.7422        16     1.458     0.768  50.47   0
       177     94.3153    726.9687 307.8955663  +6.3742457     1891.352     3541.279     4102.017      84.9081     169.2106     338.5896      2.086     5.19     1024.083     59.70567     242.0028        23     1.573     1.015  58.59   0
       178    158.7690    725.9926 307.8688286  +6.3768247     776.7164     1511.992     1781.573       84.369     169.2106     338.4885      2.028     6.60     1023.773     59.70567     111.6379        12     1.564     0.781  81.41   0
       179    706.9567    715.3328 307.6414862  +6.3996771     5179.391     8729.938     9357.733      84.9081     169.3453      338.758      1.795     4.59      1011.78     59.70567     571.5622        34     1.722     0.998  48.66   0
       180    653.9384    714.7983 307.6635275  +6.3981176     1236.795     2129.929     2459.483     84.23368     169.2106     338.4211      1.822     5.84     1012.553     59.70567     144.6299        13     1.154     0.939  68.70   0
       181    564.9725    714.4768 307.7004935  +6.3952611      628.572     1101.375     1066.258     84.77365     169.3453     338.6907      1.992     3.74      1014.47     59.70567     88.75183         6     1.188     0.339  50.10   0
       182      3.3812    713.5967 307.9337889  +6.3766943     2639.343     4785.561     5013.404      84.5041     161.6249      287.977      1.898     4.82     1024.901     59.70567      321.808        29     1.652     1.072  48.79  24
       183    680.9172    711.0100 307.6524484  +6.4005877     1684.394     3133.288     3333.297      84.5041     169.0757     338.5559      2.052     5.67     1012.036     59.70567     199.1654        23     1.635     0.968  46.15   0
       184    170.0509    711.2930 307.8646404  +6.3832744     2927.585     5136.031     5772.473     84.77365      169.278     338.9264      1.917     4.59     1023.105     59.70567     385.6342        25     1.608     0.939  51.70   0
       185    823.7269    707.4111 307.5932471  +6.4068653     17315.71     29186.44     31370.14       84.369     169.0082     338.5896      1.820     4.42     1009.257     59.70567     2060.386        54     1.841     1.106  47.59   0
       186    664.0183    709.9691 307.6595031  +6.4004501     6076.811     6879.811     7234.359      84.5041     169.2106     338.5896      1.082     2.75     1012.214     59.70567     2432.724        10     1.101     0.381 -36.34   0
       187    522.9657    707.7952 307.7181679  +6.3966075     1207.818     2259.345     2024.598     84.09815      169.278     338.4885      1.897     6.10      1015.76     59.70567     160.7444        18     1.511     0.934  59.03   0
       188    953.9856    707.1080 307.5391475  +6.4113550     3250.949     5534.097     5884.708     84.63898     169.2106     338.4885      1.800     5.08     1006.577     59.70567     409.2758        29     1.734     1.002  46.02   0
       189    551.4864    707.3808 307.7063348  +6.3977376     793.7258     1196.429     1010.622     84.63898     169.1431     338.5896      1.625     4.78     1014.697     59.70567     142.5298         9     1.297     0.724  74.26   0
       190    297.3063    701.2773 307.8121219  +6.3917013     4675.171     8834.392      10159.8     84.63898     169.6146      338.758      2.056     4.67     1022.125     59.70567       595.39        42     1.835     1.249  52.96   0
       191    704.2838    700.2492 307.6431046  +6.4058152     5630.646     9884.533     10425.23      84.9081     169.4127     338.8253      1.919     4.45     1011.122     59.70567     674.5858        38     1.731     1.148  48.86   0
       192    686.6808    701.3232 307.6503807  +6.4047808      826.589     1628.025     1133.576     85.17638     169.6818      338.859      2.067     7.07     1011.424     59.70567     102.9922        12     1.611     0.869  47.56   0
       193    399.7391    700.3058 307.7696068  +6.3955532     626.7189     1085.172     922.8705     84.77365       169.48      338.758      1.728     3.41     1019.364     59.70567      89.9978         5     1.168     0.289  55.11   0
       194    964.4120    692.7755 307.5352980  +6.4176219     1037.511     1507.342     1562.396      84.5041     169.2106      338.657      1.663     4.22       1005.8     59.70567     168.7171         9     1.101     0.593  56.70   0
       195    776.0414    688.4945 307.6136924  +6.4130765     3040.272     5483.435      6285.53      84.9081     169.3453      338.859      2.002     4.92     1009.419     59.70567     360.0758        30     1.687     1.094  55.69   0
       196    731.8230    689.1356 307.6320393  +6.4113282     777.0559     1781.483      1395.47      84.5041     169.4127     338.5896      2.114     6.69     1010.248     59.70567     113.0386         9     1.618     0.777  27.73   0
       197    980.8876    685.8786 307.5286855  +6.4210212     2122.634     3297.597     2810.889     84.63898     169.6818      338.859      1.662     4.69     1004.925     59.70567     267.3962        19     1.485     0.805  58.79   0
       198     41.9363    687.5427 307.9186586  +6.3887540     611.8409      740.373     658.4808     85.04234     169.3453      338.758      1.346     5.28     1023.952     59.70567     131.5258         7     1.111     0.707  82.95   0
       199     61.7585    685.1669 307.9105059  +6.3904046     1534.543     3097.587     3608.898     84.63898     169.4127     338.5559      2.359     6.54     1023.394     59.70567     196.6948        22     1.805     0.872  55.52   0
       200    119.7281    680.1978 307.8865959  +6.3944140     19905.51     37107.83     40400.85       84.369     169.0082     338.5559      1.992     4.70     1022.123     59.70567     2384.917        66     1.954     1.276  47.53   0
       201    580.9944    681.0776 307.6949648  +6.4095896     1681.186     3119.012     3264.972      84.5041     168.8732     338.5222      1.983     5.63     1012.811     59.70567     239.1127        22     1.633     0.928  58.52   0
       202    549.9773    678.2379 307.7079450  +6.4097194     983.2581      1820.06     2222.467      84.5041     169.1431     338.5222      2.336     6.61     1013.619     59.70567     135.4316        15     1.521     0.805  50.21   0
       203    970.7708    677.2169 307.5331793  +6.4242588     953.0718     1583.177     1621.986      84.5041     169.1431      338.657      1.731     6.65     1004.987     59.70567     126.8314        13     1.507     0.823  58.22   0
       204    590.5690    675.0826 307.6911898  +6.4123866     820.4948     1286.238     1467.374     84.77365     169.2106     338.5896      1.978     3.88     1012.325     59.70567     131.2856         7     1.125     0.785  45.22   0
       205    765.7191    672.3200 307.6185250  +6.4194085     2909.772     4894.784     4832.627     85.04235     169.6818     338.8927      1.777     4.36     1009.073     59.70567     333.2896        29     1.573     1.080  49.23   0
       206    787.6829    670.5601 307.6094602  +6.4208719     3496.871     6051.921      6101.33      84.9081       169.48      338.657      1.811     4.41     1008.723     59.70567     405.9327        29     1.597     1.020  51.72   0
       207    619.2505    668.4800 307.6794982  +6.4160765     2494.226     4721.557     5036.927      84.9081       169.48     338.7243      1.987     4.83     1011.368     59.70567     303.1574        29     1.677     1.102  55.15   0
       208    280.0621    668.3113 307.8204000  +6.4047309     1312.133     2669.026     3457.582      84.9081     169.5473     338.7917      2.119     6.16      1020.96     59.70567     157.4109        22     1.491     1.110  43.45   0
       209    455.3654    668.5830 307.7475721  +6.4105232     1197.289     2269.898     2156.777      84.5041     169.2106     338.5559      1.969     4.60     1016.867     59.70567     156.3713        14     1.225     0.860   2.43   0
       210    363.3115    667.4322 307.7858492  +6.4078991     1504.354     2481.409     1730.721     85.04235     169.2106     338.7243      1.710     6.65     1018.441     59.70567     537.5125        15     1.459     0.849  57.65   0
       211   1023.8287    664.2260 307.5115744  +6.4313986     1495.465     1646.313     1635.123     70.84626     131.6777     251.8419      0.881     1.86     1002.359     59.70567     553.6401         6     0.794     0.375 -87.35  24
       212    745.8662    664.0624 307.6270501  +6.4221518     736.0055     1051.168     991.0024      84.9081     169.4127     338.7243      1.565     3.95      1009.14     59.70567     101.2771         6     1.014     0.439  52.39   0
       213    139.0697    663.9863 307.8791113  +6.4017602     606.1282       1144.8     1225.409       84.369      169.278     338.5896      2.187     4.30     1021.584     59.70567     95.58032         6     1.198     0.440  34.31   0
       214    184.4865    659.0808 307.8604125  +6.4053184     18282.24     34493.29     37792.41     84.63898     169.6818      338.859      2.006     4.67     1021.217     59.70567     2172.155        67     1.952     1.320  52.70   0
       215    471.4000    659.9454 307.7412031  +6.4146291     2085.867     4206.406     4446.618     84.09815     169.0082     338.2863      2.116     5.34      1016.03     59.70567      280.199        27     1.662     1.131  39.78   0
       216    853.1446    660.2275 307.5826143  +6.4273331     1073.165     1795.364     2209.809      84.5041       169.48     338.5559      1.729     5.86     1007.679     59.70567     136.8675        13     1.266     0.763  62.01   0
       217   1020.8243    648.4690 307.5133518  +6.4378040     6290.635     10487.22     11271.57      84.5041     168.1285     299.3964      1.802     5.04     1001.983     59.70567     776.4763        33     1.809     0.934  46.78  24
       218     66.1710    648.3792 307.9099204  +6.4057420     758.1515     1492.301     1254.253       84.369     169.2106     338.6233      2.007     6.77     1022.557     59.70567     106.8928        10     1.641     0.783  35.20   0
       219    614.4247    643.8610 307.6823330  +6.4260791     37815.37     69665.42     75976.91      84.5041     169.3453     338.6233      1.983     4.59     1010.884     59.70567     4404.877        81     1.968     1.323  46.13   0
       220    979.0320    645.3282 307.5308189  +6.4377019     609.7759     841.9146     1035.775     84.77365     169.4127     338.6907      1.559     4.94     1003.475     59.70567     105.7494         8     1.433     0.481  67.71   0
       221    222.3678    640.4671 307.8453076  +6.4142814     2045.514     4150.057     5216.022     84.77365     169.4127     338.6907      2.511     5.46       1020.6     59.70567     262.9472        31     1.820     1.189  48.17   0
       222     22.7371    642.7122 307.9281537  +6.4066140     670.0368     910.2064     1456.296     84.77365     169.6146     338.7243      1.502     3.82     1023.686     59.70567     92.03357         5     1.348     0.311  60.08   0
       223    114.9502    634.4843 307.8901296  +6.4131263     985.3466       1921.8     2259.626      84.9081     169.4127     338.8253      2.101     7.25     1021.372     59.70567     120.2546        17     1.431     1.030  57.52   0
       224    511.6745    627.6709 307.7255627  +6.4293095     48330.91     90524.59      99832.1     85.17638     169.5473     338.7243      2.027     4.70     1013.573     59.70567     5417.086        98     2.018     1.407  46.27   0
       225    697.3770    624.8513 307.6485142  +6.4367140     793.3814     1134.807     969.1887       84.369     169.4127     338.5896      1.635     6.28     1008.556     59.70567     109.3102        10     1.101     1.005  44.20   0
       226    185.9331    622.7863 307.8610408  +6.4203520     1222.145     2450.648     2852.471       84.369     169.2106      338.657      2.231     7.06     1020.743     59.70567     151.3309        21     1.729     1.052  46.45   0
       227    657.6001    618.9124 307.6652385  +6.4378304     663.4453     1367.647     1543.996     84.09815     168.8732     338.3537      2.471     5.81     1009.065     59.70567     109.1962        10     1.424     0.667  60.56   0
       228    464.3001    618.6874 307.7455458  +6.4314247     485.0373     1219.069     1130.859      84.9081     169.9505      338.758      2.309     3.03     1014.952     59.70567     112.0737         4     0.836     0.320  58.11   2
       229    357.2639    617.2631 307.7900574  +6.4284090     1685.407     3175.478     3682.202      84.9081     169.4127      338.758      1.980     5.85     1016.791     59.70567     197.9816        24     1.602     1.171  76.31   0
       230     55.7490    629.2878 307.9148967  +6.4132720     1233.391     2131.693     2790.647      84.9081      169.278      338.859      1.780     6.02     1022.498     59.70567     148.6718        13     1.554     0.657  60.49   0
       231    783.7596    611.1808 307.6130891  +6.4452572     4213.495     7300.418     8119.761      84.5041     169.2106     338.4211      1.826     4.43     1007.291     59.70567     544.6287        31     1.684     1.013  53.65   0
       232    837.2734    606.4474 307.5910171  +6.4490062     11601.38     19854.75     21149.06     84.77365       169.48     338.7243      1.856     4.54     1006.142     59.70567     1429.026        43     1.728     1.105  51.20   0
       233    580.1114    606.4238 307.6978500  +6.4403831     853.1573     1714.834      2007.27      84.9081     169.2106     338.5896      2.234     8.40     1010.724     59.70567      124.457        15     2.076     0.950 -82.13   0
       234      1.8274    608.4908 307.9380000  +6.4200360     666.7086     942.8072     1213.042     80.35239     142.3351     263.6585      1.341     4.40     1023.521     59.70567     103.7652         7     1.134     0.485  50.71  24
       235    661.2944    604.5150 307.6641891  +6.4438989     2031.024     3809.299     4109.268      84.9081     169.8162      338.859      1.952     4.90     1008.576     59.70567     263.2522        23     1.567     0.985  63.76   0
       236    978.9585    600.5848 307.5323529  +6.4561736     996.1017     1638.333     1937.412       84.369     169.2106     338.4548      1.826     5.20     1001.722     59.70567     126.7635        10     1.226     0.624  32.35   0
       237      2.7097    599.7722 307.9379293  +6.4236654     2828.191     4706.396     4563.539     85.04235      154.258     277.8156      1.748     4.52      1023.38     59.70567     371.6768        23     1.488     0.934  60.21  24
       238    419.7476    597.6415 307.7647644  +6.4386145     768.5655     1368.375     1566.048      84.9081       169.48     338.7243      1.942     4.49     1015.396     59.70567     137.0167         7     1.421     0.404  54.69   0
       239    273.8163    597.9897 307.8253738  +6.4335541     922.7346      1692.41     1446.757     84.63898     169.1431     338.5896      2.030     5.67     1017.747     59.70567     121.4441        10     1.123     0.865  24.40   0
       240    913.3179    589.6873 307.5599891  +6.4584748     2408.556     3952.693     4461.443     84.63898     169.6146     338.7917      1.740     4.30     1003.602     59.70567     365.7631        25     1.591     0.947  51.29   0
       241    208.9185    590.1484 307.8525980  +6.4346028     564.2614      1019.19     893.0204      84.9081     169.4127     338.7243      1.728     4.36     1019.593     59.70567     95.77106         5     1.066     0.508  41.25   0
       242    872.2303    587.0887 307.5771460  +6.4581709     2081.778      3456.41     3951.705     85.04234     169.2106      338.657      1.806     4.45     1004.736     59.70567       280.17        19     1.429     0.832  50.85   0
       243    843.0800    583.3302 307.5893828  +6.4587457     1935.558     3589.623     4947.443     85.17638      169.749     338.6907      2.399     5.54     1005.241     59.70567     228.4902        24     1.653     1.050  62.31   0
       244    300.2327    582.2664 307.8149322  +6.4409364     5618.665     11195.11     12141.02     84.77365       169.48     338.6907      2.102     5.20     1016.534     59.70567     639.6968        45     1.944     1.224  53.81   0
       245    852.6479    578.3097 307.5855768  +6.4611393     133043.6     229698.2     248930.3      84.9081      169.278     338.8927      1.888     4.37     1004.899     59.70567     16163.28       127     1.988     1.327  45.39   0
       246    785.8134    583.3439 307.6131731  +6.4568196     667.3771     1178.246     1444.348     84.23369     169.3453     338.4211      1.616     4.56     1006.204     59.70567      131.526         6     1.181     0.500  40.15   0
       247    234.3938    576.6891 307.8424710  +6.4410191     43207.14     83434.36     93762.93       84.369     169.0757     338.4885      2.065     4.85      1018.44     59.70567     5095.043       101     2.078     1.451  47.88   0
       248     12.4935    575.3228 307.9346947  +6.4340903     3528.446     6320.033     7334.514     84.63898     169.6146      338.758      1.993     4.95     1022.827     59.70567     459.4556        31     1.686     1.108  52.20   0
       249    158.4012    572.8690 307.8741682  +6.4400321     4612.008     8851.613     9427.644      84.5041     168.9407     338.5559      2.009     4.87       1020.4     59.70567     535.8286        37     1.768     1.171  56.35   0
       250    889.1045    565.6140 307.5708581  +6.4676031     3641.065     6467.664     6427.201     84.63898     169.1431     338.5222      1.874     4.68     1003.581     59.70567     447.0801        29     1.677     1.014  47.45   0
       251    407.7733    563.7943 307.7708826  +6.4521860     12035.14     23931.47      26357.6       84.369     169.2106     338.5222      2.108     4.94     1014.757     59.70567     1403.573        60     1.947     1.368  50.30   0
       252    209.5867    562.4363 307.8532587  +6.4460668     1454.027     2993.762     4472.176       84.369     169.2106     338.4211      2.639     7.71     1018.656     59.70567     173.4615        21     1.705     0.975  48.81   0
       253    843.3220    558.8753 307.5901051  +6.4688509     4797.698     8328.796     8509.489     85.17638     169.6818     338.7917      1.844     4.64     1004.446     59.70567     536.6757        34     1.682     1.070  49.43   0
       254    574.1820    558.7941 307.7019202  +6.4598492     4764.079     9166.805     9998.582      84.5041     169.0082     338.5559      2.017     4.84     1008.777     59.70567     519.6313        43     1.827     1.240  47.50   0
       255    215.3987    560.1459 307.8509219  +6.4472085      482.568     975.0054     2015.072     84.23369     169.1431       338.32      1.665     3.43      1018.43     59.70567     78.00763         5     0.760     0.448  71.16   0
       256   1023.1257    569.5297 307.5150471  +6.4704743     1152.543     1693.928     2291.342     80.63583      143.214      264.393      1.620     6.11     998.0469     59.70567     169.4736        14     1.395     0.752  64.35  24
       257    432.5137    555.7086 307.7608780  +6.4563574     987.8305     1750.103     1423.793     84.63898     169.8834     338.8253      1.865     6.57     1013.913     59.70567     129.7659        12     1.256     0.965  49.40   0
       258    221.1979    551.9471 307.8487904  +6.4507892     4851.864     9807.028     10629.51     84.23368     169.1431     338.2863      2.131     5.10     1017.947     59.70567      551.666        43     1.870     1.299  48.12   0
       259    618.9418    551.6802 307.6835652  +6.4642907     1933.253       3905.2     4597.316      84.9081     169.4127     338.6907      2.315     5.02     1006.989     59.70567     224.8803        26     1.486     1.197  55.45   0
       260     92.8857    550.5494 307.9021401  +6.4470349     3792.851     7262.857     8051.725      84.9081      169.278     338.7917      2.032     5.02     1020.988     59.70567     412.1038        36     1.821     1.156  51.08   0
       261     17.9484    552.9116 307.9331891  +6.4435275     842.3183     1479.939     1771.708      84.9081     169.2106     338.8253      1.978     6.53     1022.423     59.70567     128.9789        11     1.466     1.005  37.93   0
       262    316.3099    548.3417 307.8094011  +6.4554849        62073     122780.7     136742.8     84.77365     169.4127      338.859      2.114     4.92     1015.257     59.70567     7090.192       109     2.090     1.479  47.38   0
       263    859.4482    551.0379 307.5836692  +6.4726275      1084.51     1921.924      2312.74     84.77365     169.4127     338.6233      1.755     6.51     1003.984     59.70567     155.5323        15     1.583     0.751  48.46   0
       264    605.6935    546.3686 307.6892483  +6.4660386     765.6292     1383.193     2400.815     85.04235     169.2106      338.758      3.083     6.28     1006.852     59.70567     85.75983        11     1.261     0.878  72.53   0
       265    300.3437    543.5902 307.8161946  +6.4569084     1014.312       2134.8     2372.903     84.23369     169.3453     338.3874      2.096     6.97     1015.307     59.70567     156.7693        15     1.451     0.972  54.23   0
       266   1015.9151    542.0941 307.5189645  +6.4815610     1540.499     2481.095     2369.859     84.77365     169.8162      338.859      1.669     4.14     996.7621     59.70567     226.8836        17     1.452     0.737  50.53  16
       267    839.3571    540.6888 307.5923644  +6.4762270     13389.16     23306.84     24803.71      84.9081      169.278      338.758      1.872     4.41     1003.918     59.70567     1605.421        52     1.878     1.198  42.94   0
       268    543.0705    539.1395 307.7155084  +6.4669182     30232.35     61113.92     69439.51     85.04235     169.4127      338.758      2.179     5.02     1009.178     59.70567     3258.394        92     2.100     1.499  40.86   0
       269    693.7744    537.5748 307.6529520  +6.4726281     748.5889     1416.487     1613.566       84.369     169.2106     338.5896      2.324     6.95     1005.982     59.70567     120.2645        10     1.808     0.749   7.26   0
       270    256.1978    535.9556 307.8347922  +6.4585721     1347.799     2716.191     1984.888     84.23368     168.9407     338.3537      2.200     8.43     1016.058     59.70567     158.2593        23     1.902     1.044  45.34   0
       271     91.7581    536.1268 307.9030974  +6.4529514     878.3282     1675.654     1964.628     84.77365       169.48      338.758      2.218     6.50     1020.634     59.70567     118.6085        13     1.556     0.763  87.98   0
       272    765.5012    533.8417 307.6232787  +6.4765769     1047.019      2083.09     2272.209      84.9081      169.278       338.96      2.139     6.51     1004.904     59.70567     133.9391        16     1.686     0.916  70.65   0
       273    702.9624    534.0668 307.6492530  +6.4743850     2406.105     4571.254     5216.712     84.77365     169.3453     338.8253      2.026     4.62     1005.777     59.70567      312.286        32     1.691     1.134  55.09   0
       274    713.2542    533.9222 307.6449822  +6.4747903     1165.973     2213.212     2273.668     85.04235     169.4127     338.7243      2.005     5.26     1005.661     59.70567     160.1213        15     1.582     0.781  51.23   0
       275    440.7760    529.7569 307.7583224  +6.4673504     1235.879     2292.087     2115.657      84.5041      169.278     338.5559      1.988     6.42     1012.405     59.70567     157.3112        14     1.228     0.941  49.37   0
       276    187.4274    526.6860 307.8636748  +6.4600793     18926.81     36311.54     40179.57     85.04235     169.0757     338.5896      2.081     4.97     1018.181     59.70567     2127.802        71     2.015     1.385  45.14   0
       277    120.2805    531.3327 307.8914114  +6.4558940      590.983     1138.813     1339.474     85.04235     169.6818     338.7243      2.621     4.98     1019.956     59.70567     114.6921         6     1.111     0.668   9.42   0
       278    372.3659    528.1086 307.7867981  +6.4657273     2904.545     5592.966      6090.79     85.04234      169.278     338.7243      2.073     4.86     1013.365     59.70567      329.514        35     1.708     1.237  46.06   0
       279    552.2112    527.4523 307.7121054  +6.4720509     1667.299     2988.512     3367.497     84.23369     169.3453     338.4548      1.909     5.50     1008.324     59.70567     200.1237        19     1.393     1.010  56.49   0
       280    915.2935    526.5590 307.5612912  +6.4846060     1398.932     2304.107     2212.994     85.04235     169.3453     338.8253      1.785     5.21      1001.33     59.70567     180.9203        16     1.481     0.780  50.34   0
       281    152.7470    524.9767 307.8781396  +6.4596144     1865.332     3754.787     4288.012       84.369     169.4127     338.5222      2.076     6.63     1019.164     59.70567     213.1316        27     1.825     1.009  57.53   0
       282     32.9980    525.1445 307.9278794  +6.4555001     1617.178     2981.491     3860.497     84.23369     169.0757     338.3874      2.060     5.53     1021.691     59.70567     188.4538        22     1.575     0.981  61.32   0
       283   1013.0344    521.2480 307.5208617  +6.4900717     4396.423      7234.82      7761.88     84.63898     169.4127      338.657      1.731     4.76     997.0852     59.70567     548.2524        28     1.650     0.920  51.27   0
       284    389.8748    523.1963 307.7796903  +6.4683452     778.3016     1606.469     1496.839       84.369     168.8732     338.6233      2.221     6.07     1012.859     59.70567      100.935         8     1.271     0.816  15.48   0
       285    586.6707    514.2003 307.6982365  +6.4786809     1104.989     2243.446     2458.729       84.369     168.8732     338.4885      2.147     7.03     1006.832     59.70567     179.5054        19     1.755     0.812  39.43   0
       286     51.7107    511.0876 307.9205827  +6.4619361     18579.83     35914.05     40495.43     84.63898     169.9505     338.8253      2.083     4.87     1020.864     59.70567     2103.398        69     1.977     1.378  51.03   0
       287    484.4048    507.7978 307.7409389  +6.4778851     30262.97     60185.42     66418.76     84.23369     168.9407     338.4885      2.087     4.87     1010.251     59.70567     3170.523        82     2.002     1.414  50.37   0
       288     34.2565    505.2985 307.9280298  +6.4637364       141170     273730.7     304213.1     84.63898     169.4127     338.9264      2.079     5.02     1021.297     59.70567     16204.02       148     2.152     1.490  48.21   0
       289    692.3981    507.4366 307.6545395  +6.4850255     9041.033     16646.07     18249.12      83.9624     169.2106     338.5222      1.955     4.61     1005.206     59.70567     992.8452        50     1.855     1.231  50.10   0
       290    249.6251    505.4326 307.8385558  +6.4709525     13619.47     27878.12     31688.59       84.369     169.2106     338.5559      2.186     5.28     1014.614     59.70567     1538.789        67     2.140     1.353  47.58   0
       291    332.5145    507.8757 307.8040380  +6.4727383     684.7056      1322.96      1235.16     85.04234      169.749     338.7917      2.166     4.59     1012.383     59.70567     90.72931         6     1.163     0.515  44.16   0
       292    215.4991    506.5248 307.8526959  +6.4693504     1097.561      2338.53     2726.865       84.369     169.5473     338.6233      2.235     8.02     1016.337     59.70567     134.5284        18     1.774     1.013  62.27   0
       293    614.3989    504.2352 307.6870529  +6.4837272     2085.741     3883.437      4144.45      83.9624     169.2106     338.5222      1.921     5.46      1006.03     59.70567     227.4859        25     1.664     1.041  58.20   0
       294    866.1173    505.3272 307.5824365  +6.4917244     870.2883     1042.134     796.2701     85.17638      169.749      338.758      1.347     2.91      1002.18     59.70567      133.128         7     0.747     0.629  15.12   0
       295    988.1077    501.2972 307.5318884  +6.4974748     4163.399     6804.078     6818.284      84.9081     169.9505      338.657      1.713     4.47     997.9886     59.70567     505.8612        28     1.622     0.902  48.32   0
       296    661.3149    499.8456 307.6677092  +6.4871158     4803.389     9403.254     10322.51      84.9081     169.3453     338.7243      2.085     4.83     1005.298     59.70567     532.6463        38     1.729     1.228  54.16   0
       297    148.9763    499.6777 307.8805633  +6.4699322     825.6301     1638.389     2084.071      84.5041     169.2106     338.6907      2.087     5.44     1018.137     59.70567     107.7947        10     1.348     0.620  41.13   0
       298   1010.6884    493.7286 307.5227610  +6.5013557     2990.784     4877.055     4758.379     85.04235     169.6818     338.7243      1.775     4.75     997.3435     59.70567      385.989        24     1.609     0.876  51.93   0
       299    573.3934    491.0195 307.7045348  +6.4878055     5225.221     10409.33     11741.12      84.5041     169.1431     338.5222      2.103     5.12     1006.482     59.70567     588.8431        41     1.856     1.221  51.95   0
       300    929.8625    486.8888 307.5565722  +6.5014734     2656.744     4374.149     5246.036      84.9081     169.5473     338.7917      1.911     4.73      999.152     59.70567     337.9717        25     1.662     0.886  53.31   0
       301    419.4205    491.0991 307.7685007  +6.4825923     1979.313     3753.667     3984.465      84.9081     169.2106     338.4885      2.024     5.46     1010.248     59.70567     244.2255        31     1.698     1.240  60.34   0
       302    937.4088    481.3894 307.5536219  +6.5039968     1866.359     3201.432     3517.892       84.369     169.2106      338.657      1.795     5.05     998.7769     59.70567     226.2306        19     1.565     0.794  45.56   0
       303    976.5454    480.5159 307.5373907  +6.5056681     1115.307     1530.395     1407.432      84.9081     169.4127     338.8927      1.661     5.82     998.0475     59.70567     151.1646        13     1.196     0.797  43.25   0
       304    761.2734    477.2513 307.6269412  +6.4998004     2176.153     3843.717     4012.614      84.9081       169.48      338.758      1.902     5.11     1003.912     59.70567     240.6509        24     1.565     1.043  49.82   0
       305    432.2019    475.4683 307.7637189  +6.4894762     2567.188     5226.792     5510.513     84.23369     168.9407     338.5222      2.154     5.46     1009.122     59.70567     295.6499        33     1.766     1.212  48.48   0
       306    123.2306    476.0580 307.8920593  +6.4788146     1258.237     2456.197     2403.895     84.63898     169.4127      338.657      2.039     6.10     1017.665     59.70567     192.5588        19     1.545     1.029  52.38   0
       307    659.9278    472.0794 307.6692217  +6.4985334     7354.645     14174.89     15609.12     85.17638     169.6818     338.6907      2.026     4.90     1004.708     59.70567     884.8943        45     1.817     1.247  53.11   0
       308    822.5947    468.6668 307.6017527  +6.5054018     12916.43     22696.75     24899.28       84.369     169.0757     338.5222      1.887     4.49      1002.24     59.70567     1518.167        49     1.837     1.121  48.35   0
       309    342.6435    468.9889 307.8011452  +6.4891349     1963.463     3884.536     4050.118       84.369     169.2106     338.4211      2.041     5.10     1009.691     59.70567     203.8937        25     1.515     1.114  57.52   0
       310    851.5734    465.5005 307.5898192  +6.5076808     936.2238     1387.968     1721.966      84.9081     169.1431     338.6233      1.929     6.37     1001.157     59.70567     131.7767        15     1.571     0.726  56.00   0
       311    425.6154    465.1062 307.7668055  +6.4935327     1251.832     2453.996     3176.217     84.63898     169.2106     338.5559      2.371     6.32     1008.561     59.70567     140.0687        20     1.451     1.135  58.97   0
       312   1007.7827    463.5617 307.5249819  +6.5137140     1662.946     2644.702     2402.114      84.5041      169.278     338.4548      1.586     5.11     996.6459     59.70567     228.7876        15     1.442     0.691  58.33   0
       313    827.1111    463.8424 307.6000387  +6.5075452     1186.231     2159.499     2080.833      84.9081     169.3453      338.758      2.028     5.29     1001.844     59.70567     138.3526        16     1.266     0.960  48.86   0
       314    160.1222    460.6025 307.8772569  +6.4864413     3032.819     6298.693     7327.107     84.23369     168.8732     338.4885      2.195     5.46     1016.406     59.70567     349.9029        36     1.789     1.262  48.15   0
       315    798.2018    459.4781 307.6121969  +6.5083776     1763.847     3349.994     3143.526     84.23369     168.8056     338.4885      1.882     5.51     1002.358     59.70567     231.4349        24     1.651     0.965  61.90   0
       316    318.0643    457.1194 307.8117582  +6.4932071     984.1858     1972.782     2236.407     85.17638       169.48     338.6907      2.210     7.41     1009.241     59.70567     135.2025        15     1.585     0.969  60.94   0
       317    396.3552    455.5157 307.7792860  +6.4965071     2352.047     4577.953     5324.491      84.9081     169.3453      338.758      2.118     5.17     1008.348     59.70567     263.4379        30     1.725     1.144  43.28   0
       318    751.9186    453.2669 307.6316359  +6.5093893     1404.772     2342.745     2650.094     85.04235     169.6818     338.7917      1.859     5.29     1002.393     59.70567     167.5802        17     1.424     0.912  78.42   0
       319    593.2557    445.5137 307.6978181  +6.5072616     778.4809     1492.011     1658.468      84.9081     169.4127      338.859      1.991     5.57     1005.058     59.70567     140.1379        10     1.471     0.594  58.10   0
       320    515.7284    443.8171 307.7300859  +6.5053551     775.2901     1547.039     1153.908       84.369     169.3453     338.6233      1.986     7.27     1005.612     59.70567     107.9783        10     1.552     0.953  62.58   0
       321    878.2635    443.3390 307.5794756  +6.5177257     1225.701     1969.208     1688.179      84.9081     169.4127      338.758      1.695     5.66     999.4774     59.70567      165.693        16     1.377     0.912  52.97   0
       322    863.7487    441.8599 307.5855562  +6.5178498     1451.887     2848.059     3254.912      84.9081     169.3453     338.7243      2.098     5.70     999.8745     59.70567     200.6176        21     1.591     0.964  51.62   0
       323    761.0568    440.3304 307.6282749  +6.5150372     11601.92     21083.37     23101.12     85.04234     169.3453     338.6907      1.967     4.65     1001.445     59.70567     1351.332        50     1.816     1.216  51.70   0
       324    682.3714    436.5015 307.6610964  +6.5139767     1949.255     3490.617     3987.913     85.04235     169.1431     338.7243      2.010     5.02     1003.773     59.70567     217.7184        26     1.586     1.081  54.10   0
       325    654.5608    431.4977 307.6728199  +6.5151085     11119.31     23625.91     30281.27      84.9081      169.278       338.96      2.536     6.89     1004.272     59.70567     1197.792        79     2.684     1.339  38.91   0
       326    986.2806    430.1932 307.5350372  +6.5267717     3287.372     5409.655     5115.605      84.5041     168.9407     338.5222      1.689     4.43     995.6755     59.70567     426.6175        27     1.555     0.975  44.11   0
       327    425.4588    426.2107 307.7681850  +6.5095864     19852.95     40339.79     45238.83     84.23369      169.278     338.4211      2.152     5.10     1006.283     59.70567     2128.986        77     2.036     1.446  45.73   0
       328    171.4468    425.7175 307.8737342  +6.5012265     1672.578      3629.46     3831.924      84.9081     169.4127     338.7243      2.122     7.11     1014.572     59.70567     192.8753        29     1.857     1.266  64.30   0
       329    941.1943    424.5371 307.5539607  +6.5275972     1048.666     2432.093     3127.396     84.23369     169.1431     338.4548      2.573     8.87     996.9562     59.70567     172.6077        24     2.796     0.786  48.42   0
       330    955.2614    420.6122 307.5482478  +6.5296890     4238.355     7095.968     7789.979       84.369     169.2106     338.4548      1.799     4.42     996.3506     59.70567     519.4442        30     1.672     0.949  43.24   0
       331    104.9151    420.8456 307.9015400  +6.5009913     1075.411     2467.878     2601.499      84.9081     169.3453     338.7243      2.288     7.12     1016.885     59.70567     122.8494        17     1.519     0.935  38.31   0
       332    283.0480    416.7869 307.8276709  +6.5086788     9397.958     19437.81      21790.5     84.23368      169.278     338.4211      2.161     5.13     1007.816     59.70567     1050.648        55     1.991     1.334  51.72   0
       333    778.2635    410.6935 307.6221239  +6.5278511     661.0178     1020.508     1445.039      84.9081       169.48     338.7917      2.208     5.40     999.5914     59.70567     90.97974         6     1.236     0.667  55.41   0
       334    119.0072    410.5383 307.8960348  +6.5057228     550.4853     985.7834     919.7321     84.23368     169.2106     338.4885      1.690     4.27     1016.089     59.70567     98.26398         6     1.154     0.451  74.94   0
       335   1006.3167    409.2941 307.5274145  +6.5360715     832.5411     1309.982     877.7848     84.63898     169.8162      338.859      1.650     5.42     993.9563     59.70567     124.9645         8     1.069     0.775  44.78   0
       336    746.8007    409.8277 307.6352257  +6.5271529     589.2377     1035.182     1097.882       84.369     169.1431     338.5222      1.753     6.01     999.7569     59.70567     80.14404         7     1.290     0.788 -16.56   0
       337    396.2220    406.5169 307.7809979  +6.5167329     933.2824     1901.576     1785.594     84.63898     169.0757     338.5896      2.068     6.41     1005.419     59.70567     133.3362        10     1.235     0.933  51.23   0
       338    183.2077    405.3961 307.8695365  +6.5100135     3631.541     7685.899     8077.421     84.23369     169.0757     338.5896      2.159     5.52     1012.953     59.70567     397.0746        41     1.851     1.338  51.95   0
       339    287.8469    404.0493 307.8261082  +6.5140996     1080.654      2032.49     2306.098      84.9081      169.278      338.758      2.082     5.73     1007.246     59.70567     130.7269        13     1.366     0.855  68.31   0
       340    205.8088    401.5715 307.8602762  +6.5123553     1744.447     3786.365     4455.955      84.5041     169.2106     338.5559      2.232     6.50     1011.396     59.70567     183.2336        28     1.669     1.219  50.09   0
       341    869.2448    401.8125 307.5846202  +6.5345691     611.3619     968.3308     846.2754       84.369     169.2106     338.4548      1.787     3.45     998.3063     59.70567     94.26538         5     0.988     0.348  47.38   0
       342     22.1150    397.4710 307.9367321  +6.5078437     1619.113      3167.59     3952.451     85.04234     169.6818      338.758      2.154     6.10     1017.748     59.70567     196.3795        25     1.575     1.143  65.90   0
       343    428.9102    395.9952 307.7677723  +6.5221778      1404.16     2764.564     2827.792       84.369     169.0757     338.4211      2.101     5.90      1004.14     59.70567     156.5093        20     1.372     1.032  47.28   0
       344   1017.4096    394.8117 307.5232920  +6.5424224     899.8367     1638.553     1203.733     84.63898     169.2106     334.8291      1.829     5.10     992.7178     59.70567     133.2285        10     1.284     0.625  41.07  16
       345    316.5519    395.5800 307.8144687  +6.5185640     613.6718     1442.539     1350.343       84.369     169.4127     338.5222      2.276     5.39     1006.167     59.70567     82.78577         6     1.194     0.687  44.08   0
       346    482.6501    389.6507 307.7456586  +6.5266063      5304.28     10494.93     12097.16      84.9081      169.278      338.657      2.147     4.86     1002.116     59.70567     610.2628        48     1.862     1.395  55.95   0
       347    362.9053    392.9815 307.7952978  +6.5211990     554.7949     1027.044      1242.27     84.77365     169.1431     338.5559      2.051     5.02     1004.822     59.70567     92.52606         6     1.161     0.614  32.02   0
       348     78.7860    390.5717 307.9134220  +6.5126075     2358.363     4793.577     5048.256      84.5041     169.2106     338.6233      2.125     5.76     1016.538     59.70567     290.9291        35     1.828     1.294  63.13   0
       349    823.2310    386.9200 307.6042404  +6.5391753     10099.21     18005.42     19197.23     84.77365     169.4127     338.6907      1.904     4.52     998.3502     59.70567     1157.173        45     1.799     1.152  47.50   0
       350    815.2919    388.5086 307.6074857  +6.5382531     1561.332       3008.1     3271.469      84.9081     169.9505      338.758      2.049     6.09     998.5037     59.70567     197.1932        21     1.773     0.835  52.01   0
       351    386.7654    385.5798 307.7856348  +6.5250588     767.6902     1527.097     1692.211       84.369     169.2106     338.5222      2.030     5.91     1004.145     59.70567     130.6525        10     1.461     1.046  74.31   0
       352      4.3967    384.3521 307.9445385  +6.5126608     630.2562     1008.734     1043.121     84.23369     169.0082     302.1272      1.793     5.35     1017.773     59.70567     78.24695         7     1.339     0.604  56.84  16
       353    998.5227    378.3506 307.5316930  +6.5485868     565.2246     842.3486     599.9755     84.77365       169.48     338.6907      1.391     3.30     992.5409     59.70567     116.4594         5     1.033     0.306  21.77   0
       354     36.8835    376.4414 307.9313100  +6.5170252     854.2389     2048.853     3334.162      84.9081     169.3453      338.657      3.396     7.09     1016.918     59.70567     102.4699        11     1.299     1.084 -25.77   0
       355    502.8910    373.7584 307.7377855  +6.5338489     1606.321     3220.043     3190.424      84.9081     169.4127     338.7917      2.117     6.69     1000.984     59.70567     182.1207        25     1.691     1.113  55.30   0
       356    530.7556    373.2465 307.7262253  +6.5349976     2234.887     4504.483     4908.231      84.9081     169.3453     338.6907      2.065     5.74     1000.913     59.70567     255.9323        31     1.790     1.189  41.01   0
       357    888.5900    369.8063 307.5776591  +6.5484324     26615.14     48384.95     52889.87       84.369     169.2106     338.5896      1.972     4.46     996.6422     59.70567     3189.949        73     1.918     1.315  51.28   0
       358    959.2036    372.8893 307.5482143  +6.5495252     747.9188     1240.482     719.4997       84.369     169.0757     338.3874      1.654     4.62     994.1576     59.70567     99.87341         6     0.942     0.644  22.61   0
       359    660.2941    362.0436 307.6727799  +6.5439774     1935.852     3755.424     4020.283      84.9081     169.4127      338.859      2.092     6.15     999.6955     59.70567     228.7523        25     1.790     1.002  48.87   0
       360     69.7520    362.7702 307.9181182  +6.5237804     689.5513     1087.678     965.3562      84.5041       169.48     338.6233      1.699     4.54     1015.849     59.70567     128.1923         7     1.179     0.497  39.14   0
       361    744.9926    355.7848 307.6377979  +6.5494056     59949.41     112923.7     124406.9      84.5041     169.1431     338.5559      2.005     4.66     997.8962     59.70567     6698.781       103     2.013     1.409  44.63   0
       362    903.2740    357.4994 307.5719717  +6.5540058     897.5755     1542.564     1483.852       84.369     169.5473      338.657      1.694     5.05     995.7805     59.70567     119.4045        10     1.245     0.579  56.55   0
       363    124.6819    355.4092 307.8955461  +6.5286752     1113.171     2077.596     3103.474      84.5041     169.0082     338.5559      2.720     6.64     1013.747     59.70567     122.6429        13     1.374     0.899  18.49   0
       364    607.6146    352.5911 307.6949875  +6.5461101     2087.902     3769.916     3969.094     84.63898     169.1431     338.5896      1.945     4.88     999.4988     59.70567     244.0833        26     1.599     1.052  47.16   0
       365    144.7755    351.3734 307.8873345  +6.5310200     4078.835     8738.681     9758.155       84.369     169.2106     338.5896      2.255     5.72     1012.693     59.70567     471.9235        43     1.920     1.319  49.79   0
       366    986.2014    352.6472 307.5376767  +6.5587869     823.7798     988.7156     1043.296     84.23369     169.0757     338.2525      1.335     4.62     991.8704     59.70567     123.8129         6     0.975     0.621  31.93   0
       367    590.9946    348.7354 307.7020233  +6.5471433     5069.529     10321.17     11385.98     84.23368     169.1431     338.4885      2.139     5.20     999.2666     59.70567     573.4445        41     1.799     1.298  52.14   0
       368    453.7706    343.9474 307.7592020  +6.5445040     17744.13      36454.9     40271.11     84.63898     169.5473     338.6233      2.160     5.05     999.9192     59.70567     1846.625        68     1.975     1.419  52.10   0
       369    319.7608    346.3364 307.8148017  +6.5390034     1924.266     3920.667     4182.762      84.9081     169.3453      338.758      2.159     5.89     1004.172     59.70567     202.9257        27     1.721     1.081  44.40   0
       370    561.3629    342.3649 307.7145505  +6.5487773     951.1021     1883.746     2361.187     84.63898     169.2106     338.4885      2.161     7.04     998.8602     59.70567     119.4115        16     1.454     0.969  58.05   0
       371    434.4225    342.3998 307.7672934  +6.5444916     813.7141     1703.426     2817.955      84.5041     169.0757     338.4885      3.464     6.32     1000.494     59.70567     89.76318        11     1.349     0.832  64.37   0
       372    532.7988    339.3112 307.7265221  +6.5490775     927.3583     1659.555     2067.297     84.09815     168.9407     338.4885      2.095     6.34     998.7033     59.70567      114.584        10     1.328     0.851  68.36   0
       373    848.5466    336.3915 307.5954224  +6.5608865     907.6809     1581.577     1731.289       84.369      169.278     338.4211      2.082     4.92     995.8439     59.70567     125.9553        10     1.272     0.752  22.92   0
       374    542.8362    334.2878 307.7225211  +6.5514891     6150.726     12368.19     13535.61      84.9081      169.278     338.7243      2.130     5.13     998.3996     59.70567     666.6965        47     1.872     1.315  53.85   0
       375    811.8521    332.9999 307.6107841  +6.5610564     2487.373      4577.96     5324.659     84.09815     168.8732     338.2188      1.997     5.24     996.4841     59.70567     315.3683        27     1.719     0.978  53.93   0
       376    967.7162    333.3632 307.5460060  +6.5661301     771.1788     1012.836     860.1223      84.9081     169.3453      338.657      1.636     4.78     991.8522     59.70567     121.6392         8     1.015     0.639  57.40   0
       377    205.4905    325.8883 307.8629721  +6.5435916     723.3076     1404.167     1243.729     84.77365     169.9505     338.8253      2.046     6.22     1008.564     59.70567     90.98669         9     1.514     0.718  64.88   0
       378    432.6675    318.4844 307.7688310  +6.5543065     5127.111     10405.64      11454.4     85.17638     169.6818      338.758      2.132     5.28     999.5739     59.70567     582.5557        50     1.896     1.389  53.89   0
       379    288.9733    319.4540 307.8285034  +6.5490643     1357.936     3008.275     3206.929      84.5041     169.5473     338.5896      2.223     7.31     1004.272     59.70567     180.5133        23     1.535     1.174  51.22   0
       380    785.9387    318.3276 307.6220459  +6.5662450      718.408     1248.991     1264.302     85.04234     169.4127     338.7917      1.728     6.07     996.3865     59.70567     99.89465        10     1.482     0.700  63.34   0
       381    800.5054    314.3651 307.6161265  +6.5683698     42612.34     76508.46     83516.47     85.04235      169.278     338.8253      1.964     4.56     996.1422     59.70567     4716.577        89     1.981     1.333  46.48   0
       382    472.4502    313.8227 307.7524585  +6.5575705     1587.061     3320.285     3882.237      84.5041       169.48     338.6233      2.172     6.56     997.8528     59.70567       160.31        26     1.638     1.168  40.95   0
       383    976.4144    310.6774 307.5431544  +6.5757880     2035.924     3585.139     3982.406      84.5041     169.0757     338.5559      1.824     4.59     990.5473     59.70567     256.4221        22     1.534     0.962  54.95   0
       384    618.8337    311.2898 307.6917192  +6.5635395     1070.989     1902.263     1884.509     85.04235      169.278     338.7243      1.835     7.09     997.0363     59.70567     117.6998        18     1.317     1.070  66.28   0
       385    458.7245    309.8512 307.7582958  +6.5587482     1355.265     3069.257     3242.266      84.9081       169.48     338.7243      2.242     6.72     998.1893     59.70567     134.4981        25     1.662     1.127  65.98   0
       386    509.5709    310.0753 307.7371609  +6.5603668     865.9797     1805.391     2073.688     84.77365       169.48     338.7243      2.253     7.03     997.1577     59.70567     119.8511        12     1.442     0.960  55.53   0
       387    879.8582    303.6669 307.5835130  +6.5754477     959.9084     1694.967     2229.007     85.04235     169.3453     338.7243      2.134     6.72     992.7606     59.70567     135.5781        15     1.474     0.860  52.36   0
       388    235.2493    300.6169 307.8514634  +6.5550294     1607.111     3093.213     3269.863       84.369       169.48     338.4548      2.035     6.28     1006.373     59.70567     181.7806        23     1.584     1.038  61.26   0
       389    798.9834    298.8637 307.6172810  +6.5747189     4695.121     8560.673     8993.666       84.369     169.3453     338.5559      1.925     4.61     995.6936     59.70567     599.8722        36     1.797     1.070  50.00   0
       390    489.5193    300.7159 307.7458088  +6.5635564     706.5631     1269.061     1480.922     84.77365     169.6818     338.7917      1.935     5.15     996.7751     59.70567     87.86462         6     1.175     0.637  42.02   0
       391    389.2846    299.9153 307.7874847  +6.5605121     554.6362     944.2177     810.4385     84.63898     169.5473     338.8253      1.808     3.44     1000.482     59.70567     91.61011         5     1.002     0.341  46.04   0
       392    815.6165    296.8198 307.6104382  +6.5761208     2155.174     3765.741     3935.434     84.63898     169.2106     338.6233      1.857     5.15     994.9148     59.70567      251.476        25     1.675     0.977  44.31   0
       393    405.0630    291.7134 307.7812060  +6.5644299     1284.715     3142.546     3296.481     85.04235     169.6146      338.758      2.401     8.19     999.6894     59.70567     145.5721        27     1.640     1.423  -2.45   0
       394    118.7579    292.1343 307.9001527  +6.5545989     998.4717     1727.821     2493.512      84.9081     169.3453     338.7917      2.269     6.94     1011.448     59.70567     111.0947        12     1.341     1.008  71.64   0
       395    532.4802    289.4945 307.7283367  +6.5696348     744.8865     924.0642     1494.658     84.63898     169.6818     338.7917      1.750     3.70     995.8688     59.70567     118.3047         6     1.052     0.373 -19.74   3
       396    531.1943    286.9073 307.7289584  +6.5706598     1288.213     2479.702     2808.596      84.5041     169.0757     338.5222      2.268     4.88     995.7662     59.70567     174.4368        16     1.249     0.963  -6.40   2
       397    294.2710    283.3060 307.8275258  +6.5641673     4008.629     8291.521     9681.661      84.9081       169.48     338.7243      2.226     5.58     1002.628     59.70567     485.0998        41     1.827     1.330  62.43   0
       398     24.6036    276.0886 307.9398174  +6.5580416     47235.55     95117.68     107064.7       84.369     169.0757     338.3874      2.156     5.11     1016.477     59.70567     5118.396       104     2.108     1.495  48.83   0
       399    428.7765    273.8988 307.7719549  +6.5725836     1179.105      2455.46     2421.957     85.04234     169.1431     338.5222      2.209     7.12     997.8917     59.70567     137.4419        21     1.607     1.011  23.78   0
       400   1015.3183    273.1777 307.5282486  +6.5925736     861.4071     1258.054     1451.403     84.63898     169.0757      338.657      1.721     5.19     987.6872     59.70567     114.2605        10     1.226     0.620  59.08   0
       401    198.0722    269.5620 307.8679626  +6.5665963     1239.283     2438.073     2718.567     84.77365     169.3453     338.7917      2.272     5.52     1007.531     59.70567     166.8054        20     1.399     1.103  66.96   0
       402    351.2822    269.2263 307.8043133  +6.5719022     750.4201     1558.248      1318.05     84.77365     169.1431     338.6907      2.150     5.89     1000.799     59.70567     77.53259         8     1.179     0.828   4.76   0
       403    608.2478    265.7797 307.6976536  +6.5819738     1564.543     2998.746     3417.326      84.5041     169.4127     338.5222      2.043     4.61      994.791     59.70567     189.8127        22     1.327     1.182  71.38   0
       404    951.6638    264.7516 307.5549837  +6.5939212     1426.626     2631.418     2568.286     84.77365      169.278     338.7917      1.838     5.59     989.0673     59.70567     203.9908        17     1.571     0.819  50.34   0
       405    771.3965    263.1600 307.6299471  +6.5885348     3799.296     7074.002     7479.268     84.09815     169.1431     338.4211      1.979     4.83       994.33     59.70567     418.2858        31     1.714     1.058  52.18   0
       406    712.2234    263.0139 307.6545410  +6.5866088     1474.341     2722.947     2887.761     84.63898     169.2106     338.6233      2.004     6.06     994.7294     59.70567     180.0005        19     1.452     0.946  48.87   0
       407    967.5616    255.2185 307.5486979  +6.5983897     869.7546     1513.787     1661.588      84.5041     169.2106     338.4885      2.024     5.97     988.0874     59.70567     130.3373         9     1.329     0.754  35.43   0
       408    271.0238    248.6021 307.8383602  +6.5777114     1653.452     3385.567     3467.492      84.5041     169.0757     338.5222      2.139     6.68     1003.644     59.70567     196.7192        26     1.583     1.209  47.20   0
       409    913.6728    247.5257 307.5713505  +6.5997607     1544.278     2462.745     2555.704     85.17638     169.6818     338.7917      1.728     4.91     989.6628     59.70567     191.5865        19     1.417     0.927  45.48   0
       410    804.0560    246.4218 307.6169394  +6.5965414     1304.327     2411.646     2829.586      84.5041     169.4127     338.5222      2.034     6.52     992.9637     59.70567     160.8053        15     1.463     0.816  43.27   0
       411    504.8145    238.2486 307.7415635  +6.5898622     15753.58     32793.36     36893.39     84.23369     169.3453     338.4211      2.177     5.12     993.2703     59.70567     1679.539        67     1.986     1.428  49.12   0
       412    830.8320    237.3719 307.6061173  +6.6011760     10351.78     19116.19     21212.39       84.369     169.1431     338.5222      2.009     4.62     991.6467     59.70567     1181.397        54     1.889     1.293  47.61   0
       413    510.6378    232.9391 307.7393231  +6.5922503     1027.159     2269.746     2992.116      84.9081       169.48     338.7243      2.720     7.81     992.9565     59.70567      137.572        18     1.570     1.086  57.86   0
       414    193.2446    231.5331 307.8712571  +6.5821341     1703.891     3185.672     3610.923      84.9081     169.3453      338.758      2.033     5.86     1007.408     59.70567     190.9084        22     1.606     0.980  62.49   0
       415    168.0064    230.5535 307.8817773  +6.5816865     782.8234     1426.634     1474.994       84.369     169.2106     338.3537      1.955     6.11     1008.787     59.70567     93.77441        11     1.144     0.916  29.66   0
       416    967.3791    227.8648 307.5496936  +6.6096775     1280.083     2128.326     2034.706      84.5041     169.4127     338.5896      1.867     4.66     986.8309     59.70567     174.9798        14     1.357     0.669  51.69   0
       417    628.9137    223.9690 307.6904769  +6.5999311     3374.496     6621.004     7458.859     85.04235     169.2106      338.657      2.037     5.10     993.0222     59.70567     377.7103        35     1.769     1.196  54.43   0
       418     31.1478    224.8857 307.9388360  +6.5794023     3689.542      7045.22     7503.129      84.9081     169.3453     338.8253      2.011     5.05     1016.093     59.70567     452.0367        38     1.827     1.182  56.13   0
       419    591.6286    223.8849 307.7059735  +6.5987125     1422.223     2945.501     3052.255     85.04234     169.0757     338.5896      2.135     7.09     992.8244     59.70567     182.6008        24     1.773     1.131  55.37   0
       420    433.5742    223.6104 307.7716613  +6.5935078     970.5081     1935.109     1912.872      84.5041     169.2106     338.5896      2.230     5.98     995.2449     59.70567     138.4554        13     1.523     0.660  72.99   0
       421    348.7431    224.3826 307.8068855  +6.5903312     772.3624     1436.213     1360.423       84.369     169.3453     338.4548      1.874     5.18     999.3845     59.70567     101.1698         8     0.948     0.800 -24.35   0
       422    935.9966    220.5616 307.5629806  +6.6116417     9315.526     16059.89     17256.96      83.9624     169.2106     338.4548      1.835     4.58     988.0433     59.70567     1162.193        42     1.767     1.063  52.38   0
       423    989.9471    221.1763 307.5405399  +6.6131948     2183.819     3747.579     3362.603       84.369     169.4127     338.5222      1.738     4.86     985.3338     59.70567     304.2856        20     1.606     0.799  40.77   0
       424   1022.4778    218.3312 307.5271168  +6.6154585       8722.2     13379.41     14094.64     85.04235     152.4729     274.9678      1.694     4.56     983.6082     59.70567     1265.188        30     1.647     0.898  58.52  24
       425     62.2056    217.2362 307.9261907  +6.5836104     17687.62     36270.83     41558.96      83.9624     169.1431     338.5222      2.169     5.21     1014.125     59.70567     1977.267        74     2.080     1.406  48.79   0
       426    733.9793    218.4359 307.6470031  +6.6057446      2247.17     4289.415     4966.344       84.369     169.2106     338.4548      2.115     5.53     992.8506     59.70567     247.7629        26     1.710     1.003  49.63   0
       427    363.1872    220.2383 307.8010237  +6.5925290      718.966     1407.683     1645.595      84.5041     169.2106     338.4211      2.097     2.39     998.6544     59.70567     117.4332         5     0.794     0.651  49.02   0
       428    308.1641    217.7939 307.8239704  +6.5916835     832.4686     1620.115      1657.87      83.9624     169.1431     338.4885      1.984     6.09     1001.745     59.70567     132.8895         9     1.331     0.784  41.90   0
       429    542.7372    213.3107 307.7266473  +6.6014342     1633.517      3209.58     3529.459      84.9081     169.5473     338.7917      2.076     5.29      992.228     59.70567     183.0335        23     1.452     1.135  43.61   0
       430    874.5115    210.1386 307.5888826  +6.6138848     1668.825     2884.208     3404.261      84.9081     169.5473     338.7917      1.981     5.54      989.394     59.70567     218.7789        22     1.658     0.963  43.59   0
       431    927.1339    209.0021 307.5670526  +6.6161175     1714.598     3046.041     3265.901     84.23369     169.0082     338.4885      1.897     4.86     987.7751     59.70567     207.8085        23     1.465     1.055  60.61   0
       432    554.5789    209.2143 307.7218648  +6.6035238     1779.669     3726.437     3623.662     84.63898     169.1431     338.6233      2.172     6.09     992.2925     59.70567     220.3217        29     1.726     1.155  53.21   0
       433    786.0806    206.5169 307.6257534  +6.6124143     31192.17     57048.41     62172.64     84.77365     169.6818     338.7917      1.971     4.67     991.4583     59.70567      3505.95        73     1.989     1.266  46.62   0
       434    389.2495    205.9727 307.7906764  +6.5992970     4249.826     10526.04     13280.61      84.5041       169.48      338.657      2.659     6.38     996.9727     59.70567     450.4353        60     2.352     1.495  77.61   0
       435   1019.9429    205.1704 307.5286126  +6.6208076     2440.063     4126.054     4672.788     84.63898       169.48     310.7266      1.788     4.46      983.183     59.70567     326.9409        21     1.540     0.835  48.22  16
       436    953.9669    203.5489 307.5560850  +6.6192680     6169.199     10359.75     11442.29     84.77365       169.48     338.6233      1.809     4.53     986.2528     59.70567      772.592        35     1.730     1.008  53.60   0
       437    497.5883    202.6982 307.7457673  +6.6042968     3480.327     7109.741     7579.007     84.63898     169.1431     338.4885      2.156     5.31     992.4213     59.70567     371.6766        39     1.918     1.215  54.03   0
       438    154.9934    194.0335 307.8884223  +6.5963247     3501.305     6984.126     7637.635     84.23369     169.2106     338.5222      2.107     5.20     1009.186     59.70567     404.0967        34     1.747     1.198  48.30   0
       439    974.6587    192.9585 307.5478422  +6.6243336     705.5114      1338.42      1823.45      84.9081     169.4127     338.7917      2.038     5.99     984.7305     59.70567     111.4959        10     1.087     0.928 -32.10   0
       440    325.2156    190.7161 307.8178013  +6.6034379     22854.18     48043.68     54627.42      84.5041     169.0757     338.6233      2.211     5.15     1000.898     59.70567      2334.24        81     2.068     1.493  50.86   0
       441    300.5356    191.7147 307.8280231  +6.6021935     4492.776     9039.919     10020.35     85.04235     169.6146      338.758      2.153     5.14     1002.429     59.70567     480.6525        41     1.892     1.241  54.67   0
       442    754.4020    189.5344 307.6394902  +6.6183629     699.0336     1215.102     1629.334     84.23369     169.0082     338.4885      2.019     4.56     991.6276     59.70567      99.9425         7     1.330     0.444  44.72   0
       443    449.2894    186.2219 307.7663948  +6.6094736     34586.11     70718.48     78933.07      84.9081     169.2106     338.5896      2.179     5.13     993.3469     59.70567     3536.118        90     2.092     1.474  45.19   0
       444    205.4523    187.6167 307.8676725  +6.6006776     2886.038     5925.909     7015.449       84.369       169.48     338.4548      2.277     5.42     1006.602     59.70567     325.5468        35     1.842     1.214  63.44   0
       445    466.9435    186.7254 307.7590416  +6.6098600     990.9429     1952.031     1637.535     84.77365      169.278      338.657      2.026     6.90     992.8052     59.70567     118.3014        14     1.224     1.092  70.38   0
       446    353.3030    183.9481 307.8063588  +6.6071790     12752.69      26256.6     30011.24     84.77365     169.4127       338.96      2.198     5.20     999.0855     59.70567     1294.603        63     1.997     1.402  50.37   2
       447    360.5466    183.6138 307.8033601  +6.6075611     1382.658     3172.638     4408.093     84.23369     169.3453     338.4548      2.655     7.46     998.4806     59.70567     169.6682        27     1.629     1.265  46.75   3
       448    788.5590    182.4453 307.6255344  +6.6224361     26500.29     47450.68     51470.57     84.77365     169.4127     338.5559      1.948     4.45     990.3383     59.70567     3070.825        74     1.939     1.273  51.42   0
       449    836.8928    183.0339 307.6054284  +6.6238145     936.1913     1798.831     2413.198     85.04235      169.278     338.7917      2.558     6.45     989.2834     59.70567     125.2382        14     1.472     0.792  59.18   0
       450    736.5914    184.6014 307.6470580  +6.6198018     804.0115     1388.401     1844.579     84.23369     169.0757     338.4885      1.946     5.09     991.9551     59.70567     97.59613         8     1.083     0.675  53.04   0
       451    105.5332    179.7310 307.9094595  +6.6005590     6555.857     13110.25      14563.1      84.9081       169.48     338.7243      2.117     5.23     1011.286     59.70567     708.6614        49     1.915     1.306  54.52   0
       452    139.7422    177.5849 307.8953174  +6.6026006     1059.045     2087.325     2125.272     84.23369     169.3453     338.4211      1.992     6.29     1009.737     59.70567     144.2684        16     1.604     0.914  48.27   0
       453    631.9440    160.9775 307.6913431  +6.6260406     790.0499       1350.3     1586.241      84.5041     169.4127     338.5222      1.881     6.62     992.2452     59.70567     140.4543        10     1.301     0.945 -76.14   0
       454    324.1205    156.9882 307.8193979  +6.6173261      20665.6      43638.2     48984.09      84.5041     169.0757     338.5559      2.211     5.29     1001.168     59.70567     2247.259        79     2.080     1.468  48.16   0
       455    639.5790    158.8308 307.6882427  +6.6271834     1469.429     2896.055     2979.621       84.369     169.2106     338.5896      2.092     5.79     992.2013     59.70567     210.5693        22     1.762     0.880  45.71   0
       456    383.3764    158.5638 307.7947205  +6.6186727     815.8203     1548.282     1188.969      84.5041     169.1431     338.4885      1.885     5.75     996.2733     59.70567     109.5079         8     1.069     0.872   6.20   0
       457     69.4827    155.5532 307.9252598  +6.6093226     3222.311     6516.651     7097.897      84.9081     169.4127     338.7243      2.145     5.23     1013.283     59.70567     367.4435        34     1.767     1.190  53.78   0
       458    755.6823    153.5479 307.6401710  +6.6332640     6280.937     11541.64     12761.13      84.9081     169.4127     338.7917      2.009     4.83     990.3331     59.70567     745.8582        44     1.979     1.133  49.15   0
       459    309.9429    152.7037 307.8254345  +6.6186170     659.7172     1499.446     2143.802     84.77365     169.4127       338.96      2.681     6.72     1002.269     59.70567     116.4956         8     1.785     0.709  89.26   0
       460    233.8675    154.9473 307.8569717  +6.6151245     649.0076     1069.271     973.9204     84.77365     169.3453     338.6233      1.502     3.87     1005.412     59.70567     86.56738         5     0.817     0.527 -31.49   0
       461    166.6958    150.7470 307.8850269  +6.6145912     3452.344     7085.373     8141.562     84.77365     169.4127     338.9937      2.204     5.18     1008.156     59.70567     385.7295        39     1.858     1.247  56.90   0
       462    628.3464    149.1596 307.6932369  +6.6307989     593.3644     1251.694     1155.688     84.77365     169.4127     338.6907      2.176     3.94     991.9294     59.70567     83.95709         6     1.410     0.315  74.95   0
       463    505.9961    148.3698 307.7441089  +6.6270104     897.3942     1766.158     1796.098       84.369      169.278     338.5559      2.222     5.77     991.9283     59.70567     111.2592        11     1.122     0.960  54.94   0
       464    437.1547    146.9162 307.7727662  +6.6252931     2799.307     5832.857     6400.077      84.9081     169.4127      338.758      2.165     5.25     992.7457     59.70567     319.4235        36     1.762     1.276  52.53   0
       465    155.9488    145.7025 307.8896638  +6.6163110     1253.107     2625.395     3082.053     84.77365     169.4127       338.96      2.296     6.85     1008.492     59.70567     152.1561        21     1.793     1.088  51.69   0
       466    693.4425    147.2717 307.6662482  +6.6337655     547.5978      931.809     896.2868     84.77365     169.4127      338.758      1.740     3.45     991.5464     59.70567     113.3346         5     0.814     0.423  68.01   0
       467    401.8578    145.7719 307.7874730  +6.6245767      2178.55     4590.962      4707.52      84.5041       169.48     338.6233      2.134     5.53      994.459     59.70567     221.9147        30     1.640     1.220  43.93   0
       468    253.6167    134.6250 307.8494533  +6.6241812     3745.708     7950.292     8918.457     84.63898      169.278      338.657      2.187     5.55     1005.195     59.70567     358.0752        44     1.905     1.322  54.17   0
       469    136.4747    134.5846 307.8981332  +6.6202433     1500.704     3239.084     3527.581       84.369     169.1431     338.5896      2.148     7.23     1008.956     59.70567     163.8615        21     1.380     1.203  68.27   0
       470    715.1887    133.2247 307.6576845  +6.6402955     4459.907     8434.609     9356.519      84.5041     169.2106     338.6233      2.028     5.00     990.5997     59.70567     521.6316        38     1.862     1.157  44.24   0
       471    863.5632    132.8927 307.5960329  +6.6454110     760.2894      1403.53      1177.02     85.04234      169.278     338.7917      2.030     5.71     985.9673     59.70567     111.4305        10     1.461     0.630  65.35   0
       472    667.5995    130.6575 307.6775484  +6.6397570     7060.111     13428.76     14935.68     84.09815     169.0757     338.3874      2.061     4.75     991.5234     59.70567     742.2972        50     1.879     1.314  51.74   3
       473    671.0356    122.1534 307.6764073  +6.6433836     39796.68     76175.26     84070.53      84.5041     169.4127     338.6233      2.038     4.80     991.3017     59.70567     4543.633        87     2.021     1.365  46.42   2
       474     66.7267    129.7970 307.9272790  +6.6198631     652.9166     1274.238     2017.369       84.369     168.9407     338.5559      2.271     3.75     1012.284     59.70567     91.76575         5     0.913     0.443  43.35   0
       475    394.5070    126.5408 307.7911782  +6.6322689      2463.48      5420.29     6738.487     84.77365     169.3453      338.859      2.406     6.47     995.0383     59.70567     248.2841        40     1.912     1.417  56.59   0
       476    576.4072    125.6227 307.7156162  +6.6387706     1234.487     2296.099     2344.728       84.369     169.2106     338.5222      1.985     5.99     991.3601     59.70567     140.3706        18     1.389     1.033  47.12   0
       477    350.3591    115.8911 307.8098850  +6.6351782      2385.36     5059.199     5785.293      84.9081     169.4127     338.7917      2.205     5.38     999.3165     59.70567     263.3907        35     1.788     1.241  54.55   0
       478     47.5766     99.0374 307.9362806  +6.6319149     745626.6      1924575      2234207      84.5041     169.1431     338.4885      2.502     7.93     1012.283     59.70567      61739.7       449     2.516     1.929  49.14   4
       479    750.3230    110.4584 307.6438505  +6.6508747     826.6418      1440.48     1375.651     85.04235     169.4127      338.657      1.851     4.79     988.6605     59.70567     96.55676         8     1.189     0.548  38.76   0
       480    721.9761    109.5774 307.6556610  +6.6502868     886.6973     1633.115     1942.995       84.369      169.278     338.6907      2.105     5.74     989.5322     59.70567     108.4462        11     1.403     0.662  72.24   0
       481    735.4897    106.3058 307.6501552  +6.6520913       2425.9     4576.463     5158.647      84.9081     169.9505     338.7917      1.981     5.03     988.9695     59.70567     262.3569        27     1.643     1.047  52.21   0
       482     12.7413     99.9618 307.9507250  +6.6303553     1118.018      2223.56     4079.011      84.9081       169.48      338.758      3.672     6.83     1014.816     59.70567     142.6925        15     1.364     0.959  74.25   0
       483    931.7499     93.3384 307.5690257  +6.6640276      1801.72     2899.541     2614.455      84.9081     169.3453     338.7917      1.754     4.98     981.5845     59.70567     237.6627        19     1.452     0.848  53.67   0
       484    477.2864     97.1830 307.7577697  +6.6471776     2799.352     5983.673      6657.66      84.5041     169.1431      338.657      2.195     5.26     991.8943     59.70567      334.103        37     1.779     1.272  57.41   0
       485    949.7342     92.3809 307.5615835  +6.6650254     3265.682      5522.18     5589.448      84.5041     169.4127     338.6233      1.767     4.63     981.2593     59.70567     439.8027        26     1.659     0.878  49.25   0
       486    642.0931     91.3331 307.6894754  +6.6551360     1258.113     2322.608     2178.132     84.77365     169.6146      338.758      1.887     6.79     990.3067     59.70567     158.6175        17     1.589     0.834  45.57   0
       487    440.9076     89.1268 307.7731605  +6.6492789     1476.294     2902.505     3091.538     84.77365     169.5473      338.758      2.136     5.86     992.4131     59.70567     158.1415        25     1.557     1.108  55.29   0
       488    288.1320     90.2077 307.8366141  +6.6436838     668.5376     1531.239     2357.507       84.369     169.1431     338.6233      2.553     5.04     1005.521     59.70567     120.7794         7     1.182     0.608 -81.98   0
       489    188.5543     85.8549 307.8781431  +6.6421205     2262.925      4528.16     4485.636      84.9081     169.4127     338.7243      2.055     6.28     1006.818     59.70567     237.2369        30     1.793     1.111  48.43   0
       490     70.3581     83.7491 307.9273325  +6.6389969     8952.113     18085.02     21050.08      84.9081     169.4127     338.7243      2.182     5.09     1010.062     59.70567     979.0267        54     2.032     1.287  55.81   0
       491    336.7672     84.1118 307.8166089  +6.6478405     991.0353     1922.746     2297.979     85.04234      169.278     338.7243      2.166     7.21     1000.807     59.70567     117.7251        16     1.511     0.963  27.48   0
       492    991.7558     82.5219 307.5444504  +6.6705034     568.5213     880.7466      1176.39     84.77365     169.4127     338.7243      1.646     4.95     979.9348     59.70567     96.38373         5     1.372     0.506  46.21   0
       493    872.0378     78.2865 307.5943493  +6.6682409     5199.148     9129.456     10013.71      84.9081     169.3453     338.7243      1.895     4.77     982.2681     59.70567     609.9503        35     1.818     0.971  52.73   0
       494    817.1365     78.5869 307.6171567  +6.6662757     2498.593     4551.772     5174.639       84.369     169.2106     338.5222      1.930     5.28     984.7268     59.70567     289.9138        26     1.746     0.927  52.68   0
       495    461.5270     79.2221 307.7649262  +6.6540625     768.7386     1399.386     1636.959      84.5041     169.2106      338.657      2.078     5.76     992.1105     59.70567     103.3079        10     1.271     0.736  71.20   0
       496    938.8873     78.7586 307.5665499  +6.6702864     616.8089      730.632     772.7589      84.9081     169.4127      338.758      1.668     5.35     980.9077     59.70567     117.7386         6     1.220     0.662  27.70   0
       497    110.8915     75.7849 307.9107586  +6.6436548     2313.395      4827.63     5165.154     84.63898     169.2106     338.5559      2.141     5.57      1007.97     59.70567          240        31     1.683     1.197  53.32   0
       498    579.8259     76.9754 307.7158380  +6.6589706     885.3627     1485.899     1547.776       84.369     169.2106     338.6233      1.970     5.14      990.032     59.70567     130.0983         9     1.248     0.855  -2.20   0
       499    635.0134     73.1006 307.6930329  +6.6624258     827.7187     1272.623     1006.013     84.63898     169.1431     338.4548      1.552     5.74     989.4391     59.70567     111.2108        11     1.389     0.667  69.44   0
       500    471.9442     74.5763 307.7607540  +6.6563313     690.2824     1325.467     1395.225      84.5041     169.4127     338.5222      2.442     6.01     991.9663     59.70567     95.75916         8     1.395     0.729  35.16   0
       501     53.3297     71.1632 307.9348359  +6.6436174     1898.439     4071.323     5170.814     84.77365       169.48     338.7917      2.571     5.54     1010.376     59.70567     234.6196        30     1.708     1.292  67.39   0
       502    125.9731     68.5666 307.9047360  +6.6471445     520.4988     839.5513     350.9272       84.369     169.1431     338.4885      1.626     4.26      1007.62     59.70567     85.12769         5     0.776     0.665  84.52   0
       503    811.7773     66.0808 307.6198053  +6.6712594     1567.874     2717.923     2789.263      84.5041     169.0757      338.657      1.776     4.97     984.2388     59.70567     213.0729        19     1.452     0.983  49.77   0
       504    138.4186     59.8359 307.8998601  +6.6511695     6731.678     13810.28     15193.58       84.369     169.2106     338.4885      2.158     5.33     1007.367     59.70567     706.0103        47     1.922     1.290  54.24   0
       505    467.8079     59.6144 307.7629787  +6.6623693     1766.758     3621.372     4083.097      84.5041     169.1431     338.5559      2.185     5.82      992.024     59.70567     189.7759        27     1.725     1.057  48.92   0
       506    681.1428     51.8185 307.6745793  +6.6727625     13871.86     26604.95     29569.68       84.369     169.3453     338.4885      2.049     4.84     987.8542     59.70567      1557.54        61     1.971     1.270  50.22   0
       507    305.5963     54.0153 307.8305818  +6.6592152     993.0574      2142.21     3328.086      84.5041     169.0082     338.5559      2.765     8.05     1004.314     59.70567     126.6838        19     1.812     1.000  77.68   1
       508    581.0323     47.9423 307.7163169  +6.6709981      3765.27     7224.884     7491.604     84.77365       169.48      338.657      2.016     4.97     988.9822     59.70567     433.8589        35     1.802     1.122  57.19   0
       509    299.4558     48.5210 307.8333198  +6.6612765     1474.498     2977.555     4875.865     85.04235     169.4127      338.758      4.038     7.14     1005.085     59.70567     184.0977        27     2.004     1.026  50.72   1
       510    964.3950     43.8350 307.5571233  +6.6855601     1903.644      3224.86     3943.235     84.09815     169.2106     338.4885      1.831     4.90     978.3673     59.70567     280.6761        19     1.535     0.956  66.80   0
       511    486.4762     43.5286 307.7557639  +6.6696391     16500.63     32526.55     35633.88     85.17638     169.6818     338.7243      2.116     5.11     991.6434     59.70567     1619.697        64     2.003     1.359  48.64   0
       512    762.2909   1020.1879 307.6082389  +6.2756634      2681.26     4474.302     4827.297     84.63898     169.1431     307.8127      1.787     4.98     1019.829     59.70567     408.0283        24     1.643     0.870  50.82  16
       513    667.5908     42.2916 307.6805331  +6.6762406     2578.855      5260.87     6939.485      84.5041     169.0757     338.4548      2.638     6.15     987.4372     59.70567     275.1183        36     2.037     1.155  64.46   0
       514    366.3669     44.0879 307.8056621  +6.6653626     691.3843     1276.469     1244.686     85.04234     169.3453     338.7243      1.858     5.86     998.3158     59.70567     89.30139         6     1.031     0.938 -71.73   0
       515     72.4710     43.5421 307.9278188  +6.6556679     1884.435     3609.479     3621.416     85.04235     169.4127     338.6907      2.072     6.23     1008.254     59.70567     193.8889        23     1.564     1.127  43.19   0
       516    295.2180     40.5879 307.8353496  +6.6644089     2207.649     4474.035     5441.829     84.63898     169.0757     338.6233      2.340     5.66     1005.599     59.70567     294.6547        32     1.839     1.146  48.40   0
       517    348.2062     38.8427 307.8133871  +6.6669161     760.2358     1351.735     1275.051       84.369     169.0757     338.4211      1.893     5.86       1000.3     59.70567     92.66296        10     1.141     0.847 -82.19   0
       518    736.1172     33.0903 307.6523627  +6.6823412     1369.985     2441.033     2481.175     84.63898     169.6818     338.8253      1.809     6.99     986.4987     59.70567     204.9703        19     1.812     0.757  53.10   0
       519    985.1765     33.6508 307.5488284  +6.6904610      899.084     1482.944     1447.375      84.5041     169.4127     338.6233      1.821     5.16     976.7462     59.70567     125.6601         8     1.246     0.604  52.40   0
       520     48.6277     46.1279 307.9376397  +6.6537943     814.8337     1718.805      1985.61     84.63898     169.3453     338.6233      2.093     6.07     1009.101     59.70567      128.841        10     1.496     0.693  42.06   0
       521    224.6727     26.0654 307.8651594  +6.6680244     7592.595     15337.19     16919.45      84.9081     169.4127     338.7243      2.133     5.05     1007.189     59.70567     775.4165        46     1.818     1.331  51.08   0
       522    246.8522     28.0055 307.8558761  +6.6679720     501.5641     919.5659     1502.157       84.369     169.1431     338.3537      2.138     3.77     1006.897     59.70567     94.50854         5     0.815     0.501 -31.94   0
       523    485.2354   1021.0963 307.7232652  +6.2659828     778.6055     1241.366     1215.938     85.04234     166.3551     295.8704      1.686     5.24     1026.168     59.70567      117.863         9     1.125     0.691  13.84  16
       524     38.8147     26.2872 307.9423912  +6.6616537     715.1832     1260.335     1534.508      84.5041     169.1431     338.5896      1.730     4.45     1008.096     59.70567     101.1057         7     1.114     0.506  67.54   0
       525    777.8444   1019.4740 307.6018036  +6.2764798     1057.656     1756.322      1722.04     84.77365       169.48     316.2936      1.647     5.23     1019.557     59.70567     149.9181        11     1.148     0.675  45.06  16
       526    507.0361     22.5879 307.7479268  +6.6789768     1256.205     2520.007     2303.733       84.369     169.2106     338.4211      2.054     5.91     990.5684     59.70567     142.7128        23     1.538     1.157  59.56   0
       527    771.2045     22.2241 307.6381460  +6.6880054      1771.45     3020.371     3252.005       84.369     169.1431     338.5559      1.790     4.86     984.0902     59.70567     252.5789        19     1.433     0.906  45.81   0
       528    409.1649   1017.7468 307.7549686  +6.2648064     1636.106      2723.33     2738.462     84.77365     169.4127     332.6072      1.723     4.78     1025.829     59.70567     202.4976        19     1.534     0.819  52.22  16
       529    747.5225   1014.2707 307.6145712  +6.2776111     565.8339     853.2835     1137.765     85.17638     169.6818     338.7243      1.403     4.57     1019.979     59.70567     95.98828         7     1.464     0.405  54.72  16
       530    591.2633   1007.8192 307.6796815  +6.2750288     3634.803     6114.301     6568.915      84.5041     169.4127     338.5559      1.819     4.58     1025.353     59.70567     468.7271        30     1.631     1.038  57.18   3
       531    588.5176   1000.0801 307.6810827  +6.2781319      7665.63     12533.97     13531.16      84.9081     169.6818     338.8253      1.772     4.33     1025.085     59.70567     1010.199        35     1.689     1.000  51.88   3
       532    795.8261   1007.1740 307.5947497  +6.2821613     7226.457     11914.02     12509.92       84.369     169.2106     338.5896      1.747     4.59     1019.146     59.70567     919.7941        33     1.634     0.952  53.16   0
       533    561.9879   1008.9766 307.6918002  +6.2735672     906.4678     1642.393     1002.415      84.5041     169.2106     338.6233      1.854     5.97     1025.735     59.70567     136.5177        11     1.262     0.892  71.70   0
       534    341.6240   1006.5471 307.7833948  +6.2671565     13125.98     22116.77     24962.13       84.369     169.4127     338.5222      1.866     4.57     1025.528     59.70567     1750.102        54     1.740     1.498  33.66   0
       535    857.4938   1007.1447 307.5691402  +6.2842406     968.3853     1280.932     1532.923     84.77365     169.4127     338.9264      1.381     4.16     1018.819     59.70567     164.1074         8     1.162     0.425  75.93   0
       536    465.9684   1007.3323 307.7317310  +6.2710177     919.2707     1646.954     1430.403     84.77365     169.4127     338.6907      1.956     5.31     1025.844     59.70567     141.0593        10     1.307     0.608  61.92   0
       537     37.9775   1007.5283 307.9094545  +6.2565097     668.4149     1106.491     960.7718      84.5041     169.2106     338.7243      1.686     3.62     1027.941     59.70567     117.7947         6     1.119     0.337  50.35   0
       538    957.1827   1000.7203 307.5279548  +6.2902322     8357.627     13885.88     14673.69      84.5041     169.0757     338.6233      1.761     4.45     1016.708     59.70567     1075.271        39     1.733     1.011  53.24   0
       539    313.0322   1004.2178 307.7953470  +6.2671551     922.4801     1803.769     2174.599      84.5041     169.2106     338.5896      1.959     5.80     1025.355     59.70567     130.8746        13     1.537     0.616  48.94   0
