#   1 NUMBER                 Running object number                                     
#   2 X_IMAGE                Object position along x                                    [pixel]
#   3 Y_IMAGE                Object position along y                                    [pixel]
#   4 ALPHA_J2000            Right ascension of barycenter (J2000)                      [deg]
#   5 DELTA_J2000            Declination of barycenter (J2000)                          [deg]
#   6 FLUX_APER              Flux vector within fixed circular aperture(s)              [count]
#   9 FLUXERR_APER           RMS error vector for aperture flux(es)                     [count]
#  12 FLUX_RADIUS            Fraction-of-light radii                                    [pixel]
#  13 FWHM_IMAGE             FWHM assuming a gaussian core                              [pixel]
#  14 BACKGROUND             Background at centroid position                            [count]
#  15 THRESHOLD              Detection threshold above background                       [count]
#  16 FLUX_MAX               Peak flux above background                                 [count]
#  17 ISOAREA_IMAGE          Isophotal area above Analysis threshold                    [pixel**2]
#  18 A_IMAGE                Profile RMS along major axis                               [pixel]
#  19 B_IMAGE                Profile RMS along minor axis                               [pixel]
#  20 THETA_IMAGE            Position angle (CCW/x)                                     [deg]
#  21 FLAGS                  Extraction flags                                          
         1    696.7483     22.2390 307.6451280  +6.6899910     6935.042     11056.73     11800.32     77.85355      155.831     311.5381      1.693     3.57     824.3063     54.91912     1057.581        37     1.493     1.150 -42.09   0
         2     18.1047     17.2776 307.9273027  +6.6692222      7818.07     13118.29     13620.55     77.85355     156.0167     311.6001      1.788     3.80     832.8083     54.91912     1062.306        42     1.605     1.172 -35.65   0
         3    417.2280     17.7015 307.7614377  +6.6824859       5881.3     9311.756     9633.649     78.22458     155.5831     311.5381      1.711     3.91     827.5476     54.91912      835.559        35     1.598     1.065 -31.08   0
         4    492.1880     15.0480 307.7303774  +6.6860993     852.6887     1263.524     1355.996     77.48075     155.7071     311.2592      1.621     4.57       823.67     54.91912      139.834         9     1.115     0.687 -83.31   0
         5    313.7725     12.6090 307.8046005  +6.6811105     11827.77     19633.83     21528.18     77.72948     155.6451     311.4452      1.820     3.72     833.0674     54.91912     1760.552        49     1.717     1.173 -30.30   0
         6     87.4494     13.0931 307.8986299  +6.6732888     2306.773      3959.04     4330.597     77.97742     155.7071      311.693      1.884     4.41     831.1945     54.91912     297.2553        26     1.760     0.939 -25.61   0
         7    408.3375     13.5522 307.7652722  +6.6839004     690.4985     1139.892     1284.705     77.97742     155.7071     311.6311      1.707     5.02     828.1722     54.91912      109.271         9     1.251     0.571 -32.56   0
         8     78.4483     11.9379 307.9024093  +6.6734622     1557.237     2420.674      2555.03     77.97742     155.7691     311.6311      1.592     3.94     831.3334     54.91912     232.9949        18     1.319     0.913 -37.23   0
         9    781.5718     11.7372 307.6102316  +6.6971679     770.4143     1173.428     991.1717     77.72948      155.831     311.5072      1.437     2.90      822.663     54.91912      127.554         6     0.682     0.648 -29.54   0
        10    379.7527     10.5872 307.7772508  +6.6841639     2173.029      3220.78     3441.152     77.48075     155.7071     311.3212      1.645     3.76     830.1247     54.91912     337.1473        19     1.334     0.849 -38.15   0
        11    974.8459      7.5744 307.5300516  +6.7053499     633.2346     704.5509     736.0945     77.72948     155.8929     307.7981      1.411     3.40     819.7037     54.91912     115.7446         5     1.122     0.299 -54.60  16
        12    640.7983      6.1181 307.6689219  +6.6947722     10087.89     16261.24     17732.75     77.48074     155.3969     296.4575      1.706     3.68     824.0471     54.91912     1502.749        46     1.635     1.164 -27.75  16
        13    805.1746      5.7822 307.6006233  +6.7004167     1541.918     2448.957     2611.221     77.72948     155.7071     293.4799      1.676     3.90     821.9611     54.91912     212.7183        18     1.178     1.062  -7.87  16
        14     58.6726      7.0340 307.9107929  +6.6748200     661.1899     796.6264     694.1603     77.97742     155.7691     304.3927      1.344     4.64      831.464     54.91912     93.94324         6     0.833     0.735  82.81  16
        15    518.4915      5.8000 307.7197588  +6.6908008     1181.387     2097.236     2362.171     77.35608     155.3347     293.5786      1.906     3.65     823.4534     54.91912     221.9854        11     1.212     0.620 -28.06  16
        16    240.9261      3.0676 307.8351940  +6.6825987     5977.371     10298.49      10911.9     78.22458     146.1798     260.8514      1.861     4.45     833.7064     54.91912      853.613        40     1.816     1.127 -27.27  24
        17    875.7619      3.6124 307.5713619  +6.7036740     1362.973     2032.474      1621.27     77.72948     150.9866     268.0414      1.597     4.17     821.9799     54.91912      212.072        14     1.249     0.779 -32.10  16
        18    632.0792      2.0481 307.6726824  +6.6961604     8258.641     11106.56     12006.47     75.58915     134.2006     245.8807      1.407     3.51      823.942     54.91912     1311.919        27     1.358     0.952 -14.81  24
        19    402.0032      2.0108 307.7682942  +6.6884529     7348.036      9918.66     10521.19     75.20512     133.3348     245.1731      1.402     3.50      828.583     54.91912     1074.332        26     1.410     0.925  -9.02  24
        20    662.1605      1.6526 307.6601949  +6.6973321     5769.611     7953.741     8963.418     71.92519     128.7687     239.6388      1.474     3.99      823.942     54.91912      1085.11        27     1.751     0.769  -4.32  24
        21    944.2637      1.8929 307.5429517  +6.7066740     520.3016     730.0597     1230.791     74.30134     132.0254     243.4745      1.699     4.91     821.1302     54.91912     82.31158         7     1.176     0.580 -35.82  24
        22    717.3151      1.4087 307.6372825  +6.6992809     1090.106     1202.596     1121.181     68.76962     124.8876     235.7406      1.046     2.43     823.6035     54.91912     269.4045         8     0.884     0.601   4.97  24
        23    100.5461    987.1429 307.8602195  +6.2715543     532.0722     1129.186     858.6609     78.22458      155.831     311.5691      2.157     6.98     853.8878     54.91912     79.46454         8     1.220     1.120  23.12   0
        24    351.1093   1023.3229 307.7549612  +6.2650438     1455.996     2023.107     2130.872     71.92519     129.0681     240.1216      1.480     3.97     856.2562     54.91912     245.9832        13     1.252     0.675 -12.47  24
        25    610.4111    987.1059 307.6485130  +6.2886983     827.2341     1137.214     1143.043     77.85355      155.521     311.3522      1.382     3.25     856.0649     54.91912     149.1093         7     0.941     0.587 -37.84   0
        26    750.8871    982.1144 307.5903495  +6.2954635     6177.084     10495.89      12440.5     77.85355     156.0167     311.6311      1.896     3.75     854.8568     54.91912     793.7321        41     1.656     1.213 -39.80   0
        27    802.4869    984.0062 307.5688594  +6.2964088     2063.417     3565.895     3936.796     77.60522      155.521     311.3212      1.885     4.29     853.0292     54.91912     266.9579        22     1.496     0.915 -39.33   0
        28    536.6992    981.5313 307.6793086  +6.2885290     768.4922      992.084      1030.26      78.1011     155.9548     311.5691      1.609     3.88     856.7866     54.91912     136.4188         6     1.022     0.423 -53.17   0
        29    220.0672    981.0461 307.8107989  +6.2780946     1352.224     2236.485     2217.359      78.1011     155.7691     311.6001      1.815     4.31     855.5381     54.91912     167.2899        17     1.256     0.965 -24.53   0
        30     45.1099    979.2015 307.8835056  +6.2729658     2494.573     4106.068      4115.17     77.35608     155.3969     311.3212      1.716     3.98     852.9238     54.91912     310.6996        23     1.435     0.965 -40.94   0
        31    938.9802    977.2075 307.5124088  +6.3037784     5900.762     10103.12     10833.21     77.72948     155.5831     311.3832      1.830     3.86     851.4048     54.91912     791.9198        39     1.605     1.230 -29.63   0
        32    620.4124    971.7705 307.6448762  +6.2953655     632.5989       1233.9     1181.564     77.60522     155.5831     311.4762      1.865     3.91     855.6622     54.91912      109.512         8     0.929     0.652 -70.55   0
        33    912.8304    968.7739 307.5235505  +6.3063871     1692.285     3139.835     3525.559     77.60522     155.6451     311.4142      2.088     7.29     851.7815     54.91912     217.3781        24     1.675     1.008 -35.17   0
        34    771.9456    965.4958 307.5821634  +6.3030302      1203.24     1734.659       1659.5     77.97742      155.831     311.7859      1.479     3.55     853.6636     54.91912      192.246        13     1.167     0.805 -55.17   0
        35    633.5474    964.6884 307.6396602  +6.2987299     4331.526     6653.137     7049.814      78.1011     155.7071      311.693      1.721     3.98     855.3804     54.91912     644.6221        29     1.528     0.999 -30.87   0
        36    245.6779    964.7982 307.8007137  +6.2856647     3850.367     6420.559     7573.474     77.48075     155.2726     311.3832      1.856     3.89     855.7668     54.91912     532.5516        30     1.514     1.129 -31.58   0
        37    981.9313    964.2347 307.4950081  +6.3105694      598.259     1152.897     1278.043     77.97742     155.8929      311.662      1.862     4.22     849.2785     54.91912      97.2215         5     1.315     0.386  -8.03   0
        38    455.7410    962.9161 307.7135525  +6.2934993      1066.18     1731.195     1597.655      78.1011     155.8929     311.6311      1.623     5.42     856.2907     54.91912     163.5898        13     1.295     0.918 -19.26   0
        39     14.1397    962.4558 307.8969315  +6.2788362     2146.071     3304.846     3265.692     78.22458      155.831     311.6001      1.652     3.60     852.2407     54.91912     295.7804        18     1.206     0.938  -8.43   0
        40    864.8417    961.8038 307.5437119  +6.3076614      750.327      1163.22      945.502     77.48074      155.521     311.3522      1.461     5.08     852.3506     54.91912     111.9973         9     1.123     0.651 -39.55   0
        41    989.4592    957.6940 307.4921013  +6.3135215     783.6487     1629.848     2556.641     77.97742      155.831      311.662      2.523     5.87     848.9305     54.91912     113.7579        11     1.298     0.748  70.90   0
        42    957.2825    958.5728 307.5054336  +6.3120842     625.7032     896.6025       627.78     77.97742     155.6451     311.5072      1.440     5.28     850.1624     54.91912     77.06897         8     1.432     0.550 -44.63   0
        43    937.3726    958.6091 307.5137002  +6.3114042     653.0917     944.4433     428.5326     77.72948     155.6451     311.4452      1.703     6.51     850.9253     54.91912     91.36401        11     1.452     0.819 -21.68   0
        44    558.0215    957.3416 307.6712692  +6.2992321      1719.22     2609.901     2274.418     77.72948     155.7071     311.3832      1.592     3.98     855.7733     54.91912     228.4454        18     1.368     0.874 -38.64   0
        45    281.9445    958.3944 307.7858710  +6.2895283     732.1334     1210.936     1636.349     77.60522     155.6451     311.2592      1.810     4.94     856.5596     54.91912     158.9634         8     1.553     0.444 -17.75   0
        46    597.3916    953.7822 307.6550407  +6.3020216      1136.69     1816.744     1299.731     77.85355     155.5831     311.4142      1.583     3.88     855.4379     54.91912     158.8067        13     1.112     0.846 -72.90   0
        47     46.6702    953.9005 307.8837139  +6.2834650      663.947     931.7866     794.9233     77.97742     155.9548     311.6001      1.399     3.46     852.6174     54.91912      112.663         5     0.988     0.350 -45.79   0
        48     41.3243    953.1150 307.8859602  +6.2836092     519.9522     881.0436     1303.836     78.22458     156.1404     311.6311      1.924     4.19      852.519     54.91912     75.27679         6     0.771     0.649 -34.03   0
        49    277.2706    951.3192 307.7880506  +6.2922925     1352.149     2267.812      2458.39     78.34787     156.1404     311.6001      1.851     5.55     856.2171     54.91912     175.0032        17     1.624     0.817 -29.26   0
        50    744.6011    947.4618 307.5941243  +6.3095616     818.1165     1574.239     1879.123     77.48075     155.6451     311.2592      1.948     6.85     853.7374     54.91912     123.3678        13     1.712     0.768 -41.52   0
        51    544.9109    949.3790 307.6769814  +6.3020802     575.8719     738.8252     660.4086     77.97742     155.6451     311.4452      1.624     4.46     855.5667     54.91912      92.9093         6     0.885     0.640 -36.62   0
        52    881.7912    944.0505 307.5372694  +6.3155585     6305.152     10817.69     11287.42     77.60522     155.7071     311.2592      1.819     3.90     851.8399     54.91912     892.7725        39     1.613     1.183 -39.62   0
        53    417.7464    941.0822 307.7300653  +6.3012391     1834.319     3075.413     3577.824      78.1011      155.831     311.6311      1.794     4.82     855.8184     54.91912     253.8398        24     1.618     1.037 -24.20   0
        54    319.3623    939.4313 307.7709740  +6.2986159     8862.186     14152.29     14767.45     77.72948     155.5831     311.4142      1.736     3.70     855.9843     54.91912     1293.397        42     1.658     1.117 -34.58   0
        55    239.4467    938.4128 307.8041922  +6.2963496     6582.014     10702.65     11717.77     77.48075     155.6451     311.3522      1.779     3.99     854.7734     54.91912     934.0152        39     1.633     1.108 -34.06   0
        56    567.5355    933.3411 307.6681266  +6.3094610     1077.218      1828.02     2378.023     78.22458     155.7691     311.6001      2.111     5.45     854.9561     54.91912      166.354        12     1.295     0.836 -52.32   0
        57    750.9138    932.8321 307.5919945  +6.3158136     757.8833     1269.126     1101.602      78.1011     155.6451     311.5381      1.837     4.54     853.1281     54.91912     103.6845         6     0.975     0.599 -27.38   0
        58    897.3660    929.1305 307.5313025  +6.3222397     1081.376     1518.388     1888.305     77.97742      155.831     311.6311      1.704     4.05     851.1754     54.91912     167.2843        16     1.197     0.928 -67.19   0
        59    853.6396    928.1431 307.5494937  +6.3211859     701.8594     1085.374     878.0823      78.1011     155.8929     311.6001      1.452     4.04     852.1904     54.91912     116.5606         7     1.051     0.508  22.26   0
        60    964.3432    925.4703 307.5036116  +6.3259885     717.6709     1119.075     1684.051     78.22458      155.831     311.5381      1.835     4.73     849.1219     54.91912     99.13452         7     1.045     0.608 -19.88   0
        61    826.8652    922.1032 307.5608151  +6.3227846     618.5829     858.4567     709.8152      78.1011     155.9548     311.6001      1.373     4.90     852.2053     54.91912     119.4265         8     1.242     0.548 -65.16   0
        62    733.7928    922.3925 307.5994552  +6.3195513     1522.363     2587.776     2844.535     77.48075     155.6451     311.4452      1.881     3.66     853.1012     54.91912      207.998        16     1.155     0.920 -19.68   0
        63    556.9415    922.7391 307.6728828  +6.3134835     761.2983      1125.66     701.7312      78.1011     155.7691     311.6001      1.733     4.20     854.7393     54.91912     124.3082         8     0.978     0.753   1.89   0
        64    965.2811    918.0352 307.5034715  +6.3290899     1185.182     2244.816     2655.156     77.97742     155.8929     311.5691      2.152     4.21     848.8428     54.91912     164.1099        15     1.114     0.966   1.60   0
        65    597.3842    919.0175 307.6562139  +6.3163759     726.4703     988.6066     1046.569     77.85355      155.521     311.5072      1.396     2.85      854.566     54.91912      136.694         5     0.757     0.572   2.52   0
        66    518.5818    918.2711 307.6889623  +6.3140419     1085.887     1693.584     2035.415     77.60522     155.7071     311.5072      1.857     4.62        854.8     54.91912     140.8549        13     1.195     0.784 -53.24   0
        67    652.1761    915.4796 307.6335800  +6.3196727     2505.831     4183.043      4237.52     77.72948     155.5831     311.5381      1.795     3.76     853.9233     54.91912     373.3772        25     1.442     1.047 -26.79   0
        68     48.9094    911.7169 307.8842117  +6.3009576     2730.254     4478.984     4587.883     77.85355     156.0786      311.662      1.720     3.82     851.7047     54.91912     375.8488        29     1.533     1.091 -45.09   0
        69    812.8341    912.4926 307.5669645  +6.3262836     736.7946     1109.772     1472.221     78.22458     155.7071     311.6311      1.723     5.58     852.1317     54.91912     103.0993        10     0.986     0.889 -40.23   0
        70     66.6259    910.9699 307.8768805  +6.3018630     1656.576     2865.066     2976.346     77.60522     155.6451     311.4142      1.760     4.00     852.0262     54.91912     266.1646        20     1.341     1.047 -50.53   0
        71    930.3075    910.6411 307.5182431  +6.3309749     653.8351     1024.774     749.4265     78.22458     155.7691      311.662      1.493     4.76     849.7388     54.91912     104.4424         8     1.238     0.520  68.86   0
        72    192.5168    910.4146 307.8246251  +6.3063312      2092.03     3237.881     3135.457     77.72948     155.5831     311.4142      1.707     4.47     853.9442     54.91912     295.5106        20     1.498     0.861 -40.05   0
        73    331.3817    906.9849 307.7670781  +6.3124169     805.9377     1335.708     1640.369     77.85355      155.521     311.4762      1.900     6.59     855.5894     54.91912     114.6191        12     1.340     0.909   7.51   0
        74    647.0063    904.6015 307.6360928  +6.3239912     6671.541     10839.21     11644.64     77.48074      155.521     311.3832      1.753     3.42      853.722     54.91912      1025.78        42     1.667     1.125 -36.55   0
        75    436.0504    902.2895 307.7237725  +6.3178712     557.7207     887.7261     1060.441      78.1011     155.6451      311.693      1.942     5.37     854.8352     54.91912     92.01208         6     1.080     0.756  78.58   0
        76      7.2460    902.6158 307.9018196  +6.3033112      1060.13     1752.928     1654.472     77.60522     155.7071     305.6899      1.790     5.42     850.4207     54.91912     194.8205        11     1.375     0.602 -35.84  16
        77    884.6569    900.8062 307.5375308  +6.3335104     2491.675     4209.731     4380.992     77.60522     155.7071     311.2902      1.735     4.57     850.7498     54.91912     303.0789        26     1.530     1.101 -22.90   0
        78     19.6780    901.1748 307.8967063  +6.3043252     1133.124     1664.911     1478.649     77.72948     155.7691     311.5381      1.616     4.11      850.626     54.91912     155.8456        13     1.164     0.776 -45.79   0
        79    330.0510    897.7264 307.7679431  +6.3161951      15188.8     24404.63     26904.69      78.1011     155.8929     311.6001      1.745     3.64     855.5235     54.91912     2210.559        54     1.726     1.158 -30.23   0
        80     64.5061    898.5667 307.8781804  +6.3069128     1419.289     1804.135     1671.318     78.22458     155.7071      311.662      1.457     3.81     851.6394     54.91912     209.2589        14     1.158     0.872 -41.81   0
        81    200.8805    897.0984 307.8216021  +6.3121107     1296.837     1937.432     1674.338     77.97742     156.2022     311.6311      1.535     4.18     853.9352     54.91912     196.2859        16     1.377     0.814 -35.18   0
        82     93.4990    888.4816 307.8664827  +6.3120536     1492.546     2279.458     2808.909      78.1011      156.264      311.662      1.773     4.63     852.1328     54.91912     236.6586        18     1.379     1.013 -25.54   0
        83    407.5834    888.7213 307.7360512  +6.3225178     926.3639     1504.947     1652.797     77.72948     155.5831     311.4452      1.770     4.58     854.7098     54.91912     160.1656        10     1.208     0.681 -28.82   0
        84    661.3317    885.2938 307.6307934  +6.3324434     824.6895     1650.559     2387.308     77.97742     155.9548     311.6001      2.628     7.32     853.0909     54.91912     113.0826        13     1.461     1.028 -52.10   0
        85    487.9648    885.5191 307.7027797  +6.3265382     669.1212     1046.103       1899.7     77.97742     155.8929     311.5691      1.751     4.83     854.4044     54.91912     99.02563         8     1.000     0.662 -81.05   0
        86    874.9995    882.6245 307.5421516  +6.3406951     1834.478     2838.008     2817.535     77.72948      155.521     311.3522      1.617     4.09     850.4901     54.91912     263.2272        18     1.316     0.902 -27.88   0
        87    845.7601    882.2462 307.5543068  +6.3398738     1914.995     3062.572     2795.476     77.97742      155.831     311.4142      1.657     3.50     851.0459     54.91912     244.5154        19     1.251     0.924 -43.42   0
        88    809.2321    881.4821 307.5695019  +6.3389678     2719.656     4443.235     4781.241     77.97742     155.7071     311.5072      1.772     3.97     851.6813     54.91912     402.1343        27     1.540     0.992 -36.82   0
        89     76.7396    881.7925 307.8736682  +6.3142508     2246.591     3665.625     4205.716     77.48075     155.6451     311.3522      1.838     4.13     851.5242     54.91912     345.8668        22     1.475     0.907 -29.23   0
        90    439.2401    879.6354 307.7232117  +6.3273323     616.4573      938.444     1427.697     77.85355      155.831     311.3832      1.479     3.78     854.3738     54.91912     107.9871         6     1.418     0.290 -65.46   0
        91    545.1926    872.9410 307.6794386  +6.3336514     308529.4     499658.8     538129.6     77.48074     155.7071     311.3212      1.741     3.73     854.1619     54.91912     44653.73       190     1.890     1.398 -34.14   0
        92    389.4543    875.4998 307.7440254  +6.3273682     7294.662     11674.49     12081.48     77.85355      155.831     311.8478      1.776     3.66     854.6959     54.91912     1104.358        41     1.651     1.140 -32.54   0
        93    632.5825    876.4986 307.6430281  +6.3351118     1285.875     1952.993     1889.782      78.1011     155.6451     311.3522      1.793     3.34     853.0742     54.91912     180.8659        14     0.979     0.935  60.00   0
        94    332.6442    873.9434 307.7676689  +6.3261022      11830.5     19112.04     20803.69      78.1011      155.831     311.5691      1.764     3.70     855.3192     54.91912     1868.013        49     1.708     1.132 -30.28   0
        95    650.9969    870.1828 307.6355936  +6.3383366     3199.157      5531.76     5280.167     77.72948     155.3969     311.4142      1.828     3.86     852.7918     54.91912     463.1834        30     1.617     1.028 -28.67   0
        96    883.4857    869.1135 307.5390809  +6.3465577     4835.197     8053.885     8637.586     77.85355     156.0167     311.6311      1.787     3.83     849.8864     54.91912     638.6224        37     1.629     1.138 -34.56   0
        97    722.9858    866.6066 307.6058183  +6.3422241     745.9409     993.2737     698.5266     77.72948     155.5831     311.4142      1.408     4.48     852.5564     54.91912     168.2888         8     1.103     0.621 -37.38   0
        98   1016.8929    863.4149 307.4838692  +6.3533667      4095.49     7190.291     7410.271     77.85355     155.6451     310.3587      1.881     3.97     844.3689     54.91912     512.9327        37     1.638     1.194 -33.53  16
        99    625.8281    864.2756 307.6462444  +6.3399325     3138.809     5193.514     6042.511     77.97742      155.831     311.5381      1.794     3.72     852.7827     54.91912     474.7962        26     1.455     1.013 -35.54   0
       100    735.4319    864.4410 307.6007224  +6.3435349     520.8599     816.7275     658.1755     77.72948     155.7071     311.4452      1.848     5.40     852.5171     54.91912     72.86871         5     1.048     0.785  82.67   0
       101    615.6234    863.2988 307.6505151  +6.3399939     968.2529     1304.639     1690.449     78.22458     155.5831     311.3832      1.674     4.76     852.8017     54.91912     161.0167        13     1.200     0.829  85.65   3
       102    618.5847    859.0292 307.6494290  +6.3418561     2153.068      3640.21     4259.001     77.72948     155.5831     311.5072      1.824     4.38     852.6411     54.91912     337.9877        28     1.659     1.041 -42.34   3
       103    814.1617    863.3516 307.5680637  +6.3466190     1456.155     2683.911     2919.111     77.97742     155.8929     311.4452      1.846     4.81      851.264     54.91912     248.2122        19     1.524     0.860 -31.38   0
       104    941.1467    862.3914 307.5153604  +6.3512600     838.1629     1450.981     1446.152     77.60522     155.7071     311.2902      1.969     6.12     848.1041     54.91912     120.8411        10     1.323     0.795 -23.51   0
       105    902.4127    857.1023 307.5316238  +6.3521498     2818.531     4651.722     4730.276     77.85355     155.5831     311.3522      1.784     4.08     849.2288     54.91912     367.1281        28     1.633     1.024 -29.75   0
       106    312.4100    857.9010 307.7766129  +6.3320461     888.0974     1277.127     1259.591     77.85355      155.459     311.3832      1.617     3.53     855.1515     54.91912     162.5865         8     0.902     0.637 -31.05   0
       107    360.2981    852.9846 307.7568925  +6.3356853     2599.605      4320.76     4757.901      78.1011     155.5831     311.3212      1.762     3.81     854.6039     54.91912     415.5606        27     1.574     1.035 -36.30   0
       108    496.6987    842.7493 307.7005940  +6.3444911      3021.05     4686.771     4734.165      78.1011      155.831     311.7549      1.687     3.57     853.0481     54.91912     404.6273        26     1.472     0.975 -36.36   0
       109    841.3367    841.9859 307.5574957  +6.3563499     948.5211     1518.087     1741.657     77.60522     155.6451     311.4142      1.773     3.65     850.1451     54.91912     188.3428         9     1.128     0.547 -24.76   0
       110    561.2898    840.5463 307.6738447  +6.3475672     758.6179     1143.949     1582.188      78.1011     155.6451      311.693      1.551     4.04     852.4906     54.91912     132.7747         8     1.018     0.729 -40.75   0
       111    543.6417    838.8367 307.6812312  +6.3476813     5727.069     9272.927     9860.212     77.85355      155.831     311.4452      1.746     3.81       852.56     54.91912     844.3108        35     1.681     1.088 -27.35   2
       112    551.4346    837.6204 307.6780359  +6.3484449     1590.228     2427.912     3044.076     77.60522     155.6451     311.3832      1.841     4.29     852.4332     54.91912     461.9264        16     1.606     0.779 -35.69   3
       113    461.1232    837.9830 307.7155284  +6.3452653     1421.288     2184.345     1775.425     77.60522     155.5831     311.4452      1.496     3.87     853.0921     54.91912     212.8672        14     1.154     0.869  -5.55   0
       114    254.4466    838.9879 307.8013217  +6.3379064     688.0137     872.4969     952.2635     77.48074     155.6451     311.2902      1.428     3.13     854.1202     54.91912     111.1865         6     0.782     0.497 -88.80   0
       115    878.9712    836.9291 307.5420360  +6.3596961     1226.786      2105.01     2214.216     77.85355      155.831     311.5381      1.880     4.69     849.3234     54.91912     200.3904        15     1.457     0.806 -54.85   0
       116    103.0595    836.6885 307.8642648  +6.3337606     1258.104     2005.162      1824.56     77.97742     155.8929      311.662      1.673     4.71     850.9559     54.91912     207.0201        13     1.291     0.720 -39.53   0
       117    514.3087    832.5989 307.6936229  +6.3492730     18723.76     29679.72     31702.67     77.35608      155.459     311.3522      1.732     3.62     852.4504     54.91912     2852.599        54     1.656     1.181 -32.78   0
       118    355.2438    834.2708 307.7596229  +6.3432425     777.2667     1265.831     1098.367     77.97742      155.831     311.6001      1.647     4.62     854.0074     54.91912     103.4437         8     1.024     0.592 -24.62   0
       119    927.9053    830.9748 307.5219135  +6.3637900     3452.457      5725.58     6291.076     78.22458     155.5831     311.4452      1.844     4.02     848.5231     54.91912     439.0146        29     1.541     1.078 -33.77   0
       120     47.7375    828.2552 307.8875230  +6.3353787     790.5626     987.9897     1322.197     78.22458     155.7691     311.5691      1.495     5.85     849.6473     54.91912     93.48431        10     1.399     0.688 -55.29   0
       121     24.7067    823.1171 307.8972606  +6.3367240     1471.416     2472.957     2457.777     77.85355     156.1404      311.693      1.822     5.12     849.2815     54.91912      233.883        19     1.438     0.909 -28.69   0
       122    306.8369    821.3234 307.7801620  +6.3469616     2935.199       4766.2     5035.873     77.97742     155.8929     311.6001      1.740     3.83     854.0342     54.91912     456.2832        25     1.558     0.887 -30.51   0
       123    772.4634    817.2171 307.5869307  +6.3642735     51271.48      82056.7     88010.84     77.60522     155.7691     311.4142      1.754     3.73     850.9702     54.91912     7311.081        88     1.782     1.285 -33.98   0
       124      6.7063    819.4389 307.9048599  +6.3376359     1984.241     3085.641     3612.902     78.22458     155.7691     301.8774      1.803     3.56     849.0894     54.91912     285.7103        20     1.267     0.989 -24.53  16
       125    229.7235    814.8239 307.8124048  +6.3470521     4649.071     8373.418     10846.37     77.72948     155.7071     311.5381      2.252     3.95     853.2017     54.91912     716.5908        47     1.778     1.407 -54.47   0
       126    415.8617    815.9910 307.7350662  +6.3528264     729.8589      891.173     1038.628     77.48075     155.7071     311.3522      1.261     4.20     852.9767     54.91912     133.7661         7     0.904     0.557 -47.58   0
       127    700.6335    811.8687 307.6169415  +6.3640776     19940.42     32214.49     35339.61     77.97742      155.831     311.6001      1.755     3.73     851.7629     54.91912     3063.556        55     1.741     1.155 -29.96   3
       128    694.4006    808.2994 307.6196501  +6.3653427     82198.62       131129       140962     77.60522      155.459     311.2592      1.743     3.70     851.7057     54.91912     12048.16        92     1.772     1.278 -32.88   3
       129    897.6788    812.4854 307.5350872  +6.3704146     7980.745     13037.33     14614.32      78.1011     156.1404      311.662      1.812     3.83     848.6717     54.91912     1174.304        39     1.639     1.114 -31.48   0
       130    339.2694    809.0862 307.7671066  +6.3531044     19433.08     31027.76     33472.37     78.22458     156.0786     311.6001      1.713     3.67     853.2985     54.91912     2775.005        60     1.709     1.206 -31.11   0
       131    401.2002    806.9738 307.7414590  +6.3560572     20406.44     33071.43     35578.38     77.60522      155.521     311.3832      1.738     3.76     852.8438     54.91912     2950.155        61     1.746     1.213 -32.80   0
       132    388.3985    809.4067 307.7466933  +6.3546227     1425.618     2058.185         1680     77.48075      155.521     311.3832      1.554     3.67     852.9614     54.91912        230.1        13     1.183     0.758 -34.64   0
       133    627.3310    808.3408 307.6475026  +6.3630789     797.6066     1175.559     1787.696     78.22458     155.7691     311.5691      1.745     5.01     850.9291     54.91912      120.653        12     1.204     0.804 -12.81   0
       134    229.5004    793.3608 307.8132226  +6.3559067     770871.3      1932565      2201644      78.1011     155.7071     311.7859      2.458     6.93     852.5268     54.91912     63541.13       633     2.590     2.125 -40.40   4
       135    894.5595    803.9009 307.5366708  +6.3738550     6313.509     10008.13     11208.74      78.1011     155.7071     311.7859      1.727     3.69     848.5782     54.91912     984.3481        31     1.527     1.027 -33.37   0
       136    867.0127    804.9615 307.5480756  +6.3724963     775.4906     1212.987     846.9023     77.72948     155.6451     311.2902      1.591     3.61     848.7906     54.91912     109.4493         7     0.882     0.529 -43.06   0
       137    635.1147    802.9689 307.6444508  +6.3655578     6117.091     9707.941     10598.23      78.1011     155.6451     311.4452      1.686     3.52     850.9156     54.91912     919.0926        38     1.626     1.088 -40.37   0
       138    125.1522    802.8076 307.8562365  +6.3484939     439.7336     757.1787       1120.5     77.60522     155.6451     311.1972      2.130     4.36     850.2748     54.91912     75.84851         5     0.864     0.627 -37.74   0
       139    423.8625    800.7455 307.7322577  +6.3593899     1506.218     2392.824     2483.941     78.22458     155.7691     311.5381      1.671     4.41      852.495     54.91912     259.7114        17     1.431     0.832 -35.20   0
       140   1017.8268    795.7571 307.4857494  +6.3813348     856.8015     1406.568     1725.393     77.72948      155.831      305.216      1.784     5.10     844.1252     54.91912     123.2008        12     1.184     0.825 -72.51  16
       141    938.0983    806.1432 307.5185134  +6.3743839     1862.589     2957.748     3101.926     77.85355      155.831     311.7549      1.667     3.87     847.9225     54.91912      271.368        21     1.299     0.993 -29.19   0
       142    588.0447    795.2576 307.6642586  +6.3671643     940.8464     1363.077     1600.225     77.97742      155.831     311.6311      1.494     3.61     850.2306     54.91912     138.2001         9     0.957     0.786 -46.87   0
       143    139.0206    794.2200 307.8507678  +6.3525066     969.2203     1396.443     1693.801     77.85355     155.7691     311.5072      1.535     4.20     850.4196     54.91912      176.109        10     1.098     0.739  87.02   0
       144    862.6521    794.8273 307.5502269  +6.3765350     564.9908     1126.642     1399.729     77.72948     155.9548     311.5072      1.987     5.78     848.7076     54.91912     88.95709         9     1.483     0.635 -33.34   0
       145    670.1594    793.1584 307.6302268  +6.3707827     2336.107     3737.702     4103.489     77.85355      155.831     311.4452      1.659     3.90     851.1959     54.91912     363.6832        22     1.494     0.921 -35.66   0
       146    114.0880    793.8775 307.8611332  +6.3518084     943.6003     1607.699     1724.624      78.1011     156.1404      311.662      1.795     3.90     849.8053     54.91912     143.1253        11     1.021     0.849 -18.43   0
       147    404.0923    789.6638 307.7408418  +6.3633017     50296.34     80136.96     86322.74      78.1011     156.0167     311.6311      1.743     3.46     852.1823     54.91912     7321.572        84     1.788     1.267 -30.35   0
       148    946.0980    791.8076 307.5156720  +6.3805705     625.2612     863.2902     846.6873     77.85355      155.459     311.3832      1.395     3.68     847.2607     54.91912     102.1937         5     0.787     0.515  54.32   0
       149    521.8300    788.6646 307.6919795  +6.3676661      6651.66     10757.32     11375.92     77.85355     155.9548     311.5072      1.711     3.70     850.5048     54.91912     1064.629        38     1.633     1.067 -29.14   0
       150    438.7700    787.2449 307.7265220  +6.3654649     4152.543     6977.974     8065.591     77.72948      155.831     311.4452      1.892     4.01     851.6679     54.91912     637.6069        37     1.650     1.145 -30.48   0
       151    767.0425    785.3480 307.5902531  +6.3772513     10728.04     17306.02      18398.3      78.1011     155.8929     311.6001      1.751     3.76     850.1617     54.91912     1580.742        48     1.675     1.167 -29.43   0
       152    434.9482    780.7291 307.7283288  +6.3680270      2180.35     3351.764     4085.339     77.97742      155.831     311.6001      1.632     3.57     851.4965     54.91912     347.3088        22     1.393     0.921 -32.45   0
       153    788.4610    779.9548 307.5815390  +6.3801948     1310.722     1936.344      1931.86     77.97742     155.7691      311.662      1.645     3.76     849.5714     54.91912     220.9065        13     1.111     0.825 -21.66   0
       154    132.8712    777.6474 307.8538819  +6.3591423      2868.47     4688.472     5331.051      78.1011      155.831     311.5691      1.710     3.74     849.9288     54.91912     395.3464        25     1.470     0.995 -31.14   3
       155    124.8689    777.2214 307.8572195  +6.3590487     10524.06     17537.48     20093.44     77.72948     155.7691     311.5072      1.817     3.77     849.7662     54.91912     1499.687        51     1.736     1.191 -27.30   3
       156    116.8959    774.5172 307.8606220  +6.3598967     2660.625     4535.318     5319.752     77.97742     156.2022      311.662      2.005     3.75     849.5952     54.91912     401.8071        24     1.428     1.052 -25.25   3
       157    116.8666    768.5072 307.8608375  +6.3623773     1788.202     3136.521     3990.234     77.97742     156.0167     311.5691      1.904     4.21     849.5056     54.91912     244.9702        23     1.373     1.101 -42.71   3
       158    912.5599    774.0247 307.5301977  +6.3867928     5978.275     9736.246     10598.14     77.72948     155.6451     311.3522      1.753     3.60      847.598     54.91912     896.2734        38     1.567     1.149 -28.92   0
       159    961.4231    774.1521 307.5098995  +6.3883726      1347.73     1987.464     2441.783     77.72948      155.831     311.4452      1.695     5.50     846.3237     54.91912     173.7069        15     1.238     0.920 -21.73   0
       160    667.9501    771.4927 307.6318732  +6.3796546     1689.226     2575.634     2329.459     77.97742     155.6451      311.724      1.580     4.62      850.211     54.91912     212.3653        16     1.412     0.744 -32.07   0
       161    554.7678    770.9235 307.6788980  +6.3760963     2266.869     3608.856     3826.735     77.97742      155.831     311.5072      1.647     3.78     849.9233     54.91912     349.6467        22     1.312     0.976 -34.41   0
       162    402.1892    770.5950 307.7422753  +6.3711114     1073.166     1726.663     1945.068     77.72948     155.5831     311.4762      1.826     5.04     851.3273     54.91912     159.9082        13     1.264     0.870 -52.34   0
       163    686.1866    768.9420 307.6243852  +6.3813187     488.2825     555.7542     411.5241     77.48074     155.7691     311.2902      1.297     3.75      850.132     54.91912     97.32825         5     0.829     0.488 -32.32   0
       164    936.1618    765.4153 307.5206842  +6.3911363      2849.18     4789.691     4754.216     77.85355     155.6451     311.3212      1.847     4.11     846.7648     54.91912     399.3342        28     1.628     1.026 -24.40   0
       165    906.5142    766.0607 307.5329759  +6.3898793      2743.24     4392.854      4641.02     78.22458     155.9548      311.662      1.716     4.19     847.4967     54.91912     413.8346        24     1.461     0.958 -26.82   0
       166    966.9065    765.3549 307.5079172  +6.3921882      1673.55     2503.227     2976.211     77.97742     155.7691      311.693      1.651     3.60     846.0302     54.91912     225.3201        15     1.166     0.816 -32.61   0
       167    658.9909    765.1616 307.6358071  +6.3819687     1379.739     2087.809     1829.105     77.35608     155.6451     311.2902      1.558     4.07     849.8925     54.91912     220.6181        16     1.296     0.875 -53.92   0
       168    806.2311    763.6024 307.5747082  +6.3875415     994.9404     1290.061     1328.868     77.48075     155.6451     311.3522      1.373     3.24     848.9163     54.91912     150.2399        10     0.859     0.821  19.49   0
       169    880.9445    760.9125 307.5437684  +6.3911504     767.5007     1285.312     1371.227      78.1011     155.7071      311.724      1.999     5.08     848.0487     54.91912     103.3404        10     1.093     0.667 -10.51   0
       170    231.6009    760.1374 307.8134729  +6.3696952     1672.428     2925.825     4161.139     77.35608     155.6451     311.2592      1.879     5.46     850.9293     54.91912      225.017        18     1.683     0.822 -20.30   0
       171    924.2530    755.7042 307.5259561  +6.3947483     1083.192     1713.202      1772.36     77.97742      155.831     311.8168      1.657     4.46     846.7264     54.91912     155.6771        13     1.252     0.753 -52.65   0
       172    251.2559    756.1890 307.8054437  +6.3719867     602.9785     987.1288     923.6235     77.48075     155.7691     311.2592      1.718     3.29     850.8014     54.91912     114.9607         7     0.876     0.570 -32.00   0
       173    951.2487    753.2257 307.5148272  +6.3966736     2282.291     3833.104     4258.104     77.72948     155.8929     311.4762      1.770     4.78     846.1249     54.91912     346.5082        25     1.648     0.916 -36.63   0
       174    897.8641    754.3486 307.5369616  +6.3944263     926.7895     1438.947     1406.471      78.1011     155.7691     311.5691      1.628     5.83     847.4371     54.91912     147.1569        13     1.255     0.980  -6.77   0
       175    146.6701    755.2706 307.8489083  +6.3688462     563.7384     744.1169     921.0473      78.1011     155.9548     311.5381      1.358     3.79     849.5568     54.91912     101.9993         5     0.886     0.465 -43.81   0
       176    669.6942    752.4758 307.6317886  +6.3875653     885.8411     1435.164     1821.353     77.85355     156.0167     311.5691      1.941     4.04     849.3931     54.91912     159.1215        11     1.056     0.821 -59.64   0
       177   1023.5966    747.7158 307.4849637  +6.4013645     3643.908     4601.532     4431.598     68.62914     124.8103     235.4539      1.149     2.64     845.1316     54.91912     914.2032        17     1.422     0.579 -85.24  24
       178    992.8387    746.5563 307.4977773  +6.4008164     1492.017     2587.855     2457.253     77.85355     155.7691     311.4142      1.776     4.36     845.5084     54.91912     251.7816        21     1.562     0.860 -54.93   0
       179    793.7922    745.2416 307.5804912  +6.3947067     1143.557     1698.318     1492.573     77.48075     155.6451     311.2902      1.643     3.73     848.5462     54.91912     161.1574        13     1.120     0.853 -10.84   0
       180    880.3939    742.4914 307.5446155  +6.3987384     1319.664      2092.66     2153.489     77.72948      155.521     311.3522      1.539     3.78     847.8151     54.91912     193.5178        13     1.302     0.662 -27.49   0
       181    855.0400    737.7874 307.5553037  +6.3998331     875.3766      1428.78     1539.014     77.60522     155.6451     311.3522      1.771     3.72     848.3383     54.91912     152.1646        10     1.108     0.699 -41.01   0
       182    836.8471    733.9096 307.5629900  +6.4008260     1520.478     2388.389     2782.345      78.1011     155.7071      311.693      1.724     4.08     848.2133     54.91912     216.0593        16     1.399     0.744 -32.66   0
       183     36.5587    732.6125 307.8954028  +6.3744921     2244.951     3528.114     3962.213     77.48075     155.6451     311.2902      1.729     3.53     848.9437     54.91912     362.5359        21     1.413     0.929 -34.35   0
       184     99.9455    731.1875 307.8691271  +6.3772164     799.9865     1645.953     1937.898     77.48074     155.7691     311.2902      2.344     7.06     848.8676     54.91912      119.598        13     1.624     0.861  47.19   0
       185    649.1417    721.2681 307.6413746  +6.3997628     5947.102     9099.063     9896.301     78.22458     155.7691     311.5691      1.675     3.63     848.1793     54.91912     821.9059        33     1.499     1.033 -36.63   0
       186    595.8217    720.6443 307.6635408  +6.3982334     1320.463     2204.795     2231.483     77.60522     155.7071     311.3832      1.768     3.89     848.4865     54.91912     199.3522        15     1.324     0.721 -41.55   0
       187    517.3250    720.3923 307.6961508  +6.3957051     687.4906     1167.917      718.471     77.72948     155.3347     311.4142      1.801     5.69     849.1863     54.91912     96.62665         7     1.012     0.901   5.61   0
       188    506.7196    720.8937 307.7005386  +6.3951422     736.6749     984.9489      638.775     77.85355     156.0786     311.6311      1.402     3.50     849.3111     54.91912     131.1775         7     0.857     0.710 -46.10   0
       189    112.1482    717.0991 307.8645361  +6.3834444     3513.777     5893.673     6192.945      78.1011      155.831     311.7859      1.783     4.20     848.5588     54.91912     433.3507        30     1.620     1.039 -31.10   0
       190    986.0027    716.6015 307.5016211  +6.4129570     2375.012     3843.267     4295.471     77.48074     155.3969     311.3212      1.715     3.89     845.0864     54.91912      334.916        25     1.458     0.984 -39.09   0
       191    622.7823    716.9326 307.6524683  +6.4006696     1928.602     3065.064     3506.866     77.60522     155.7691     311.4762      1.698     3.51     848.1531     54.91912     310.4147        20     1.486     0.908 -31.90   0
       192    233.7292    717.0629 307.8140445  +6.3875522     713.4724     1248.714     1339.902      78.1011      155.831     311.6001      1.909     5.17     849.3132     54.91912     100.5964         9     1.188     0.636 -46.84   0
       193    766.0363    713.3816 307.5930899  +6.4069334     18872.36     30288.74     32569.87     77.60522     155.6451     311.3522      1.722     3.73     847.5513     54.91912     2792.137        56     1.686     1.168 -29.26   0
       194    896.0731    713.0709 307.5390911  +6.4114106     3437.007     5541.392     6162.539     78.34786     155.9548     311.5691      1.730     3.91     846.6093     54.91912     475.7503        26     1.554     0.982 -33.01   0
       195    465.0518    713.5467 307.7180917  +6.3967775     1354.952     2076.806     1717.338     78.22458     155.7071     311.6001      1.709     3.84     849.4468     54.91912     216.6511        14     1.241     0.739 -31.72   0
       196    310.4945    713.4556 307.7822850  +6.3916233      623.916     995.2733      862.663     77.97742      155.831     311.7859      1.630     4.16     849.2999     54.91912     120.6194         5     1.125     0.439 -33.21   0
       197    493.3427    713.3121 307.7063498  +6.3978238     733.3433     1017.796     774.5415      78.1011     155.7071      311.693      1.345     3.68     849.3033     54.91912     110.9396         8     0.960     0.598 -20.33   0
       198    267.3944    712.9412 307.8002023  +6.3903864     544.0607     720.1006     335.8059     77.60522     155.7071     311.3522      1.388     4.31     849.2453     54.91912     100.5891         6     1.034     0.631 -31.46   0
       199    646.5638    706.0993 307.6429558  +6.4059397     6697.222     10603.14     11249.52      78.1011     155.7071     311.7549      1.713     3.61     847.5986     54.91912     952.9188        40     1.617     1.132 -36.10   0
       200    628.8183    707.6638 307.6502734  +6.4046991      764.453     1384.347     1891.273     77.72948      155.831     311.4142      1.736     2.53     847.7797     54.91912     169.4719         7     0.850     0.566  79.92   0
       201    239.6011    706.8300 307.8119516  +6.3919749     5580.995     8951.559     9209.729     77.48075     155.6451     311.3832      1.715     3.65     849.0759     54.91912     914.4868        36     1.627     1.058 -31.20   0
       202    341.4632    706.2885 307.7696652  +6.3956235     700.3391     931.2916     884.5922     77.97742     156.0167     311.6001      1.709     3.29       849.22     54.91912     128.1671         7     1.017     0.677  53.28   0
       203    906.4751    698.8244 307.5352489  +6.4176408     1107.706     1860.863     1358.341     77.72948     155.6451     311.5072      1.691     4.39     846.1329     54.91912     195.8532        14     1.303     0.782 -38.67   0
       204    718.3626    694.6107 307.6135216  +6.4130883     3526.501     5742.716     5951.563     77.60522     155.6451     311.2592      1.766     3.86     847.0853     54.91912     527.3533        28     1.526     1.026 -44.28   0
       205    984.6152    691.2218 307.5030487  +6.4233903     8009.582     13189.06     13996.13     77.85355     155.6451     311.5072      1.770     3.67     844.4521     54.91912     1171.199        42     1.636     1.147 -31.39   0
       206    922.9926    691.6379 307.5286297  +6.4211602      2207.57     3424.962     3410.861     77.35608     155.5831     311.3212      1.630     3.66     845.7899     54.91912     347.2905        22     1.383     0.981 -42.47   0
       207    673.5474    695.1482 307.6321171  +6.4113655     954.2329      1548.42     1323.534     78.22458     155.7071     311.6001      1.606     4.54     846.9968     54.91912     158.1954        10     1.306     0.666 -44.80   0
       208      3.5578    690.9547 307.9105184  +6.3905796     1803.379     3179.771      3541.65     77.97742     150.4744     267.4285      1.930     4.52     848.5632     54.91912     223.5755        21     1.373     1.040  -1.58  24
       209    419.6226    689.5446 307.7377689  +6.4051628     656.1356     897.7736     756.3719     77.72948      155.831     311.3832      1.628     4.70      848.963     54.91912     88.72687         7     0.916     0.685  13.22   0
       210    536.7106    689.2534 307.6891486  +6.4092128     559.9492     923.0504     1665.664      78.1011     155.6451      311.693      1.470     3.84      847.915     54.91912      81.0271         5     0.920     0.460 -44.25   0
       211     61.9920    685.9178 307.8864212  +6.3946291     23433.12     38506.47     41800.38     77.72948      155.459     311.4452      1.760     3.65     848.0934     54.91912     3345.164        65     1.756     1.223 -29.15   0
       212    523.0460    686.9952 307.6949001  +6.4096869     1947.087     3159.189     3928.702     77.48075      155.521     311.2592      1.839     3.98     848.1603     54.91912     296.6656        20     1.392     0.921 -34.86   0
       213    491.8466    684.4540 307.7079439  +6.4096893     1245.715      1856.01     1907.934      78.1011      155.831     311.6001      1.765     3.79     848.8029     54.91912     188.2155        14     1.025     0.954 -13.57   0
       214    912.5722    683.4241 307.5332334  +6.4242036      882.672     1320.947     1186.889     77.60522     155.7071     311.4142      1.599     3.22     845.8187     54.91912     140.0483         8     0.882     0.694 -37.78   0
       215    532.0840    680.6771 307.6913592  +6.4125988     878.4537     1587.451     2479.039     78.22458     156.1404      311.662      2.659     5.51     847.7627     54.91912      117.513        10     1.126     0.760 -28.68   0
       216    708.0018    678.3065 307.6183733  +6.4194735     3167.393     5242.465     5409.436     77.60522      155.521     311.2592      1.709     3.97     846.4638     54.91912      491.266        27     1.614     0.952 -25.43   0
       217    729.9775    676.4037 307.6093097  +6.4209950     3794.854     5967.452     6218.084     77.72948      155.521     311.3832      1.682     3.67      846.506     54.91912     582.6575        28     1.566     0.985 -28.68   0
       218    561.3657    674.3815 307.6794095  +6.4161804     3052.678     4556.028     4603.924     77.60522     155.6451     311.3832      1.636     3.52     847.0459     54.91912      422.075        23     1.302     0.982 -32.00   0
       219    397.3369    674.8796 307.7475195  +6.4104696     1228.436     1922.057     2007.754     78.34786     155.8929     311.5691      1.708     5.31     848.6898     54.91912     205.1646        14     1.532     0.699 -22.79   0
       220    222.1392    674.1247 307.8203090  +6.4048913     1687.861     2682.416     3019.136     78.34786      155.831     311.5691      1.726     4.08     848.2111     54.91912     234.7163        18     1.302     0.954 -12.64   0
       221   1002.7994    672.6387 307.4961191  +6.4316707     4775.541     7631.269     7833.265     77.23122     155.6451     311.2902      1.699     3.64     843.4752     54.91912     689.2374        31     1.488     1.042 -32.42   0
       222    305.3476    673.5013 307.7857717  +6.4079474      1352.83     2023.592     2144.009     77.97742      155.831     311.7859      1.716     3.39     848.4637     54.91912     253.8142        17     1.154     0.958 -13.04   0
       223    968.2414    671.5615 307.5105091  +6.4309616     7658.564     12182.27      12916.5     77.85355     155.8929     311.4452      1.725     3.74     844.4528     54.91912     1086.412        37     1.581     1.087 -27.77   0
       224    687.8314    670.4509 307.6270152  +6.4220417     964.7283     1485.111     1539.652     77.97742     155.9548     311.5072      1.658     4.43     846.1055     54.91912     140.2379        12     1.287     0.696 -44.07   0
       225   1017.8411    670.5667 307.4899409  +6.4330285     536.2844     910.6008     886.5986     77.85355      155.831     305.0894      1.518     4.22     842.9489     54.91912     118.2117         5     1.438     0.353 -27.50  16
       226     79.8033    667.7958 307.8796374  +6.4027118     842.3429     1535.513     1735.133     77.48074     155.3969     311.3832      1.948     6.81      847.648     54.91912     125.9525        13     1.463     0.889 -31.39   0
       227    126.7304    664.8159 307.8602487  +6.4055230     22270.63     36369.33      38994.3     77.60522     155.7071     311.4762      1.756     3.64     847.4304     54.91912     3408.528        63     1.721     1.247 -32.89   0
       228    413.5448    665.7564 307.7410956  +6.4147809     2644.307     4350.625     4886.879      78.1011      155.831     311.5691      1.890     4.07     848.4081     54.91912     411.4789        26     1.561     1.011 -45.81   0
       229    794.9152    665.4009 307.5827078  +6.4277115     1132.924     1443.032     1379.873     77.35608     155.3347     311.2902      1.269     2.93     845.7625     54.91912     222.0938         9     0.951     0.598 -49.95   0
       230    587.8627    660.6066 307.6688681  +6.4227566     442.2689     507.0102     664.3183     77.48075     155.6451     311.3522      1.195     3.41     846.5187     54.91912     79.39032         5     0.783     0.430  20.76   0
       231    346.3011    659.6607 307.7692299  +6.4150387     750.4055     1140.242     1042.797     77.85355     155.7691      311.693      1.549     5.17     848.1053     54.91912     104.2953         8     1.143     0.662 -34.80   0
       232    963.1793    654.4652 307.5131853  +6.4378518     6196.524      10727.1     11676.44     77.72948      155.831     311.4452      1.914     3.76     843.6522     54.91912     888.9877        47     1.691     1.314 -13.98   0
       233   1018.5123    649.6613 307.4903630  +6.4416831     85783.08     137975.3     147362.2      78.1011     156.0167     300.0173      1.782     3.78     842.0286     54.91912     12825.19       100     1.770     1.334 -31.12  24
       234    556.7458    649.6989 307.6821597  +6.4262171      44527.9     71402.37     76356.06     77.97742      155.831     311.7859      1.735     3.70      846.628     54.91912     6964.543        78     1.731     1.261 -34.30   0
       235    920.8263    652.1913 307.5308534  +6.4373758     626.5713     717.6696     344.6929     77.72948     155.6451     311.4142      1.523     4.35     844.5034     54.91912     97.91895         7     1.048     0.513  68.96   0
       236    199.2209    651.1218 307.8306050  +6.4136179     746.2509     1067.226     1374.299     77.72948     155.5831     311.5381      1.586     5.02     847.3262     54.91912     94.66467         8     0.954     0.748 -29.20   0
       237    164.2172    646.4407 307.8453012  +6.4143724     2561.273     4021.293     4434.962     77.60522     155.6451     311.3832      1.714     3.48     846.9832     54.91912     383.2285        24     1.354     1.040 -29.43   0
       238    486.5113    646.6094 307.7114355  +6.4251365     661.0105     1164.222     1326.695     77.72948      155.521     311.3522      1.846     4.97     847.7883     54.91912     88.22034         7     1.004     0.697 -46.10   0
       239      7.7835    653.5608 307.9100300  +6.4061617     1090.911     1808.282     1429.981     77.72948     155.7071     308.8623      1.714     4.43     847.9714     54.91912     153.5114        17     1.272     1.008 -40.03  16
       240     56.9325    640.7405 307.8900518  +6.4131119     1167.907     1816.623     1556.965     78.22458     155.7691     311.5691      1.555     5.09     847.4847     54.91912     182.2463        13     1.237     0.913 -59.59   0
       241    454.0522    633.4800 307.7253599  +6.4294682     57389.48     92136.84     98968.48      78.1011      155.831     311.5691      1.747     3.60      847.313     54.91912     8440.499        87     1.771     1.270 -31.76   0
       242    128.3425    628.6662 307.8608021  +6.4205033      1521.84     2253.245     2226.913     78.22458     155.7691     311.5691      1.645     3.30     846.9168     54.91912     250.0442        14     1.098     0.819 -24.50   0
       243    923.1539    626.4089 307.5307520  +6.4480996     567.8723     855.2538     939.1659     77.60522     155.7071     311.2282      1.641     4.21     843.0119     54.91912     80.89014         5     0.905     0.559 -47.20   0
       244    407.5352    626.0372 307.7449316  +6.4309793     811.9094     1219.261     1331.791     77.97742     155.7691     311.6311      1.559     4.92     846.9768     54.91912     118.8589        10     1.064     0.645 -29.48   0
       245    599.5565    625.2991 307.6652000  +6.4377274     910.7272     1383.961     1820.814      78.1011     155.7071     311.7859      1.623     4.11     845.5506     54.91912     135.4042         6     1.055     0.458 -36.04   0
       246    481.6465    624.3653 307.7142060  +6.4341579     583.8489     970.0193      1142.83     77.72948     155.7691     311.4762      2.000     4.93     846.9927     54.91912      82.3421         5     1.159     0.594 -56.48   0
       247    299.2871    622.7540 307.7900027  +6.4286972     2150.013     3530.612     3721.257      78.1011     155.7071     311.5691      1.739     3.76     846.5854     54.91912     332.2086        23     1.436     1.075 -47.27   0
       248    639.7482    630.6958 307.6483244  +6.4368462     723.9126     1161.527     1039.018     77.97742     155.7691     311.8168      1.562     4.62     845.3806     54.91912     109.7369         8     0.986     0.614 -65.66   0
       249    726.0186    617.1174 307.6129479  +6.4453425     4911.927     7673.268     7718.521     77.72948      155.521     311.5381      1.623     3.66     844.9158     54.91912      685.358        27     1.458     0.983 -35.15   0
       250    779.6071    612.3086 307.5908506  +6.4491218     12872.74     20383.31     21382.73     77.72948      155.521     311.3522      1.711     3.63     844.7686     54.91912     2052.531        46     1.640     1.115 -31.90   0
       251    996.2374    613.5012 307.5008281  +6.4558705     904.3517     1409.452     1479.906      78.1011     155.7071     311.7549      1.658     4.79     840.9311     54.91912     113.8465        11     1.036     0.880  71.01   0
       252    522.2232    611.5784 307.6977832  +6.4407993     1142.523     2158.389     2269.753     77.85355     155.6451     311.5381      2.064     7.26     846.2816     54.91912     172.8502        19     1.799     1.237 -30.88   0
       253   1019.2200    611.5988 307.4913455  +6.4574233     1893.437     2943.063     2983.108     77.72948      155.459     293.2167      1.660     4.28     840.4158     54.91912     290.5257        18     1.313     0.887 -24.59  16
       254     24.1612    612.1237 307.9046314  +6.4238229     543.2703     751.6619     1126.078     77.97742     155.8929     311.5691      1.574     4.35     847.1154     54.91912     92.16577         5     0.784     0.688 -39.55   0
       255    603.3044    610.3299 307.6641474  +6.4440339     2719.449     4070.906     4183.143     77.97742     155.8929     311.5691      1.594     3.69     845.1472     54.91912      411.235        22     1.453     0.882 -26.88   0
       256    920.1071    606.7716 307.5326767  +6.4561063     992.8665      1701.42     2099.233     78.22458     155.5831     311.4762      1.707     3.66     842.0927     54.91912     135.6787         8     0.982     0.550 -51.12   0
       257    216.2144    604.0054 307.8251398  +6.4336440     999.1459     1775.844      1984.39     77.72948      155.521     311.4142      1.756     6.06      845.972     54.91912     150.9606        11     1.254     0.824 -24.05   0
       258    361.6546    604.1783 307.7647257  +6.4384635       718.04     1063.257     922.9955     77.60522      155.831     311.3832      1.356     3.58     845.9254     54.91912     108.0667         7     0.827     0.622  65.16   0
       259    855.4923    595.6575 307.5598894  +6.4585356     2623.439     4019.556     4252.211     77.97742     155.7691      311.693      1.642     3.68     843.3584     54.91912     416.0301        20     1.416     0.834 -30.23   0
       260    150.2466    596.0969 307.8528063  +6.4346887     636.0193     916.0928     1046.503      78.1011     155.7691      311.724      1.501     4.47     846.1302     54.91912      129.795         5     0.823     0.689  73.58   0
       261    814.2377    592.9131 307.5771178  +6.4582890     2383.074     3746.204      3969.15      78.1011     155.7691     311.5691      1.689     3.92     844.0079     54.91912     339.6972        22     1.431     0.961 -37.19   0
       262    785.1177    589.0690 307.5893428  +6.4589021      2464.99     3682.209     4285.874     78.34786     156.0786     311.6001      1.681     3.75      844.139     54.91912     366.6093        21     1.482     0.917 -23.67   3
       263    794.9997    584.2334 307.5854006  +6.4612294     146207.7       233610     251341.5     77.23121     155.6451     311.3212      1.698     3.61     843.9891     54.91912     22030.36       135     1.813     1.340 -31.16   2
       264    727.7402    589.7966 307.6131516  +6.4566811     703.9543     1061.501     2206.767     77.48075     155.6451     311.3212      1.569     4.41     844.1976     54.91912     108.4343         7     1.001     0.553  19.35   0
       265    176.6157    582.3888 307.8423177  +6.4412366     52333.37     87140.19     95619.78     77.85355      155.521     311.5072      1.822     3.83     845.6527     54.91912     7863.604        96     1.830     1.370 -35.23   0
       266    242.4360    587.8231 307.8147956  +6.4412080     7089.161     11580.82     12913.58     77.72948     155.5831     311.3522      1.827     3.71     845.3471     54.91912     1054.644        42     1.740     1.127 -39.07   0
       267    100.5492    578.5983 307.8740398  +6.4402398     5792.635     9496.905     10029.85     77.48075      155.459     311.1662      1.779     3.64     846.2971     54.91912     935.1815        36     1.618     1.094 -38.50   0
       268    965.6949    576.2249 307.5147655  +6.4702425     1206.565     1806.437     2093.219     78.22458     155.5831     311.4452      1.650     4.42      840.316     54.91912     189.7805        16     1.396     0.797 -28.48   0
       269    986.6625    575.3868 307.5060839  +6.4712888     683.4478     1152.754     1434.048     77.60522     155.6451     311.3832      1.761     5.08     839.7029     54.91912     103.0748         7     0.923     0.791 -53.36   0
       270    214.6668    574.7007 307.8267731  +6.4456917     737.4178     1172.801     1708.433      78.1011     155.9548     311.5381      2.099     4.46      845.038     54.91912     111.9307         7     0.978     0.646   0.57   0
       271    831.5788    571.4455 307.5706360  +6.4677333     4339.755     6853.835     7505.493     77.72948      155.831     311.4142      1.759     3.78     843.0124     54.91912      712.139        28     1.541     0.948 -29.36   0
       272    350.0511    569.5932 307.7707128  +6.4523538     15568.27     25491.75     27140.88     77.60522     155.6451     311.1972      1.767     3.54     844.5733     54.91912     2267.298        54     1.704     1.197 -31.74   0
       273    439.9361    569.6350 307.7333763  +6.4553561     680.4434     1147.644     1303.431     77.97742      155.831     311.5691      1.817     5.64     844.7114     54.91912     112.6841         8     1.404     0.637 -33.41   0
       274    152.7993    567.8990 307.8526999  +6.4464174     1278.256     2814.561      3396.81     77.60522      155.459     311.2592      2.394     8.86     845.6844     54.91912     275.2321        22     2.759     0.795 -29.00   0
       275    516.4772    564.5068 307.7017563  +6.4600427     6085.336     9771.607     10313.28     77.85355     156.0786     311.6001      1.744     3.86     844.4105     54.91912      923.376        37     1.714     1.041 -32.30   0
       276    226.9253    566.6854 307.8219524  +6.4494138     967.3367     1428.236     1686.896     78.22458     156.1404     311.6311      1.668     4.24     844.6194     54.91912     131.7285        10     1.044     0.725   2.28   0
       277    785.4414    564.8345 307.5900230  +6.4689196     5488.659     8455.068     9113.905     77.85355      155.831     311.3832      1.665     3.54     843.4593     54.91912     900.8857        30     1.577     0.944 -31.70   0
       278     88.7272    566.0999 307.8793730  +6.4450020     792.2739     1023.404     1084.516     77.85355     155.9548     311.5691      1.343     3.09     846.0156     54.91912     138.7283         6     0.873     0.460 -53.86   0
       279    374.3773    561.3185 307.7608879  +6.4565879     1089.973      1761.85     1691.944     77.85355      155.521     311.5072      1.721     4.67     844.2556     54.91912     155.0103        13     1.276     0.754 -34.59   0
       280    163.4998    557.6060 307.8486035  +6.4510277      6260.76     10355.29     10963.04     77.85355      155.459     311.2902      1.798     3.63     845.4598     54.91912     967.5039        40     1.624     1.183 -30.21   0
       281    560.9487    557.6055 307.6835165  +6.4643840     2176.212     3735.801     3910.774     77.48074     155.6451     311.2282      1.794     4.39     844.0046     54.91912       324.91        25     1.668     0.903 -33.45   0
       282    258.6166    554.0474 307.8092163  +6.4556982      78106.2     129098.8     138963.2     77.60522     155.7691     311.3212      1.772     3.63     844.0523     54.91912     11278.69       100     1.807     1.323 -32.78   0
       283    802.2053    557.2211 307.5833154  +6.4726242     1269.263     1985.687     2701.579     77.72948     155.5831     311.3832      1.732     4.49     843.1851     54.91912     174.7094        13     1.252     0.814 -16.63   0
       284     34.9622    556.2549 307.9020374  +6.4472547     4586.538     7595.427     8237.769      78.1011     155.8929     311.6001      1.785     3.67     845.7723     54.91912     608.2162        33     1.578     1.089 -30.85   0
       285    844.2500    557.4954 307.5658412  +6.4739173     557.9764     829.6738     881.1583     77.97742     155.7691      311.724      1.780     4.24     842.3475     54.91912     87.08569         5     1.011     0.506 -40.59   0
       286    547.9705    551.1968 307.6891233  +6.4665949      918.914     1583.594     2268.195     77.60522     155.5831     311.3832      2.180     6.69     843.7753     54.91912     116.1724        14     1.431     0.878 -42.64   0
       287    781.7501    546.6270 307.5921684  +6.4763142      14944.6     23715.08     25224.11     77.72948     155.8929     311.5072      1.716     3.58     842.9557     54.91912     2542.135        51     1.644     1.167 -32.19   0
       288    241.9959    549.3281 307.8162794  +6.4570877     1345.152     2151.113     2096.701     77.72948     155.3969     311.4142      1.735     4.64     843.9232     54.91912     189.5615        17     1.264     0.995 -41.39   0
       289    957.7668    548.1864 307.5189996  +6.4815552     1574.336     2527.346      2752.15     77.60522     155.5831     311.4762      1.768     4.12     839.8256     54.91912     235.7876        16     1.195     0.905 -23.96   0
       290    485.3774    544.9559 307.7153335  +6.4670716     37080.93     64270.12     70770.35     77.60522     155.7071     311.3832      1.899     3.59     843.6206     54.91912     5123.045        84     1.887     1.379 -25.15   0
       291    635.2668    543.8407 307.6531097  +6.4725592     888.2081     1451.747     1527.365      78.1011     155.7691      311.662      1.723     4.18     843.2897     54.91912     116.0966        10     0.965     0.752 -29.06   0
       292    197.6302    541.3354 307.8349774  +6.4588948     1937.703     3072.707     3209.162     77.85355     155.9548     311.5072      1.706     4.34      844.272     54.91912     242.0101        19     1.387     0.909 -45.82   0
       293     33.1933    541.6706 307.9032660  +6.4532168      1175.67     1680.941     1779.368     77.60522      155.459     311.4452      1.611     4.90      845.421     54.91912     156.3517        13     1.046     0.880 -45.64   0
       294    655.3944    540.2629 307.6448694  +6.4747110     1202.192     1929.239     2096.517     77.48075     155.5831     311.3212      1.776     4.26     843.0145     54.91912     176.6609        15     1.301     0.797 -44.99   0
       295    645.2401    540.0287 307.6490952  +6.4744674     2682.686     4483.619     4978.288     77.72948     155.5831     311.4452      1.783     4.03     843.0931     54.91912     419.3972        25     1.500     0.945 -31.72   0
       296    707.2110    539.2239 307.6233803  +6.4768757     1286.402     2087.131     1818.261     77.72948     155.6451     311.4762      1.705     3.69      842.831     54.91912     189.9347        15     1.251     0.794 -24.32   0
       297     63.7734    537.4210 307.8907084  +6.4560023     680.7639     1341.688      1357.69     77.72948     155.6451     311.5072      2.132     5.25     845.2815     54.91912     87.49426         9     1.315     0.591 -82.90   0
       298    382.8036    535.6505 307.7582542  +6.4674694     1545.769     2591.594     2360.521     77.48075     155.5831     311.1662      1.701     4.82     843.3228     54.91912     256.9088        15     1.472     0.674 -29.96   0
       299    314.4415    534.0708 307.7867033  +6.4658239     3740.441     5666.903     5606.009     77.97742      155.831     311.6311      1.596     3.61     843.1425     54.91912     565.0736        26     1.410     0.974 -41.03   0
       300    494.2727    533.3243 307.7120307  +6.4721729     2017.817     3417.391     4023.912     78.34787     156.0786     311.6001      1.933     3.38     843.1946     54.91912     270.3238        23     1.294     1.034 -35.18   0
       301    129.7146    532.3981 307.8634892  +6.4602981     23143.28     38506.43     41706.75     77.48075      155.459     311.2902      1.807     3.84     844.8378     54.91912     3495.375        65     1.737     1.263 -31.88   0
       302    857.4011    532.8031 307.5612078  +6.4845528     1440.836     2211.339     2372.829     77.48075     155.3969     311.3212      1.639     2.93     841.5465     54.91912      263.009        14     1.048     0.835 -41.45   0
       303     94.8256    530.7003 307.8780381  +6.4598237     2475.454     4059.376     3936.103      78.1011     155.5831     311.4762      1.713     4.18     845.1141     54.91912      346.965        21     1.390     0.984 -42.06   0
       304    332.0225    529.1165 307.7795680  +6.4684606     937.4909     1640.934     1738.854     77.97742      155.521     311.4762      1.720     5.82     843.0069     54.91912     127.1317        10     1.263     0.806 -40.25   0
       305    955.1266    527.1514 307.5208022  +6.4901526     4618.351     7439.191     8293.381      78.1011     155.8929     311.6001      1.707     3.62     839.4056     54.91912     656.7137        30     1.529     0.990 -36.92   0
       306    527.9630    519.9935 307.6984856  +6.4788078     1345.502     2018.045     2095.255     77.23121     155.5831     311.3522      1.469     3.54     842.7185     54.91912     202.4183        11     1.054     0.736 -54.20   0
       307    426.7448    513.5950 307.7407461  +6.4780521      38207.7     62400.57     66951.51     77.48075     155.6451     311.2592      1.783     3.74     842.6049     54.91912     5887.538        73     1.739     1.272 -31.01   0
       308    634.7305    513.3581 307.6543587  +6.4851277     11338.93     18083.58     19095.32     77.97742      155.831     311.6311      1.712     3.48     842.3758     54.91912     1812.838        46     1.603     1.180 -35.41   0
       309    274.6824    514.1221 307.8038921  +6.4727237     808.2321     1443.387     1789.819     78.22458     156.0786      311.693      1.802     4.98     842.1939     54.91912     128.8622         9     1.047     0.671 -64.57   0
       310    191.9394    511.1682 307.8383613  +6.4711591     17193.07     30218.55     32900.61     77.85355     155.8929     311.5072      1.884     3.81      842.907     54.91912     2143.745        60     1.748     1.333 -27.86   0
       311    157.2278    512.6114 307.8527306  +6.4693945     1558.793     2415.975     2597.329     77.72948     155.6451     311.4452      1.734     3.73     843.4979     54.91912     226.5488        19     1.245     0.992 -35.55   0
       312    968.2544    511.9541 307.5158588  +6.4968663     1052.005     1376.716     1589.099      78.1011      155.831     311.6001      1.481     4.70     838.7396     54.91912     146.6308         9     1.022     0.613 -33.35   0
       313    808.6821    511.1348 307.5821739  +6.4918704     864.2653     1472.355     1448.251     78.34786     156.0167     311.6001      1.808     6.00     841.8055     54.91912     154.8456        11     1.583     0.639 -48.59   0
       314    896.8879    511.2244 307.5455296  +6.4947830     648.6943     814.0401     1234.544      78.1011     155.6451     311.4452      1.288     3.84     840.3613     54.91912      114.889         5     0.953     0.443 -48.00   0
       315    556.3950    510.2151 307.6870048  +6.4837991     2617.448     4039.103     4244.051     77.72948      155.521     311.4142      1.639     4.17     842.3733     54.91912      375.981        25     1.648     0.877 -24.16   0
       316    930.2934    507.3233 307.5317836  +6.4975102     4595.503     7200.958     7613.096     77.85355     156.0786     311.5691      1.697     3.24     839.3987     54.91912      731.589        30     1.598     0.960 -32.50   0
       317    603.5895    505.6740 307.6675533  +6.4872567      5957.21     9619.999     9945.523     77.60522      155.459     311.4452      1.748     3.83     842.2546     54.91912     1001.087        38     1.678     1.132 -29.80   0
       318     91.2653    505.8271 307.8803589  +6.4699737     918.2471     1653.519     1764.053     77.72948     155.7691     311.4762      1.864     5.43     844.4164     54.91912     135.9863        10     1.412     0.590 -34.65   0
       319    952.9034    499.6157 307.5226499  +6.5014482      3153.07     4920.399     5538.938     77.97742     155.5831     311.3832      1.706     3.57     838.7581     54.91912     538.4003        27     1.487     1.001 -30.03   0
       320    515.7605    496.9414 307.7043314  +6.4879167     6892.729     11111.36     12002.87      78.1011     155.8929      311.662      1.755     3.44     841.9451     54.91912     1071.828        41     1.684     1.120 -30.49   0
       321    361.4747    496.9785 307.7684192  +6.4827203     2364.386     3837.923      4025.89     77.72948     155.7071     311.5072      1.734     3.71      842.069     54.91912     342.1674        26     1.444     1.055 -27.32   0
       322    731.2674    497.3423 307.6147961  +6.4949746     595.5385     630.3112     454.2406     78.22458     155.7691     311.5381      1.167     3.22     841.5838     54.91912      138.481         5     0.912     0.460  -8.58   0
       323    872.2458    492.7631 307.5563862  +6.5015822     2909.696     4950.676     5788.814     77.85355      155.831     311.4452      1.814     3.83     840.7281     54.91912      472.988        28     1.653     1.116 -27.75   0
       324    391.5916    498.1774 307.7558686  +6.4832373     592.3759     880.0975     1377.318     77.72948     155.6451     311.3832      1.456     3.26     842.1011     54.91912      116.088         6     0.745     0.634  10.74   0
       325    879.5402    487.1892 307.5535433  +6.5041276      1976.32     3137.154     3559.313     77.48075     155.7071     311.2902      1.746     3.77     840.3681     54.91912     296.3597        19     1.303     0.951 -39.47   0
       326    918.9747    486.4759 307.5371855  +6.5057402      1318.78     2190.424     2132.233     77.72948     155.7071     311.5381      1.761     4.06     838.9944     54.91912     203.3708        14     1.280     0.789 -35.32   0
       327     98.2892    486.4926 307.8780959  +6.4781934     605.7482     1053.034     888.5955      78.1011     156.3257     311.6311      1.550     3.37     843.8265     54.91912     107.2333         5     0.742     0.443  22.86   0
       328    703.6085    483.1411 307.6267636  +6.4999122     2811.539     4229.121     4814.045     77.48075     155.7691     311.2902      1.601     3.88     841.3161     54.91912      444.427        23     1.473     0.923 -39.35   0
       329    374.3405    481.3712 307.7636018  +6.4895969     3375.578     5643.882     5933.949     77.72948     155.8929     311.5072      1.770     3.66     841.5546     54.91912     471.3628        32     1.533     1.095 -33.96   0
       330     65.3208    482.3074 307.8919317  +6.4788104     1739.303     2964.414     2905.599     77.85355     156.0167     311.6311      1.733     3.79     843.7468     54.91912     294.9813        19     1.260     1.086   6.49   0
       331    414.4906    481.7740 307.7469100  +6.4907795     1100.698     1751.841      2121.04     78.22458     155.5831     311.4142      1.725     4.52     841.5868     54.91912     156.9388        12     1.246     0.681  -8.80   0
       332    765.1370    474.1670 307.6015057  +6.5056777     14387.42     24182.17     27232.22     77.85355     155.8929     311.5381      1.852     4.90     840.8533     54.91912     2495.832        65     2.209     1.167 -43.57   0
       333    284.7790    474.6954 307.8010303  +6.4893425     2229.714     3868.696     4078.803     77.97742     155.6451     311.3832      1.870     4.72     840.2208     54.91912     340.7162        24     1.553     1.001 -35.82   0
       334    602.2827    477.8923 307.6690319  +6.4986842     9013.733      14441.1     15788.52     77.85355     156.1404      311.693      1.717     3.77     841.2672     54.91912      1357.08        42     1.695     1.072 -31.14   0
       335    793.7272    471.6360 307.5897140  +6.5076796      1129.58     1725.392     2016.575     77.97742      155.831     311.5691      1.622     4.08     840.7805     54.91912     215.5621        11     1.149     0.684 -34.80   0
       336    367.3571    471.3890 307.7668396  +6.4934840     1625.054     2376.628     2703.365     77.60522     155.6451     311.2902      1.573     3.33      840.888     54.91912     241.0461        16     1.165     0.855 -43.49   0
       337    950.1566    469.4716 307.5248027  +6.5138034     1909.267     3029.596     3724.689     77.97742      155.831     311.6001      1.793     4.52     837.8998     54.91912     283.7664        20     1.527     0.822 -31.88   0
       338    697.6387    469.4362 307.6297047  +6.5053711     607.1951     1141.721     1148.866     77.85355     155.7071     311.3832      1.911     4.10     840.8696     54.91912     79.08734         6     1.098     0.438  55.28   0
       339    355.9649    467.8001 307.7716930  +6.4945830     680.6004     884.6293     861.4734     77.10614     155.5831     311.3832      1.211     3.11      840.688     54.91912      144.631         6     0.901     0.439 -40.69   0
       340    102.3584    466.2301 307.8770914  +6.4866967     4035.743     6711.849     7175.833     77.72948     155.7071     311.4142      1.811     4.00     843.0027     54.91912     535.2943        30     1.563     1.049 -26.77   0
       341    740.4294    465.3993 307.6120646  +6.5084709      2050.99     3265.983     3077.736     77.48075     155.6451     311.3832      1.701     3.68     840.5869     54.91912     305.9988        21     1.374     0.936 -39.24   0
       342   1004.1947    464.1515 307.5025324  +6.5178049     3765.993     6523.481     6383.187     77.48074     155.6451     311.2592      1.841     4.25     837.0366     54.91912     465.1428        34     1.619     1.171 -14.33   0
       343    260.4184    463.5130 307.8115273  +6.4931403     1243.248     1846.241     2113.959     77.85355     155.5831     311.4452      1.790     4.66     840.0346     54.91912     229.1427        13     1.433     0.679 -21.45   0
       344    338.3513    461.0145 307.7792388  +6.4967927     2880.419      4742.59     4823.805     77.48074     155.7691     311.2902      1.721     3.95     840.0561     54.91912     421.4137        26     1.518     0.975 -41.02   0
       345    693.8033    459.2665 307.6316401  +6.5094418     1504.315     2232.502     2215.204     77.48075      155.521     311.3832      1.528     3.36     840.5267     54.91912     223.4136        11     0.995     0.742 -23.50   0
       346    967.7440    458.0376 307.5178802  +6.5191121     652.2615     968.3184      1016.24      78.1011     155.8929     311.6001      1.546     5.22     837.2816     54.91912     101.0699         8     1.182     0.651  14.42   0
       347    225.8492    456.7799 307.8261147  +6.4947572     736.2461     1100.291     486.1503     77.60522     155.8929     311.4142      1.608     5.56     840.1503     54.91912       130.56         7     0.982     0.887  27.75   0
       348    436.9490    452.8305 307.7385574  +6.5034847     572.0214     878.5952      888.009     77.85355     155.9548     311.5072      1.450     3.77      839.675     54.91912     88.41467         5     0.804     0.508 -51.19   0
       349    535.1851    452.0440 307.6977757  +6.5071068     788.7876     1137.392     1231.364     77.48075     155.6451     311.3212      1.521     3.38     839.9214     54.91912     120.1599         8     0.969     0.669 -15.29   0
       350    820.2127    448.9161 307.5794751  +6.5179470     1308.875     1975.502     1831.475     77.72948     155.7071     311.4142      1.623     4.24      839.754     54.91912     235.5004        16     1.477     0.800 -38.77   0
       351    457.7042    450.0228 307.7300302  +6.5053409     1254.135     1643.799     1491.248      78.1011     155.5831     311.4142      1.511     3.73      839.469     54.91912     184.3696        12     1.135     0.705 -19.46   0
       352    805.9764    448.3625 307.5854078  +6.5176993     1759.119     2478.158     2377.149     77.72948     155.5831     311.3522      1.560     3.71     839.9621     54.91912     267.1695        16     1.278     0.802 -21.68   0
       353    703.3583    446.1747 307.6281114  +6.5151676     14038.51     22139.41     23134.21     77.72948     155.7691     311.3522      1.695     3.60     840.0478     54.91912     2120.068        48     1.629     1.140 -29.53   0
       354    605.1996    448.2129 307.6688198  +6.5110368     821.8943     1147.321     1309.186     77.72948      155.521     311.3832      1.435     4.13     839.6432     54.91912     124.0663         6     0.749     0.650 -14.50   0
       355    624.3294    442.1874 307.6610758  +6.5141660     2511.301     3893.348     4360.444     77.60522     155.5831     311.4142      1.686     3.38     839.4534     54.91912     377.3718        22     1.378     0.895 -27.87   0
       356    696.9196    440.6835 307.6309709  +6.5172192     644.5559     778.7528     1153.788     77.97742     156.0786     311.6311      1.319     4.66     839.8779     54.91912     108.2308         7     0.898     0.686 -63.51   0
       357    599.4294    439.5062 307.6715101  +6.5144384     5051.455     7567.027     8801.528     78.22458     155.5831     311.4762      1.694     3.74     839.2287     54.91912     739.1254        21     1.382     0.880 -30.55   3
       358    595.7715    436.6915 307.6731245  +6.5154779     13624.32     22291.61     25047.41     78.22458     155.5831     311.4452      1.827     3.45     839.0781     54.91912     2123.043        56     1.820     1.329 -20.04   2
       359    928.7074    436.0419 307.5348355  +6.5268903      3586.46     5869.203     6005.189      78.1011     155.7691      311.662      1.717     4.13     837.2681     54.91912     548.7448        28     1.590     0.965 -30.51   0
       360    367.8110    431.9846 307.7679814  +6.5097693     26108.49     42917.95     46291.09     77.85355      155.521     311.5072      1.770     3.60     838.2883     54.91912     3748.754        65     1.731     1.248 -31.75   0
       361    884.2253    432.0807 307.5534479  +6.5270392     1264.625     2239.216      3512.36     77.85355     155.6451     311.5691      2.828     4.24     837.7557     54.91912     190.7711        18     1.393     0.939 -70.73   0
       362    113.6976    431.4146 307.8735597  +6.5014538     2036.163     3245.709     3460.487     77.97742     155.5831     311.3522      1.733     4.06     841.5187     54.91912     266.4135        20     1.382     0.918 -36.11   0
       363    404.2072    433.9883 307.7527944  +6.5101649      602.039     935.3165     459.4933     77.72948     155.6451     311.4762      1.462     3.97     838.4216     54.91912     86.29828         6     0.954     0.473  55.41   0
       364    897.4996    426.4755 307.5481216  +6.5297974     4723.595     7112.866     7482.921     77.60522     155.9548     311.4762      1.648     3.83     837.3325     54.91912     777.0248        29     1.543     0.965 -29.25   0
       365    578.8707    427.9781 307.6804390  +6.5185090     574.5156     745.9285     960.5025     77.72948     155.7071     311.5691      1.458     2.59     838.6691     54.91912     129.0467         5     0.879     0.593 -56.83   0
       366     47.0545    427.0604 307.9013900  +6.5010055     1460.422      2360.25     3040.994     78.22458     155.7691     311.5381      1.961     3.97     842.4053     54.91912     211.6057        13     1.128     0.841 -24.17   0
       367    953.1146    424.7007 307.5250766  +6.5323887     682.2175     948.3613     633.8444      78.1011     156.3257     311.6311      1.542     4.77     836.4096     54.91912     89.88672         8     0.942     0.685 -17.55   0
       368    787.2530    425.0738 307.5939690  +6.5266889     551.3943     495.8411     432.8296     77.97742     155.8929     311.6001      1.165     3.48     839.3536     54.91912     104.0361         5     0.791     0.505 -36.13   0
       369    225.3350    422.5760 307.8274847  +6.5088625     12654.57      20650.4        22173     77.72948      155.831     311.5072      1.778     3.71     838.5677     54.91912     1825.432        49     1.675     1.190 -32.24   0
       370    719.5375    416.6037 307.6223851  +6.5279195     745.0354     1066.818     1115.906     77.48075     155.5831     311.3212      1.546     3.22     839.0737     54.91912     126.9239         6     0.867     0.715 -67.16   0
       371     60.5434    416.2340 307.8961535  +6.5059304     728.2189     1278.468      1293.63     77.97742      155.831     311.5691      1.885     5.26     841.8907     54.91912     122.7601         8     1.201     0.651  83.86   0
       372    948.4391    414.7729 307.5273522  +6.5363318      1003.16     1580.616     1693.189     77.72948     155.6451     311.4142      1.797     3.95     836.2144     54.91912     176.3397        11     1.215     0.654 -73.67   0
       373    688.1987    415.8767 307.6354286  +6.5271701     666.8512      1003.87     1279.872     77.35608     155.2726     311.3832      1.435     2.95     838.9791     54.91912     140.4459         6     0.785     0.507 -54.00   0
       374    337.7281    412.8030 307.7811258  +6.5166782     1183.101     1756.832     1943.926     77.60522      155.459     311.4142      1.592     3.25     837.1437     54.91912     176.4913        14     1.149     0.761 -50.49   0
       375    170.6026    412.8869 307.8505484  +6.5110205     782.6713     1445.347     1545.444     77.48075      155.459     311.2902      2.159     4.82     840.0378     54.91912     112.8085         9     1.086     0.786 -59.78   0
       376    125.5728    411.1395 307.8693130  +6.5102253     4613.015     7665.232      8179.82     77.72948     155.8929     311.4452      1.787     3.60     840.7543     54.91912     643.2308        37     1.591     1.191 -33.88   0
       377    230.3509    410.0459 307.8258247  +6.5142049     1207.007     1945.313     2001.428      78.1011     155.7071     311.6001      1.764     4.35     838.1186     54.91912     182.9515        14     1.171     0.902 -10.20   0
       378    811.4643    408.1258 307.5844805  +6.5344970     817.9934     1257.177     1278.982     78.22458      155.831     311.5691      1.699     3.87     838.5203     54.91912      130.212         9     1.136     0.624 -15.68   0
       379    147.7061    406.8511 307.8602639  +6.5127416     2154.646     4034.409     4651.636     77.97742     155.7071     311.7549      2.096     4.69     840.4039     54.91912     307.0079        22     1.536     0.955 -47.66   0
       380    543.2125    405.9902 307.6959932  +6.5263919     1037.839     1523.481     1302.022     77.85355     155.6451     311.5072      1.477     5.45     837.4916     54.91912     161.2355        11     1.375     0.609 -22.81   0
       381    370.8971    401.7860 307.7677189  +6.5223420     2043.244     2990.445      2763.35     77.97742     155.5831     311.3522      1.575     3.55     836.4845     54.91912     300.5686        20     1.302     0.911 -41.22   0
       382    959.3217    401.3979 307.5232801  +6.5422181     859.5435     1297.174      1091.11     77.48075     155.3347     311.3522      1.592     4.70     835.4778     54.91912     133.0956        10     1.118     0.755 -58.64   0
       383    258.9332    402.2098 307.8142162  +6.5184022      789.033     1264.602     678.6499     77.60522     155.6451     311.5072      1.593     3.41     837.4579     54.91912     145.8501         7     0.899     0.523 -47.54   0
       384    304.5956    399.5359 307.7953377  +6.5210421     563.0834     948.0624     1116.781     77.35608     155.5831     311.3832      1.557     4.09     836.7286     54.91912     105.8848         5     0.959     0.499  -0.59   0
       385    424.9829    395.3727 307.7454669  +6.5268072     6668.155     11095.39     11997.55     77.72948     155.5831     311.4762      1.774     3.86     835.9146     54.91912     912.6818        41     1.664     1.130 -39.14   0
       386     21.2829    396.0271 307.9131466  +6.5129498     2877.535     5208.288     5517.651     77.97742     155.5831     311.5072      1.993     5.23     842.1393     54.91912     413.8472        33     1.866     1.031 -32.04   0
       387    765.5309    392.7921 307.6040786  +6.5392914     12056.19     19056.94     20694.85     77.60522      155.521     311.4762      1.739     3.52     838.3598     54.91912     1960.199        53     1.675     1.210 -28.63   2
       388    757.2407    394.6088 307.6074617  +6.5382637     1948.962     2929.203     3527.204     77.48075     155.6451     311.2902      1.750     3.50     838.4468     54.91912     298.2559        17     1.278     0.862 -24.66   3
       389    328.5016    391.4285 307.7856806  +6.5251935     979.6467     1608.156     2280.794     78.22458     155.5831     311.5691      1.717     3.77     836.1852     54.91912     154.7778        10     1.192     0.536 -46.85   0
       390   1009.5291    387.9771 307.5028718  +6.5494365     3327.123     5330.204     5651.809     77.72948     155.7071     311.5381      1.697     3.70      833.438     54.91912     558.7915        27     1.519     0.972 -23.94   0
       391    940.5953    385.2050 307.5316035  +6.5482787     506.4727     822.9698     1387.941     77.48075      155.459     311.4452      1.969     4.43     835.5493     54.91912     65.00079         5     1.160     0.482 -84.92   0
       392    173.3539    384.0279 307.8503817  +6.5230288      825.087     1181.218     1015.745     77.60522     155.8929     311.4762      1.527     4.55     839.4526     54.91912     136.4876         9     1.283     0.616 -39.78   0
       393    889.9976    383.2909 307.5526887  +6.5473780     621.1104     952.3669     1065.664     77.48074      155.521     311.2902      1.640     4.92     836.4641     54.91912     83.05206         7     1.119     0.613 -18.78   0
       394    473.1264    378.9362 307.7260213  +6.5352105     2743.666     4585.969      4471.08     78.22458      155.831     311.5691      1.780     3.63     835.3807     54.91912     392.5023        26     1.527     0.976 -37.05   0
       395    445.2601    379.6737 307.7375729  +6.5339703     2132.529     3237.449      3569.77     78.22458      155.831     311.6001      1.725     3.82     835.1625     54.91912     304.5072        20     1.402     0.865 -24.88   0
       396    901.5629    379.4363 307.5480133  +6.5493562     693.1891     808.1796     779.5767     77.85355     155.7071     311.3522      1.292     4.42     836.2115     54.91912      95.1507         7     0.875     0.674 -17.73   0
       397    830.9712    375.7372 307.5774651  +6.5485232     30476.36      49926.5     53250.13     77.85355      155.831     311.5072      1.768     3.71      837.238     54.91912      4144.75        67     1.718     1.265 -37.28   0
       398    322.5903    371.7964 307.7887995  +6.5331008     770.7422     871.1739     797.5352     77.60522      155.521     311.4142      1.401     3.87     835.3947     54.91912     140.6677         6     0.908     0.682 -66.50   0
       399     48.1890    372.2060 307.9027767  +6.5236926     627.6625     1059.198     1175.554     77.72948     155.6451     311.4762      1.857     3.70      840.989     54.91912     115.0908         5     0.978     0.402  -2.81   0
       400    602.8690    368.0696 307.6724875  +6.5440502     2583.321      4164.37     4942.149      78.1011     155.9548     311.5381      1.763     4.06     835.5648     54.91912     384.0685        24     1.504     0.938 -33.95   0
       401     11.0169    368.4327 307.9183461  +6.5239969     1066.727     1743.658     1909.926     77.72948     155.5831     311.4452      1.898     6.63     841.7325     54.91912     155.9766        12     1.449     0.851 -22.16   0
       402    687.4352    361.6819 307.6375699  +6.5495220     74093.75     116207.5     124842.8      78.1011      155.831     311.5381      1.738     3.68     837.5721     54.91912     11583.07        98     1.768     1.288 -30.49   0
       403    845.1847    363.3488 307.5719764  +6.5541139     1233.627      1778.88      2384.09     77.48075     155.8929     311.2902      1.547     2.89     836.8184     54.91912     221.4558        10     0.924     0.717 -46.87   0
       404     66.4646    361.2462 307.8955560  +6.5288339     1211.244     1924.561     2024.996      78.1011     155.7691     311.5691      1.846     3.90     840.2808     54.91912     164.2182        14     1.075     0.892 -73.49   0
       405    928.2260    359.3649 307.5376101  +6.5585351     686.4951     1041.737      897.328     77.48075     155.6451     311.3522      1.592     4.36     835.2896     54.91912     110.0413         6     0.940     0.576 -70.58   0
       406     87.1317    357.0480 307.8871128  +6.5312639     5517.551     9206.103     9875.806      78.1011     155.7691     311.5691      1.799     3.77     839.6642     54.91912      754.745        37     1.666     1.123 -33.24   0
       407    549.7053    358.3586 307.6949012  +6.5462770     2542.274      3886.92      4424.37      78.1011     155.7691      311.693      1.715     3.59     834.2656     54.91912     440.6948        21     1.352     0.903 -45.17   0
       408    747.2676    357.0723 307.6128675  +6.5534290     483.9385     638.2343     1114.749     78.22458     155.9548     311.5691      1.517     2.55     837.3748     54.91912     96.08582         5     0.828     0.632  48.40   0
       409    533.0594    354.5388 307.7019455  +6.5472958     6581.428     10592.54      11393.6      78.1011     155.7691     311.6001      1.766     3.61     834.0302     54.91912     970.2383        40     1.603     1.201 -37.48   0
       410    262.0082    352.2098 307.8146288  +6.5391504     2257.282     3034.939     3254.243     77.60522     155.6451     311.4762      1.442     3.68     836.0289     54.91912     366.3917        24     1.459     0.990 -34.38   0
       411    396.0806    349.7111 307.7590150  +6.5446899     23183.95      38657.1      42011.8     77.85355     156.0167      311.662      1.789     3.61     833.3997     54.91912     3350.689        63     1.735     1.278 -33.46   0
       412    574.4029    349.5839 307.6849364  +6.5507285     679.6641     976.6242     593.4898     77.72948      155.459     311.3832      1.556     4.84      834.231     54.91912      82.0979         7     0.913     0.728 -70.00   0
       413    503.8921    348.3089 307.7142729  +6.5488893     1160.986     2010.265      2431.49      78.1011     156.3257     311.6311      1.991     5.75     833.8329     54.91912     160.0399        17     1.522     0.788 -43.48   0
       414    375.5753    347.6447 307.7676034  +6.5448541     1274.111       2042.6     2944.671     77.60522      155.831     311.4452      1.888     3.90     833.6703     54.91912     161.8912        16     1.123     1.030  -4.88   0
       415    475.2249    345.1328 307.7262896  +6.5492385     1118.397     1654.485      1977.26     77.72948     155.7071     311.4762      1.850     4.96     833.6952     54.91912     171.0881        12     1.344     0.648 -29.33   0
       416    373.0970    342.3160 307.7688129  +6.5469710     813.3995     1261.009     1616.382      78.1011     156.2022     311.6311      1.545     5.26     833.5865     54.91912     120.3893         9     1.026     0.761 -44.42   0
       417    790.3937    341.7938 307.5954643  +6.5611812     759.1512     1354.661     1213.069     77.48075     155.6451     311.3832      1.775     4.20     836.6278     54.91912     126.9302         7     1.046     0.482  85.10   0
       418    626.5288    341.9084 307.6635393  +6.5556456     660.1058     928.2173     645.2575     77.97742     156.0167     311.5691      1.329     3.50     835.0521     54.91912     101.5705         8     0.877     0.655 -43.32   0
       419    485.1823    340.1689 307.7223203  +6.5516223     7714.812     12764.51     14173.74     77.72948     155.6451     311.4452      1.795     3.82     833.5388     54.91912     1061.105        43     1.702     1.107 -30.43   0
       420    754.2047    338.9765 307.6105942  +6.5611331     2826.586     4426.429     5025.666     77.72948     155.5831     311.4142      1.800     3.64     836.7701     54.91912     459.7052        22     1.478     0.912 -32.23   0
       421    909.5384    338.6176 307.5460708  +6.5664773     842.0002     1273.385     1295.352     77.72948     155.7691     311.3832      1.756     5.15     834.9236     54.91912     132.6685        11     1.123     0.760 -22.89   0
       422    701.6609    338.8683 307.6324276  +6.5594184     697.9012     1141.722     1133.244     78.22458     155.7691     311.5691      1.578     4.50     836.5582     54.91912     120.5355         7     1.102     0.522 -64.50   0
       423    311.3797    337.0916 307.7946291  +6.5470534     995.4612     1425.667      1533.86     77.97742     155.6451     311.4142      1.511     3.28     834.3041     54.91912     150.5248        10     0.944     0.746 -24.59   0
       424    146.3067    330.7625 307.8634199  +6.5441108     1054.496     1727.282      1594.91     78.22458     155.7071     311.6311      1.723     5.86     838.6654     54.91912     127.0317        13     1.298     0.912 -26.93   0
       425    247.1831    330.5547 307.8215196  +6.5475929      573.878     1061.644     1291.537     77.60522     155.7071     311.3522      1.791     4.09     835.8595     54.91912     77.84094         5     1.174     0.407  15.03   0
       426    375.0166    324.2914 307.7686240  +6.5544779     6688.351     11029.66     11881.94     77.85355     155.6451     311.4762      1.764     3.74     833.1578     54.91912     880.1981        41     1.645     1.143 -31.60   0
       427    230.9085    324.6186 307.8284814  +6.5494962     1795.073     3015.771     3281.707     77.97742     155.5831     311.4452      1.803     4.50     836.1978     54.91912     268.8035        19     1.598     0.827 -35.86   0
       428    728.4176    324.2061 307.6218046  +6.5663686     856.6606      1364.66     1649.126     77.72948     155.5831     311.4142      1.609     5.44     836.2101     54.91912      146.598        10     1.260     0.729 -27.48   0
       429    742.9208    320.2432 307.6159124  +6.5684905     50574.43      79956.7     85588.46      78.1011      155.831     311.5691      1.708     3.56     836.2235     54.91912     7649.782        78     1.717     1.241 -31.00   0
       430    414.4051    319.6575 307.7524166  +6.5577147     2291.037     3749.474     4025.478     77.60522     155.7071     311.2902      1.744     3.71     832.3836     54.91912     362.5619        27     1.661     0.963 -32.48   0
       431    560.4228    317.2555 307.6918340  +6.5636082     1081.879     1568.082     1317.918     77.72948      155.831     311.3832      1.565     4.26     832.9388     54.91912     172.4545        12     1.280     0.756 -55.08   0
       432    977.6899    317.2058 307.5184747  +6.5775956     1591.429     2295.559     2467.575     77.60522      155.521     311.3522      1.591     4.67     831.9179     54.91912     260.9176        15     1.425     0.757 -35.47   0
       433    918.7511    316.3581 307.5429907  +6.5759764     1945.033     3223.368     3495.387      78.1011     155.7691     311.5381      1.787     4.25     833.7925     54.91912     321.6496        20     1.444     0.889 -39.48   0
       434    451.1237    315.9243 307.7372878  +6.5604894     990.7196     1640.378     2472.209     78.34786     156.0786      311.662      2.528     5.44     832.3462     54.91912     146.5296        12     1.271     0.881 -63.93   0
       435    280.8279    315.2463 307.8080597  +6.5550456     728.9696     1272.922     1239.036     77.60522     155.8929     311.4762      1.777     3.47     834.1766     54.91912     126.5625         6     0.895     0.573 -63.16   0
       436    821.9620    309.9945 307.5834179  +6.5753676     1097.185     1692.442     1817.071     77.23121     155.5831     311.3212      1.487     3.58     835.2211     54.91912     170.3973        11     1.094     0.721  -9.93   0
       437    401.2495    315.1231 307.7580352  +6.5591449     1789.279     3261.289     3970.341     77.97742     155.8929     311.5691      2.025     4.98     832.4942     54.91912     246.2515        23     1.647     0.889 -30.04   0
       438    431.2903    306.9019 307.7458321  +6.5635487     1043.089      1849.26     2537.214      78.1011      156.264     311.5381      2.260     6.49     832.0162     54.91912     157.5664        16     1.742     0.726 -54.34   0
       439    953.7790    308.3431 307.5287066  +6.5804564     616.3712     970.0548     1228.266     77.72948     155.7691     311.3832      1.643     4.11     832.4577     54.91912     83.09265         6     0.737     0.655  59.49   0
       440    177.3361    306.7010 307.8513434  +6.5550907      2141.67     3568.694     4124.311      78.1011     155.8929     311.6001      1.862     4.05     837.1757     54.91912     315.9445        26     1.457     1.094 -48.34   0
       441    741.2332    304.8311 307.6171321  +6.5747978     5686.606     8869.311     8799.517     77.60522     155.5831     311.3212      1.647     3.21     835.7424     54.91912     952.4237        35     1.481     1.115 -33.91   0
       442    212.7098    305.0846 307.8367024  +6.5569491     826.6093      1249.12     1194.758     77.85355     156.1404      311.693      1.685     5.55     836.0099     54.91912     111.9384        10     0.949     0.916 -44.74   0
       443    757.7040    302.6909 307.6103609  +6.5762329     2433.989     3696.705     3814.637      78.1011     156.3257     311.5381      1.650     3.40     835.6479     54.91912     399.3212        19     1.347     0.868 -41.35   0
       444    331.4885    304.3635 307.7873807  +6.5612429     560.6595     909.3132     459.0003      78.1011     155.7691     311.5691      1.605     4.00     833.2845     54.91912     94.85852         6     0.953     0.479   2.75   0
       445     73.2719    304.3153 307.8946561  +6.5525694     976.5599      1487.54     1387.929     78.22458     156.1404     311.6001      1.701     3.49      839.504     54.91912     138.6501         8     0.880     0.666  22.58   0
       446    459.4184    302.2169 307.7343042  +6.5664277     602.0355     768.4989     587.8552     77.85355      155.521     311.5072      1.197     2.34     831.8344     54.91912     110.6954         5     0.684     0.474  73.90   0
       447    346.9036    297.6416 307.7812035  +6.5645366     1663.589     3280.498     3505.594      78.1011     155.7691      311.724      2.135     6.22     833.0403     54.91912     202.4316        26     1.872     1.014 -16.35   0
       448     60.5778    297.9593 307.9001449  +6.5547658     1138.194     1843.847     1586.277     77.72948     155.6451     311.3832      1.671     4.24     839.5662     54.91912     157.1482        14     1.165     0.938 -17.79   0
       449    995.8659    293.6766 307.5117126  +6.5879181     5731.101     8904.854     9215.189     78.22458      155.831     311.5381      1.650     3.52     830.4751     54.91912     879.3021        33     1.464     1.073 -40.35   0
       450    473.6966    293.7011 307.7286595  +6.5704233     1856.962     2867.926     3190.057      78.1011     156.3257     311.4142      1.664     4.00     831.4678     54.91912     248.2274        18     1.301     0.916 -27.62   0
       451    236.5325    289.0729 307.8273468  +6.5643620     5378.053     8913.417     9418.188     78.22458     155.9548     311.5381      1.767     3.63     834.6824     54.91912     761.4282        38     1.728     1.081 -28.56   0
       452    755.6575    282.6196 307.6118863  +6.5844520     816.9863     1195.584      997.385     77.72948     155.7071     311.3832      1.532     3.65     834.9326     54.91912      146.333         8     1.025     0.589 -37.57   0
       453    212.4358    282.1821 307.8375908  +6.5663961     635.8837     1109.051     1131.161     77.60522     155.6451     311.3522      1.885     4.11      835.349     54.91912     99.26416         5     0.881     0.548 -39.65   0
       454    370.2490    279.8526 307.7721053  +6.5726663     1482.866     2484.223     3055.319     78.22458     155.7071     311.5381      1.767     5.85     832.3281     54.91912     219.2441        17     1.565     0.988  60.29   0
       455    957.5222    279.0369 307.5281353  +6.5926823     1098.851     1741.045      1592.37     77.97742     155.8929     311.5691      1.603     3.70     831.4012     54.91912     175.2325        12     1.116     0.740  -5.09   0
       456    140.4227    275.6737 307.8677287  +6.5666582     1736.002     2814.605     3061.837     77.72948     155.6451     311.5381      1.761     4.12     837.3815     54.91912     241.3179        16     1.267     0.855 -46.21   0
       457    292.9439    275.6725 307.8043636  +6.5717930     1030.134     1790.851     1804.136     77.97742     155.7691     311.5381      1.924     4.52     833.0642     54.91912     141.4822        12     1.030     0.947 -33.13   0
       458    549.9708    271.4817 307.6977193  +6.5821576      2093.88     3394.721      3765.67     77.97742     155.7071     311.5381      1.764     3.43     831.3307     54.91912     319.8212        20     1.313     0.939 -31.12   0
       459    894.0618    270.3493 307.5547941  +6.5941487     1599.458      2910.56     3631.745      78.1011     155.7691     311.5691      2.193     5.63      832.118     54.91912     228.9247        21     1.613     0.990 -29.13   0
       460    713.7968    269.0213 307.6297362  +6.5886651     4697.997     7485.528     7856.042     77.72948      155.521     311.3522      1.677     3.31     833.5963     54.91912     733.1828        32     1.532     1.092 -29.62   0
       461    951.2334    268.9153 307.5310880  +6.5966515      714.098      1057.81     927.6856      78.1011     155.7071     311.5381      1.706     3.75     831.3563     54.91912     144.5068         8     1.012     0.751  87.53   0
       462    654.6638    268.8280 307.6543113  +6.5867638     1902.782     3076.923     3289.315     77.72948      155.831     311.5072      1.685     4.15     832.2355     54.91912      317.649        18     1.508     0.854 -22.85   0
       463    369.1483    263.4011 307.7731182  +6.5794221     705.3149     884.0896     857.2147     77.48075      155.459     311.1351      1.513     2.56     832.0496     54.91912     119.9409         5     0.705     0.465  17.05   0
       464    909.5400    261.4008 307.5486636  +6.5983610     1067.127     1657.167     1760.248     77.35608     155.6451     311.2592      1.847     3.27     831.6985     54.91912     182.4303        11     1.032     0.793 -11.58   0
       465    213.0862    254.2870 307.8382641  +6.5779357     2376.417     3876.944     3907.254     77.85355     156.0167     311.6311      1.734     4.03     834.9401     54.91912      314.647        24     1.385     1.080 -45.85   0
       466    855.9281    253.2651 307.5712123  +6.5999278     1680.356     2530.033     2999.353      78.1011     155.8929     311.6001      1.553     3.95     831.9423     54.91912     239.9452        17     1.282     0.869 -32.92   0
       467    746.6224    252.3100 307.6166600  +6.5966645     1400.725     2397.035     2043.974      78.1011     155.6451     311.4452      1.804     4.69     833.4424     54.91912     235.7301        17     1.473     0.814 -39.21   0
       468    235.0914    247.5969 307.8293481  +6.5814387     577.9662     862.3083     747.0752     77.72948      155.521     311.3212      1.534     4.22     834.3679     54.91912     92.81909         6     0.776     0.654  41.66   0
       469    447.1665    244.0801 307.7413561  +6.5900210     20908.14      34308.3     36723.25     77.97742      155.831     311.6001      1.747     3.71     830.5467     54.91912     2812.866        61     1.763     1.236 -35.81   2
       470    452.9390    238.7797 307.7391366  +6.5924034     1443.762     2180.671     2642.807     77.72948      155.831     311.5072      1.686     4.42     830.3615     54.91912     212.5665        13     1.132     0.786 -25.73   3
       471    773.2332    243.2072 307.6059096  +6.6013140     12212.02     20047.22     22008.56     77.60522     155.7071     311.3832      1.772     3.95     833.0098     54.91912     1726.776        52     1.773     1.172 -26.27   0
       472    711.6068    239.1377 307.6316519  +6.6009308     668.9156     1262.519     1315.255     77.48075     155.6451     311.3522      2.200     3.39     832.5661     54.91912     94.83112         5     0.744     0.448 -70.79   0
       473    135.2357    237.4379 307.8711779  +6.5822707     2129.808     3330.247     3490.349     77.85355     155.7071     311.3522      1.696     3.92     836.3945     54.91912     346.1467        22     1.466     0.906 -25.15   0
       474    110.1139    236.1412 307.8816588  +6.5819596      1080.13     1775.293     2354.758      78.1011      155.831      311.693      1.685     5.23       837.15     54.91912     156.9992        14     1.360     0.840 -53.77   0
       475    162.4399    234.9574 307.8599596  +6.5842113     521.1938     829.3768     623.7801     77.85355      155.831     311.4452      1.690     4.21     835.5039     54.91912      71.4483         5     0.786     0.642  -6.71   0
       476    909.4729    233.7189 307.5496214  +6.6097888     1477.485     2195.076     2281.852     78.34787     156.1404     311.6001      1.607     3.65     830.7274     54.91912     247.8148        14     1.212     0.742 -30.49   0
       477    571.2573    229.8037 307.6902800  +6.6000806     4276.349     6886.119     7563.641     77.48075     155.7071     311.2592      1.721     3.46     830.1682     54.91912     660.9535        34     1.598     1.109 -25.38   0
       478    291.4694    230.5311 307.8065018  +6.5903821     1016.425     1826.321     2214.296      78.1011     155.9548     311.5381      2.201     5.18     832.9005     54.91912     163.3732        12     1.401     0.789 -56.60   0
       479    533.8000    229.7476 307.7058449  +6.5988472     1891.526     3024.843      3120.72     77.35608     155.3347     311.1041      1.723     3.57     829.7591     54.91912     305.1482        19     1.284     0.905 -38.19   0
       480    117.2198    231.4667 307.8788649  +6.5841290     1609.624     1591.516     2268.928     77.72948      155.831     311.4762      0.754     1.04     836.7776     54.91912     617.7045         5     0.570     0.414 -86.89   0
       481    878.2390    226.4428 307.5628436  +6.6117490     10695.14     16454.78     17231.73     77.85355     155.8929     311.4452      1.667     3.40     830.6495     54.91912     1676.813        39     1.561     1.072 -33.87   0
       482    375.4727    228.8573 307.7716571  +6.5938977     1496.889     2495.093     2608.072     78.22458      155.831     311.5381      1.739     4.25     831.3696     54.91912     212.9894        15     1.354     0.732 -28.85   0
       483    932.2545    226.9344 307.5403834  +6.6133516     2542.556     3949.402      3590.09      78.1011     155.7691     311.5381      1.629     3.65     830.3348     54.91912     394.0523        24     1.432     0.949 -32.30   0
       484    305.6563    227.2461 307.8007185  +6.5922156     926.1796     1502.659      2293.13      78.1011      155.831     311.6311      1.819     5.82     832.5848     54.91912      137.053        12     1.210     0.788 -27.03   0
       485    553.1902    226.6320 307.6978936  +6.6007841     876.8401     1264.077     1702.799     77.60522     155.5831     311.4142      1.673     4.56     829.7847     54.91912     138.7954         9     1.142     0.620  -3.87   0
       486    197.0754    226.3370 307.8458614  +6.5889369     543.8884     982.0026       1280.5     78.34786      155.831     311.5381      2.200     4.18     834.7776     54.91912     88.24866         5     1.053     0.473 -64.33   0
       487      4.5084    222.8906 307.9259821  +6.5838697     23313.97     38649.44     41884.44      78.1011     156.3257     279.6025      1.818     3.74     838.4714     54.91912     3334.653        67     1.801     1.264 -34.26  24
       488    964.9327    224.3257 307.5268930  +6.6155206     9290.535     14410.51     15119.68     78.22458     155.9548     311.5381      1.628     3.56     830.2217     54.91912     1414.801        39     1.539     1.087 -32.22   0
       489    676.3474    224.3943 307.6467983  +6.6058373     2655.115     4261.125     4628.493     77.60522     155.5831     311.2592      1.750     3.78     832.0219     54.91912     376.4723        25     1.359     1.038 -29.87   0
       490    250.5024    223.7392 307.8237520  +6.5918080     1059.496     1803.031     1681.751     77.85355      155.831      311.662      1.823     6.77     833.7805     54.91912     150.5583        15     1.294     1.024 -22.43   0
       491    484.7053    219.1592 307.7266003  +6.6015713     1874.097     2832.108     3009.013      78.1011     155.7691      311.693      1.642     3.87     829.4627     54.91912     246.3893        18     1.338     0.847 -23.80   0
       492    816.7957    215.9265 307.5887269  +6.6140362     1919.334     3069.009     3105.456     77.72948     155.3969     311.4452      1.649     4.23     831.3798     54.91912     326.6587        20     1.398     0.998 -26.90   0
       493    869.0306    214.9000 307.5670576  +6.6162072     1984.876     2910.827     3074.708      78.1011     155.5831      311.662      1.573     4.31     830.3987     54.91912     285.5067        18     1.443     0.871 -39.50   0
       494    728.4919    212.3594 307.6255374  +6.6125532     37621.37     59098.88      62969.4      78.1011     155.7691     311.6311      1.743     3.72     831.5112     54.91912     5911.162        71     1.712     1.226 -35.25   0
       495    496.7468    215.0145 307.7217369  +6.6036869     2435.459     3859.191     4184.535     77.48075     155.7691     311.3212      1.654     3.90      829.388     54.91912     326.5543        23     1.398     1.010 -40.82   0
       496    331.6150    211.5726 307.7904629  +6.5995601     5467.333     11585.48     13293.52     77.72948     155.6451     311.4762      2.266     5.78     832.0377     54.91912     637.5837        57     2.101     1.400 -63.79   0
       497    962.2735    211.1961 307.5284388  +6.6208531     2662.108     4313.173     4585.836     77.60522     155.3969     311.4452      1.772     3.77      829.677     54.91912     378.2614        25     1.473     0.980 -28.92   0
       498    896.3380    209.5429 307.5558912  +6.6193322     7307.766     11256.83     12207.36     78.22458     155.7691     311.6001      1.727     3.47     830.0547     54.91912     1196.103        36     1.503     1.106 -29.72   0
       499    439.8586    208.5961 307.7455899  +6.6044268     4501.895      7557.79     7865.709     77.48075     155.7071     311.3212      1.786     3.54     829.8353     54.91912     685.2536        33     1.513     1.172 -33.34   0
       500   1000.3405    209.9122 307.5126646  +6.6226547     1641.343     2224.719     2232.109      78.1011     155.8929      311.662      1.441     3.45     829.4409     54.91912     314.1768        13     1.287     0.664 -32.95   0
       501    214.2420    205.5334 307.8394329  +6.5981045     695.3331     902.6455     914.8986      78.1011     155.7691     311.6311      1.575     5.04     834.1703     54.91912     117.2519         9     1.154     0.749 -52.09   0
       502     97.2793    199.7256 307.8882242  +6.5965625     4447.953      7447.35     7996.182     78.34787     156.0786     311.6311      1.823     3.79     836.4403     54.91912     639.4929        37     1.664     1.127 -31.65   0
       503    916.3572    199.0662 307.5479249  +6.6243274     757.5858     1170.053     1955.783      78.1011     155.7691     311.6001      1.712     5.04     829.5717     54.91912     117.9294         7     1.106     0.649 -42.25   0
       504    267.6544    196.4451 307.8175486  +6.6036547     30892.44     51654.43     55879.73      78.1011      155.831     311.6001      1.846     3.88     833.2395     54.91912     4469.369        74     1.774     1.333 -32.84   0
       505    242.9267    197.5826 307.8277840  +6.6023529     5916.951     9908.768     10647.06     77.60522     155.7691     311.5072      1.808     3.94     833.6472     54.91912     893.3029        39     1.683     1.121 -30.90   0
       506    696.5878    195.9899 307.6393446  +6.6182437     949.4336     1234.706     1183.408     77.85355     155.6451     311.5072      1.391     3.24     830.7729     54.91912     163.0471         9     0.914     0.670 -18.76   0
       507    391.6687    192.0088 307.7661722  +6.6096566     44819.96     75055.23     81447.38     77.60522     155.5831     311.4762      1.805     3.63     830.3638     54.91912     6342.376        81     1.779     1.316 -33.99   0
       508    147.5580    193.3595 307.8675504  +6.6008853     3672.666     5979.867     6156.891     77.85355      155.831     311.4452      1.762     3.55     834.6695     54.91912     522.6406        29     1.439     1.110 -44.75   0
       509    408.9616    192.5450 307.7589691  +6.6100163       1257.6     2143.493     2334.232      78.1011     155.8929     311.5691      1.852     4.90     829.8519     54.91912     169.5084        18     1.322     1.071 -20.45   0
       510    295.6717    189.6920 307.8061361  +6.6073856     16434.48     27453.38     29770.91     77.97742     156.0167     311.5691      1.815     3.79     832.7742     54.91912     2419.917        62     2.024     1.225 -30.42   2
       511    302.6468    189.9675 307.8032288  +6.6075065     1999.471     3547.126      4421.41     77.85355      155.831     311.5072      2.206     4.72      832.631     54.91912     256.7878        21     1.584     0.935 -34.62   3
       512    730.9507    188.2744 307.6253263  +6.6225804     30989.04     49364.86     52551.39      78.1011     155.8929     311.6001      1.707     3.59     830.3591     54.91912     4639.699        61     1.678     1.190 -32.49   0
       513    678.7321    190.1256 307.6469612  +6.6200669     901.9907     1337.557     1321.105     78.22458     155.9548     311.5381      1.713     4.20     830.5234     54.91912     125.7435        10     0.934     0.824 -54.65   0
       514    779.3344    188.8737 307.6052022  +6.6239528      1157.84     1953.024     1661.933     78.22458      155.831     311.5691      1.744     4.69     830.3456     54.91912      172.235        12     1.336     0.598 -48.94   0
       515     17.5182    188.9629 307.9217270  +6.5983167     632.3813     1137.365     1277.785      78.1011     155.8929     311.5381      2.000     3.80     838.3563     54.91912     95.03198         7     0.995     0.741   8.89   0
       516     47.7822    185.4374 307.9092727  +6.6007931     8371.691     13975.64      15062.5     77.72948     155.7071     311.3212      1.832     3.77     837.4582     54.91912     1218.284        51     1.711     1.234 -29.30   0
       517     81.3236    183.7524 307.8953943  +6.6026198     1430.101     1994.945     1604.671     77.97742     155.8929     311.5381      1.448     3.75     836.4369     54.91912     237.8231        14     1.197     0.758 -16.24   0
       518    989.4641    182.8678 307.5180917  +6.6334584     959.7101     1468.977     2022.126      78.1011      155.831     311.6311      1.608     4.75     828.1153     54.91912     155.6385        10     1.246     0.640 -19.40   0
       519    715.0642    176.3507 307.6323286  +6.6269717     608.5182     896.7834     1084.981     77.97742     155.7691     311.6311      1.695     4.53     829.8202     54.91912     95.70227         6     0.921     0.632 -67.67   0
       520    564.6590    172.9190 307.6949390  +6.6233470     813.6241     1143.949      1205.02     78.22458     155.8929     311.5691      1.542     2.66     829.0026     54.91912     154.1887         7     0.920     0.590  -3.67   0
       521    990.2314    168.9813 307.5182389  +6.6392179     1959.678     3141.986     3927.451     77.72948     155.6451     311.4452      1.703     3.76     827.3798     54.91912     267.8503        17     1.307     0.830 -39.85   0
       522    573.1516    166.6251 307.6916225  +6.6262307     960.9249     1443.516     1748.029     77.72948      155.831     311.4762      1.865     4.50     829.0223     54.91912     124.5602        10     0.973     0.810 -16.68   0
       523    581.5821    164.6042 307.6881876  +6.6273479     1758.121     2572.753     2580.898     77.72948      155.459     311.3832      1.615     3.96     829.1267     54.91912     303.3305        18     1.323     0.890 -37.77   0
       524    325.6176    164.8324 307.7945340  +6.6186572     903.7616     1517.376     1294.066     77.72948     155.6451     311.4452      1.716     4.49     832.1604     54.91912     136.3905        12     1.186     0.864 -59.30   0
       525    266.5614    162.7490 307.8191419  +6.6175308     27605.83     46329.44     50459.76     77.85355     155.7691     311.5381      1.833     3.86     833.0637     54.91912     4073.082        75     1.815     1.311 -32.15   0
       526     11.7088    161.2388 307.9250803  +6.6095675     4045.774     6810.623     7454.497     78.22458     155.7691     311.6001      1.824     3.62     838.6566     54.91912     576.6714        34     1.487     1.170 -30.70   0
       527    698.1977    159.4625 307.6399054  +6.6333799     7415.209     11896.45     12874.83     77.48075     155.6451     311.3212      1.719     3.80     829.0865     54.91912     1108.577        40     1.608     1.099 -34.13   0
       528    175.1748    160.8165 307.8571775  +6.6152522     845.2286     1362.774      909.515     77.85355     155.7071     311.5072      1.524     5.20     833.3091     54.91912     121.7133        10     1.407     0.543 -46.01   0
       529    108.9258    156.4785 307.8848498  +6.6148112     4434.192      7242.99     7127.566     78.34786     156.0786     311.6001      1.745     3.70     834.7305     54.91912     582.8828        35     1.708     1.070 -35.44   0
       530    251.8582    157.6674 307.8254228  +6.6191341     828.7058      1157.67     951.1616     78.22458     155.7691     311.5691      1.514     5.79     833.1439     54.91912     132.9442        10     1.093     0.865  12.26   0
       531    570.1936    154.6454 307.6932553  +6.6310779      737.265     1274.774     1061.157     77.60522     155.5831     311.2282      1.771     3.92     828.6429     54.91912     133.5001         6     0.920     0.577  72.23   0
       532    447.7375    153.8001 307.7441656  +6.6273165     1310.122     2090.541      1977.97     77.35608     155.5831     311.2282      1.743     4.42     828.2962     54.91912     162.6019        13     1.216     0.751 -33.96   0
       533    379.7421    152.4648 307.7724631  +6.6255833     3500.679     6863.889     7043.874     78.22458     155.7691     311.6001      2.076     4.53     830.2714     54.91912     470.2711        38     1.769     1.260 -38.36   0
       534    636.8317    153.1441 307.6656168  +6.6339324     722.4683     986.5293     791.6754     77.97742      155.831     311.5072      1.327     4.13     829.0135     54.91912     132.9366         7     0.922     0.528 -41.05   0
       535    344.0729    151.2491 307.7873248  +6.6248862      2821.11      4701.53     4731.319      78.1011     155.8929     311.6001      1.750     4.59     831.8461     54.91912     385.6321        26     1.559     0.949 -38.52   0
       536    555.8438    151.9219 307.6993097  +6.6317210     614.0685     1002.349     1337.744     77.97742      155.831     311.6001      1.989     4.34     828.3431     54.91912     105.7686         6     1.229     0.437 -52.65   0
       537     98.2093    151.5240 307.8894702  +6.6164956     1763.217     2731.594     2544.196     77.72948     155.3969     311.3832      1.694     4.11     834.9368     54.91912      250.413        17     1.219     0.962  -8.99   0
       538    659.9498    148.8464 307.6561556  +6.6364817      621.754     1135.965     894.1322      78.1011     155.7071     311.6311      2.054     5.61     828.7681     54.91912     79.78351         9     1.446     0.614 -52.02   0
       539    990.4696    145.6469 307.5189232  +6.6488608     1529.361     2160.814     2073.678      78.1011     155.7691     311.5691      1.472     3.97     826.0737     54.91912     244.5486        14     1.266     0.747 -29.76   0
       540    716.6735    145.4175 307.6327012  +6.6397980     614.1942     739.2597     843.6768     77.60522     155.7691     311.4762      1.386     3.45     828.3833     54.91912     95.56799         5     0.772     0.446 -19.45   0
       541    195.8831    140.2892 307.8492680  +6.6244250     4946.737     8207.085     8913.333     77.85355     156.0786     311.6001      1.797     3.88     833.0778     54.91912     680.8365        36     1.669     1.106 -32.05   0
       542    657.6843    139.2149 307.6574213  +6.6403827     5784.095      9255.32      9812.07     77.72948     155.5831     311.4762      1.702     3.49     828.3245     54.91912      919.864        36     1.577     1.077 -26.10   0
       543     78.3398    140.0963 307.8981127  +6.6205442     1940.247     3427.361     4054.773     77.85355      155.831      311.662      1.984     4.62     835.4982     54.91912      243.426        27     1.568     1.110 -41.21   0
       544    805.6101    138.9113 307.5959645  +6.6454619      1074.08     1488.786     1782.163     77.72948      155.521     311.3522      1.485     4.97     827.7697     54.91912     182.3094        12     1.099     0.839   2.76   0
       545    609.8359    136.4521 307.6773965  +6.6399194      8859.36     14184.31     15389.03     77.97742      155.831     311.5381      1.735     3.59     828.2859     54.91912     1311.766        44     1.661     1.135 -32.99   3
       546    613.4449    127.9458 307.6761835  +6.6435527      49920.9     80101.66     86052.84      78.1011      155.831     311.6001      1.754     3.65     827.9023     54.91912      7355.73        80     1.746     1.292 -31.69   3
       547    243.7205    136.8721 307.8295072  +6.6274464     592.5522       757.02     229.0306     78.34786     156.0786     311.5691      1.218     3.49     833.1928     54.91912     102.7152         5     1.013     0.346 -46.69   0
       548    547.6537    135.9171 307.7032524  +6.6380546     640.2352      859.476     1054.502      78.1011      155.831      311.662      1.698     3.52     827.7138     54.91912     114.0176         5     1.022     0.350 -45.31   0
       549      8.1946    135.5197 307.9274121  +6.6200680     932.5603     1674.255     1351.469     77.72948     155.3969     310.7006      1.769     5.52     838.7856     54.91912     122.7407        13     1.397     0.733 -56.00  16
       550    337.0312    132.0023 307.7909009  +6.6325963     3349.958     6283.925     7327.647     77.48075     155.6451     311.3522      2.077     4.75     832.0718     54.91912     414.3834        35     1.715     1.154 -38.94   0
       551    982.7029    131.2693 307.5226333  +6.6545380     742.8175     1339.898     1120.523     77.97742     156.0167     311.5691      1.973     5.08     825.3406     54.91912      103.312         9     1.350     0.542 -40.03   0
       552    518.8078    131.5567 307.7153855  +6.6388870     1451.362     2404.921     2795.687     77.60522     155.6451     311.2902      1.795     4.75     827.7117     54.91912     214.9028        16     1.334     0.809 -33.29   0
       553    292.4509    121.6827 307.8097732  +6.6353578     3242.259     5478.302     5993.474      78.1011     155.7691     311.6311      1.853     4.15     832.8675     54.91912     410.2659        33     1.680     1.091 -34.11   0
       554    692.5628    116.2143 307.6437029  +6.6510484     874.5962     1559.299     1168.425     77.72948     155.6451     311.3522      1.673     4.16     827.1809     54.91912     165.2225        11     1.276     0.630 -33.17   0
       555    663.8494    115.1808 307.6556690  +6.6505130     1139.632     1963.985     1756.324     77.60522     155.8929     311.4142      1.670     6.06     827.2413     54.91912     159.1813        17     1.639     0.718 -17.13   0
       556    677.7987    111.8756 307.6499840  +6.6523452     2840.623     4658.906      4790.45     77.35608     155.2726     311.4142      1.707     4.05      827.076     54.91912     497.0762        24     1.523     0.925 -29.67   0
       557      1.9735    100.4467 307.9311858  +6.6343391     767.1248     2161.768     5166.089     74.69001     133.0449     244.5819      6.298    14.32     839.0998     54.91912     133.4731        51     5.564     1.025  88.40  24
       558    419.4756    102.8494 307.7576287  +6.6474045     3774.092     6189.934     6303.667     77.97742     155.8929     311.5691      1.762     3.69     827.6929     54.91912     543.3354        29     1.502     1.035 -22.41   0
       559    892.1355     98.4220 307.5613711  +6.6650743     3802.506     5926.016     5902.505     77.72948      155.831     311.4452      1.685     3.71     825.0443     54.91912     584.9374        24     1.464     0.918 -26.99   0
       560    874.0078     99.3038 307.5688744  +6.6641041     1982.439     2869.021     2818.976     77.85355      155.459     311.3522      1.484     4.10     825.2737     54.91912     296.7306        17     1.390     0.909 -20.54   0
       561    583.8602     96.9605 307.6895210  +6.6553543     1627.867     2648.491     2846.094      78.1011      155.831     311.6311      1.852     3.32     826.4387     54.91912      244.304        17     1.122     0.945 -18.16   0
       562    603.9247     96.4361 307.6812012  +6.6562438     480.8377     749.0965     323.1015     77.97742     155.8929     311.6001      1.479     3.94     826.4121     54.91912     84.01678         5     0.903     0.493  -4.05   0
       563    382.7126     94.8754 307.7731738  +6.6494615     1731.994     2646.405     3016.406      78.1011     156.1404      311.662      1.599     4.14     829.9485     54.91912     285.6564        19     1.361     0.949 -25.76   0
       564    229.5768     96.2652 307.8367574  +6.6437365     673.4619     1080.662     1070.724     77.72948      155.831     311.4452      1.537     3.38     833.2827     54.91912      89.5813         5     0.731     0.453 -69.82   0
       565    130.9709     91.5125 307.8778900  +6.6423777     2931.739     4796.491     4931.054     78.22458     155.5831     311.4452      1.736     3.99     832.4095     54.91912      413.629        26     1.489     1.024 -42.21   0
       566     12.7120     89.3973 307.9270986  +6.6392635     11392.56     18932.55     21265.85     77.48075      155.459     311.3212      1.838     3.60     837.8796     54.91912     1634.482        59     1.742     1.285 -31.62   0
       567    279.1252     90.1647 307.8163757  +6.6479229     1224.613     2003.807     1865.418     77.97742     155.8929     311.5691      1.756     5.30      833.041     54.91912     165.6206        15     1.330     0.807 -24.27   0
       568    539.3153     89.4920 307.7082827  +6.6569436     804.1417     1262.462      942.325     77.85355      156.264      311.662      1.637     4.18     826.2822     54.91912       118.58         8     0.840     0.771  88.99   0
       569    747.3626     88.9963 307.6218477  +6.6641222     745.1892     1276.426     1810.885     77.23121     155.6451     311.3832      1.798     3.67     825.7878     54.91912     122.8329         7     0.925     0.607  33.44   0
       570    970.0641     88.0204 307.5293374  +6.6719736     579.2878     893.1354     560.5939     77.72948      155.831     311.4452      1.823     4.41     823.2677     54.91912     89.66779         6     1.268     0.437 -35.87   0
       571    814.5195     84.0961 307.5941059  +6.6683935     5774.209     9294.449     10054.91     77.85355     156.0786      311.662      1.749     3.65     825.0435     54.91912     868.1868        36     1.603     1.127 -27.11   0
       572    404.3388     85.2108 307.7645140  +6.6541787      1071.84      1767.63     1570.352     77.48075     155.7071     311.2902      1.696     4.36     828.4991     54.91912     170.3016        12     1.318     0.805 -32.17   0
       573    572.0788     98.9340 307.6943501  +6.6541443     749.5972     975.7457      709.095     78.22458     155.9548     311.5381      1.402     4.53     826.5157     54.91912     108.6551         8     1.131     0.515 -35.88   0
       574    759.7003     84.3667 307.6168767  +6.6664469      3083.74     4843.581     5067.452      78.1011     155.7071      311.724      1.689     4.02      825.514     54.91912     529.0566        25     1.570     0.918 -31.02   0
       575    521.7994     82.3609 307.7158017  +6.6593002     1172.488     1984.799     2514.536     77.23122     155.6451     311.2902      1.999     4.99     826.2768     54.91912     182.5071        16     1.474     0.886 -23.39   0
       576     52.9551     81.1294 307.9106577  +6.6440346     2850.955     4575.488      5033.69      78.1011      155.831     311.5691      1.681     3.87     835.2047     54.91912     382.7798        25     1.412     1.017 -38.42   0
       577     37.2569     82.4867 307.9171344  +6.6429447     862.0532     1235.681     909.8688      78.1011      155.831      311.693      1.545     4.97     836.1111     54.91912     112.5248         9     1.012     0.690 -34.92   0
       578    414.1233     80.9576 307.7605919  +6.6562637      805.217     1228.579     1465.353     77.97742      155.831     311.6001      1.704     5.47     827.8076     54.91912     113.8577        10     1.189     0.710 -36.09   0
       579    576.4153     78.3087 307.6932434  +6.6628059     1144.122     1892.044     1367.319     77.85355     155.6451     311.4762      1.722     5.39     825.8962     54.91912     169.3682        11     1.432     0.572 -45.02   0
       580    753.9406     72.1328 307.6196818  +6.6713054     1769.768     2726.993     2710.451     78.22458     155.7691     311.5691      1.606     3.52     825.2016     54.91912     275.9518        15     1.170     0.851 -22.14   0
       581    394.6596     72.0284 307.7689812  +6.6592964     1113.586     1860.806     1940.904     77.72948     155.8929     311.5072      1.809     4.36     829.1114     54.91912     146.7209        14     1.200     0.821 -33.27   0
       582     91.0841     71.0806 307.8951553  +6.6494693     841.9333     1091.437       1556.5     77.97742     156.0786     311.6311      1.493     5.28      832.883     54.91912      124.671         9     1.048     0.750 -67.01   0
       583     80.8069     65.6144 307.8996108  +6.6513797     8535.282     14501.69     15719.44     77.72948     155.5831     311.4142      1.840     3.85     833.1875     54.91912     1193.734        47     1.649     1.278 -31.62   0
       584    409.7852     65.5124 307.7629160  +6.6624951     2432.779     3898.258     4005.914     77.85355     155.6451     311.4142      1.775     3.83     828.0718     54.91912     359.3958        24     1.433     1.003 -30.64   0
       585    623.6107     57.7044 307.6743261  +6.6728961     17189.05     27680.24     29968.75     77.85355      155.459     311.3522      1.765     3.64     825.4138     54.91912     2757.826        58     1.692     1.226 -34.42   0
       586    247.4344     59.5669 307.8305786  +6.6594899     1392.747     2304.331     3350.125     77.72948     155.5831     311.3212      1.931     5.10     833.3906     54.91912     193.7828        15     1.288     0.923 -25.13   0
       587    652.6095     59.0444 307.6622305  +6.6733150     554.5864     579.4583     610.9559     77.60522     155.7071     311.2902      1.312     4.22       825.44     54.91912     90.98883         5     1.018     0.559 -15.63   0
       588    523.3719     53.6906 307.7161152  +6.6711908     4845.159     7697.465     7788.462     78.22458     155.5831     311.4452      1.730     3.83     825.2416     54.91912     714.7191        30     1.507     1.045 -35.17   0
       589    241.5135     53.9060 307.8332303  +6.6616279     1798.989     3103.368     4348.007      78.1011      156.264     311.6311      2.013     4.83     833.4357     54.91912     258.3811        22     1.514     1.026 -39.42   1
       590    679.0051     52.8580 307.6514702  +6.6767540     504.8841     1045.355     1952.968     77.60522     155.7071     311.2902      2.581     3.08     825.2454     54.91912     103.6184         5     0.792     0.486  64.09   0
       591    428.9266     49.3044 307.7555093  +6.6698304     20494.54     33894.94     35929.69     77.85355     155.9548     311.5691      1.781     3.83     827.1357     54.91912     2787.624        60     1.738     1.227 -34.82   0
       592    609.9705     48.1291 307.6803170  +6.6763924     2721.932     5246.534     5760.257     77.97742      155.831     311.5691      2.119     5.34     825.1509     54.91912     482.2979        36     1.806     1.364  79.45   0
       593    249.5480     49.6672 307.8300351  +6.6636485     8387.832     14076.59     15665.97     77.97742     155.7691     311.5072      1.857     3.84     833.4442     54.91912     1257.564        42     1.649     1.184 -35.43   0
       594    309.0504     50.3671 307.8052863  +6.6653617     949.2363      1627.07     2044.735     77.97742     155.8929     311.5072      1.920     5.05     832.9523     54.91912      132.019         9     1.071     0.674  39.49   0
       595    906.7549     49.3740 307.5569441  +6.6858152     1823.032     2754.194     2803.367     77.60522     155.8929     311.4452      1.620     3.86     823.3722     54.91912     310.7118        17     1.357     0.799 -37.23   0
       596    494.7092     50.8244 307.7281226  +6.6714121     549.4804     863.6855     466.8322     78.22458     155.6451     311.4142      1.412     3.72     825.2654     54.91912     90.64386         5     1.053     0.377  -3.04   0
       597     14.7580     49.1211 307.9276138  +6.6559618     2177.606     3350.964     2922.459     77.97742      155.831     311.5691      1.655     3.96     835.0474     54.91912     266.1141        22     1.331     1.016 -39.02   0
       598    237.4893     46.1567 307.8351646  +6.6646921     2875.099     4646.583     4995.546      78.1011     155.7071     311.6001      1.719     4.02     833.4848     54.91912     356.3997        25     1.445     0.998 -34.09   0
       599    290.5861     44.3491 307.8131624  +6.6672253     949.8029     1641.017      1821.53     77.48075      155.831     311.3212      1.752     6.47     833.3952     54.91912     119.4275        13     1.416     0.829 -38.52   0
       600    926.8367     40.0928 307.5489107  +6.6903187     835.1214     1312.834     1267.835     78.22458     155.7071     311.6311      1.542     5.08     823.0275     54.91912     107.2286        13     1.099     1.022 -29.21   0
       601    678.6797     39.1961 307.6520655  +6.6823841     1777.851     2739.299      2937.77     77.72948     155.3347     311.3212      1.670     3.69     824.8759     54.91912     233.4038        20     1.232     1.031 -31.93   0
       602    189.8703     34.6220 307.8553420  +6.6678512     678.9989     1040.969     1140.595     77.72948     155.7691     311.5691      1.645     5.11     832.4551     54.91912     101.9712         7     1.068     0.798 -31.76   0
       603    244.3218     33.8968 307.8327402  +6.6699840     727.7764     1358.421     1761.588     77.85355     156.0167     311.6311      1.975     5.07     833.5428     54.91912     113.7153         8     1.317     0.553   1.93   0
       604    166.9951     31.7035 307.8649461  +6.6682857     9858.793     16146.95     17129.95     77.85355      155.521     311.3212      1.753     3.64     831.7339     54.91912     1390.973        46     1.623     1.200 -37.76   0
       605    511.0060     29.9961 307.7220532  +6.6805591     2734.744     4381.279     4635.792     77.48075      155.521     311.4452      1.661     3.51     824.3558     54.91912     380.5361        25     1.478     0.956 -37.34   0
       606    912.5067     29.5493 307.5552200  +6.6941932     3803.543     5823.731     5727.467     77.97742     155.7071     311.7549      1.622     3.21     822.7755     54.91912     651.3636        24     1.418     0.951 -36.89   0
       607    449.2341     28.3847 307.7477769  +6.6791502     1600.279     2786.292     2755.566     77.72948     155.5831     311.4452      1.810     4.72     825.8964     54.91912     236.5619        22     1.609     0.958 -45.39   0
       608    713.4750     28.0217 307.6379823  +6.6881637     1811.783     2869.291     2989.781     77.72948     155.7071     311.5072      1.678     4.14     824.3608     54.91912     258.7352        22     1.408     0.987 -35.70   0
       609    977.3019     25.8316 307.5284178  +6.6978935     1777.974     2873.878     3063.873      78.1011     155.6451      311.693      1.766     4.56     820.3816     54.91912     270.9072        20     1.498     0.873 -34.24   0
       610    962.3989   1021.9149 307.5011850  +6.2861002     596.9984     884.2633     1044.423     77.35608     145.9816     260.7033      1.761     4.29     851.3469     54.91912     94.08722         6     1.336     0.393  20.66  16
       611    616.9153     21.4486 307.6783302  +6.6876416     3473.808     5665.568     5690.038      78.1011      155.831     311.6001      1.735     3.82     824.4413     54.91912     525.4517        28     1.526     1.015 -27.24   0
       612    503.7959   1015.2459 307.6918354  +6.2735045     941.8811     1698.261     1714.562     77.48075     155.5831     311.2592      1.840     7.56     857.9282     54.91912     138.0599        17     1.813     0.882 -29.91  16
       613    533.5330   1013.6964 307.6795401  +6.2751417     4053.561     6696.262     7618.616      78.1011     155.8929     311.6001      1.834     3.94     857.9402     54.91912     556.5441        35     1.684     1.148 -39.43  16
       614    663.8663     16.4974 307.6589859  +6.6912599     886.5746     1513.944     1601.499      78.1011     155.8929     311.6311      1.897     4.73     824.3099     54.91912     127.5608        10     1.229     0.607 -34.52   0
       615    283.8287   1012.3892 307.7832658  +6.2672973      13023.7     22558.16     25067.23     77.60522     155.6451     311.4142      1.906     4.35      858.181     54.91912     2020.553        58     1.935     1.219 -33.39  16
       616    738.0281   1013.1415 307.5946464  +6.2822218     7051.003     12105.95     12778.36     77.72948     155.8929     311.4762      1.831     3.72     856.6306     54.91912     926.8457        41     1.650     1.180 -35.13  16
       617    799.0092   1012.7109 307.5693394  +6.2844399     1014.155     1564.697     1825.846     77.72948      155.521     311.3522      1.566     4.29      853.439     54.91912     160.0095        11     1.239     0.767 -51.96   0
       618    407.8414   1013.2059 307.7317464  +6.2711265     898.8687     1438.795     991.7209     77.35608      155.521     311.2902      1.654     3.28      857.486     54.91912     133.3089         6     0.736     0.571 -32.60   0
       619    254.7208   1010.0901 307.7954293  +6.2672679     958.8298     1478.126     1292.702     77.85355     156.0786      311.662      1.702     5.84     857.3388     54.91912     146.1945        11     1.188     0.808 -35.78   0
       620    899.3342   1006.6617 307.5278836  +6.2902918     7479.738     13164.14     14029.59      78.1011     155.7691     311.5691      1.912     4.00     852.7621     54.91912     926.4038        47     1.777     1.239 -31.62   0
       621    530.7128   1005.9352 307.6809725  +6.2782517     7647.542     12578.88     14514.81      78.1011     156.0167     311.5691      1.815     3.71     857.6496     54.91912     1105.519        40     1.668     1.122 -34.53   0
       622    872.9985   1002.8595 307.5389468  +6.2909816     10655.13     19461.14     21829.38     77.48075     155.5831     311.2902      1.972     4.11     852.6041     54.91912     1452.597        58     1.830     1.356 -29.92   0
       623    994.7917   1002.3466 307.4883901  +6.2952618     3981.454     7513.304      8352.98     77.60522     155.7071     311.2902      2.005     3.98      849.093     54.91912     552.6924        39     1.668     1.314 -36.81   0
       624    585.3226   1003.0624 307.6583936  +6.2812688       1222.9     1964.583     2014.762     78.34786     155.8929     311.5381      1.669     3.92     856.8405     54.91912     195.7343        13     1.126     0.844 -71.08   0
       625    517.0526   1001.8375 307.6867826  +6.2794856     3868.719     6536.415     7261.613     77.97742      155.831     311.5691      1.844     3.67     857.4974     54.91912     549.1515        34     1.668     1.112 -30.17   0
       626    626.7803   1001.0652 307.6412463  +6.2834829     1401.046     2337.534     2280.037     77.72948      155.831     311.4142      1.621     4.82     856.2849     54.91912      216.459        21     1.578     0.894 -37.61   0
       627     50.9826   1000.7026 307.8803397  +6.2642861      760.683     1257.515     1424.522     77.97742     155.6451     311.3522      1.961     4.84      853.321     54.91912     110.4537         7     0.955     0.696   8.20   0
       628    470.2640    998.2943 307.7063298  +6.2793788     2113.737     3353.832     3001.784     77.97742     155.8929     311.6001      1.749     4.64     857.3403     54.91912     291.1084        22     1.524     0.914 -38.55   0
       629    378.4356    997.4957 307.7444861  +6.2766257     559.5366     841.8459     1149.938     78.22458     155.7071      311.693      1.609     4.69     856.5292     54.91912     120.7018         6     0.967     0.838  57.69   0
       630    904.7631    990.4133 307.5261744  +6.2971824     37968.54     67156.61     73222.98     77.60522     155.6451     311.2902      1.905     3.92     852.3842     54.91912     4732.918        80     1.821     1.407 -37.87   0
       631    309.2526    991.4948 307.7734147  +6.2767791       576.54     779.0496     874.6331     77.97742     155.7691     311.8168      1.517     3.40     857.1778     54.91912       93.216         5     0.751     0.446  21.98   0
       632    211.6194    988.6672 307.8140491  +6.2746636     1583.796     2330.665     2104.958     77.72948      155.831     311.4762      1.611     3.48     855.5312     54.91912     218.9539        13     1.096     0.771 -42.84   0
