#   1 NUMBER                 Running object number                                     
#   2 X_IMAGE                Object position along x                                    [pixel]
#   3 Y_IMAGE                Object position along y                                    [pixel]
#   4 ALPHA_J2000            Right ascension of barycenter (J2000)                      [deg]
#   5 DELTA_J2000            Declination of barycenter (J2000)                          [deg]
#   6 FLUX_APER              Flux vector within fixed circular aperture(s)              [count]
#   9 FLUXERR_APER           RMS error vector for aperture flux(es)                     [count]
#  12 FLUX_RADIUS            Fraction-of-light radii                                    [pixel]
#  13 FWHM_IMAGE             FWHM assuming a gaussian core                              [pixel]
#  14 BACKGROUND             Background at centroid position                            [count]
#  15 THRESHOLD              Detection threshold above background                       [count]
#  16 FLUX_MAX               Peak flux above background                                 [count]
#  17 ISOAREA_IMAGE          Isophotal area above Analysis threshold                    [pixel**2]
#  18 A_IMAGE                Profile RMS along major axis                               [pixel]
#  19 B_IMAGE                Profile RMS along minor axis                               [pixel]
#  20 THETA_IMAGE            Position angle (CCW/x)                                     [deg]
#  21 FLAGS                  Extraction flags                                          
         1    174.3725     24.6098 307.8651107  +6.6682069     11053.73     16546.03     16917.66     77.78992     155.7661     311.6873      1.638     3.57     828.4551     54.96182     1676.045        39     1.552     1.025  59.12   0
         2    920.0472     22.4271 307.5553957  +6.6941495     4342.554     6363.485     6640.538     77.78992     156.0142     311.7494      1.539     3.53      816.119     54.96182     739.9008        26     1.408     0.932  61.18   0
         3    984.7880     18.6447 307.5286249  +6.6978760     2122.299     3234.684     3618.997     77.66556     155.7661     311.5322      1.674     3.61     812.9812     54.96182     365.2161        17     1.309     0.805  68.24   0
         4    704.2269     15.1344 307.6453063  +6.6899322     7609.332     11314.59     11884.76     77.78992     155.8902     311.7184      1.556     3.71       818.04     54.96182     1106.111        30     1.436     0.953  60.95   0
         5    624.3524     14.4031 307.6785154  +6.6875550     3791.546     5460.471     5690.592     77.54099     155.7041     311.4081      1.566     3.70     818.9071     54.96182     707.6941        23     1.422     0.844  63.10   0
         6    326.3607     13.6900 307.8023391  +6.6778345     848.1422     1173.638     1693.476     78.16183     155.8902     311.8424      1.537     4.82     827.8571     54.96182      111.811         9     1.012     0.764  55.23   0
         7    424.5315     10.6045 307.7616590  +6.6824109     6601.422     9737.255     10157.51     77.66556     155.5798     311.6253      1.607     3.61     822.7102     54.96182      1047.03        33     1.507     0.985  60.62   0
         8    671.9339      9.9235 307.6588980  +6.6910005     905.3256     1490.715     1533.209      78.2854     156.0142     311.7804      1.621     3.51     818.8133     54.96182     166.7864         8     1.033     0.583  83.02   0
         9    500.3476      7.8580 307.7302540  +6.6860931     1069.675     1547.544     1395.853     78.16183     155.9522     309.7273      1.463     3.95     818.8008     54.96182     179.7278        12     1.128     0.840  66.53   0
        10    321.1144      5.4972 307.8047953  +6.6810400     13360.07     20217.91     21540.99     78.16182     156.3236     290.9303      1.631     3.67     827.8999     54.96182     1865.427        46     1.561     1.125  62.64  24
        11     25.4764     10.1110 307.9274557  +6.6691686      9099.33     13846.05     14698.53     78.16182     156.2618     311.8734      1.615     3.50     828.0758     54.96182      1418.96        39     1.568     1.038  61.08  16
        12     94.6882      5.8448 307.8988482  +6.6732657     2532.961     3825.197     3952.116     78.16183     155.8282     294.4313      1.611     4.35     829.0856     54.96182     360.6623        23     1.427     0.929  57.42  16
        13     86.1124      5.0402 307.9024380  +6.6733085     1484.405     2195.812     2256.203     78.16183     155.8902     286.0381      1.547     3.85     828.8866     54.96182     249.3105        14     1.217     0.784  71.07  16
        14    789.5765      4.6467 307.6101993  +6.6971221     994.7297     1259.995     1065.156     77.78992     155.9522     281.3015      1.464     4.38     816.3106     54.96182     155.8591        10     1.045     0.705  70.22  16
        15    387.3659      3.5534 307.7773372  +6.6840718     2493.284     3664.187     3146.567     77.78992     150.5272     267.5642      1.599     3.72     825.2006     54.96182     413.0927        21     1.447     0.897  58.20  24
        16    648.4423      1.1892 307.6689518  +6.6938181      1976.64     2422.853     2644.112     65.66041     121.4544     232.0821      0.936     1.96     818.6022     54.96182     684.0952        10     1.059     0.392   0.05  24
        17    262.5087   1002.9183 307.7954701  +6.2673139     949.2269     1563.825     1832.979     77.91409     156.1999     311.8734      1.825     4.12     853.3939     54.96182     163.4504        11     1.142     0.770  74.53   0
        18    952.1942   1021.0159 307.5085579  +6.2829718     6027.567      10178.6     10452.96     77.78992     153.6416     273.0712      1.789     3.78     848.7768     54.96182     789.8032        36     1.585     1.162  60.30  24
        19    906.8028    999.4929 307.5281229  +6.2903398     8188.908     13600.73     14340.27     77.66556      155.642     311.5012      1.786     3.73     848.6927     54.96182     1091.643        44     1.644     1.195  66.94   0
        20    880.4194    995.7337 307.5392017  +6.2910094     11801.26     19611.02     20832.27     77.78992     155.9522     311.7184      1.794     3.74     848.8423     54.96182     1529.255        53     1.669     1.297  53.96   0
        21    593.2676    996.4370 307.6583847  +6.2811013     1343.355      2335.96      2605.43     78.03806     155.9522     311.9354      1.965     4.61     852.4873     54.96182     196.0249        16     1.383     0.906  77.41   0
        22   1002.1353    995.2369 307.4886888  +6.2952831     4333.807     7606.037     8053.297     78.03805     155.9522     311.8734      1.882     4.07      846.558     54.96182     614.9265        37     1.626     1.192  54.38   0
        23    524.4225    994.6774 307.6870233  +6.2795179     4253.614     6524.457     6944.921     77.78992     155.7661     311.7494      1.674     3.56     853.9558     54.96182      659.942        29     1.484     1.074  54.62   0
        24    634.2895    994.3451 307.6414257  +6.2833405      1333.92     2152.329     2252.085     78.16183     155.8282     311.9354      1.663     3.51       851.99     54.96182     215.3934        15     1.208     0.849  62.42   0
        25     59.4662    993.3549 307.8800760  +6.2644231     899.3517     1283.397     1303.884     78.16183     155.8902     311.8424      1.670     4.25     848.6921     54.96182     122.3474        10     0.945     0.876  60.02   0
        26    477.7313    991.1450 307.7065248  +6.2794086     2234.278     3198.024     2855.615     78.16183     155.8282     311.7804      1.517     3.86     853.7876     54.96182     380.9467        20     1.390     0.843  66.38   0
        27    912.1199    983.3015 307.5264582  +6.2972020     41299.17     68350.16     73071.47     78.03806     156.3236     311.8424      1.754     3.72      848.206     54.96182     5460.663        76     1.724     1.294  60.41   0
        28    317.3678    984.2300 307.7733277  +6.2768743     508.1617      914.861     657.5695     77.66556     155.7041     311.5322      1.949     5.89     852.7102     54.96182     71.31995         6     1.069     0.913  79.04   0
        29    219.5227    981.7889 307.8140268  +6.2745898     1766.272     2826.176     2928.892     77.78992     155.5798     311.6563      1.642     4.14     852.3743     54.96182      277.424        18     1.388     0.854  69.65   0
        30    107.5698    981.0055 307.8605256  +6.2711425     663.8961     1072.971     1383.854     77.66555     155.7661     311.5943      1.825     4.55     849.5505     54.96182     103.5649         6     1.197     0.493 -87.39   0
        31    758.2269    975.0242 307.5906237  +6.2954697     6515.326      10438.9     11780.67     77.66555     155.7661     311.6563      1.763     3.79     850.1619     54.96182     925.3285        38     1.665     1.200  78.51   0
        32    618.7787    979.8477 307.6483520  +6.2888055     704.9442     961.3035     706.2675     77.78992     155.9522     311.6563      1.325     4.21     851.9545     54.96182     125.7645         6     1.127     0.448 -60.36   0
        33    810.2047    977.1232 307.5689750  +6.2963433     2265.375     3620.191     3778.214     77.78992     155.4555     311.6563      1.758     3.81     848.9407     54.96182     334.7701        26     1.472     1.018  63.31   0
        34    544.9223    974.2264 307.6792013  +6.2886486     902.9482      1413.26     1075.906     78.03805     155.8902     311.7804      1.560     4.48     853.3318     54.96182     151.6304        12     1.278     0.771  63.53   0
        35    227.8649    974.0035 307.8108266  +6.2780846     1521.478     2309.189     2092.226     77.41622      155.704     311.5943      1.528     4.07      852.238     54.96182     252.4204        16     1.393     0.768  55.30   0
        36    192.2639    973.4789 307.8256227  +6.2771026     940.9105     1359.422     1565.689     78.40878     156.0142     311.8114      1.816     5.87     850.9809     54.96182     111.6351        12     1.237     0.783 -72.45   0
        37     52.5466    971.9302 307.8836724  +6.2730342     2578.188     4123.602     3790.472     78.03805     155.8282     311.7494      1.668     4.11     848.0759     54.96182     368.2072        22     1.445     0.919  64.19   0
        38    946.5928    970.0242 307.5125917  +6.3038359     6444.445     10753.29     11191.64     77.66555     155.7661     311.6563      1.768     3.76     847.0278     54.96182     860.8219        38     1.634     1.109  55.71   0
        39    202.9236    966.5419 307.8214319  +6.2803253     738.3778     1250.024     1269.509      78.2854     155.9522     311.7804      2.036     4.31     851.1902     54.96182     123.6552         9     1.128     0.683 -89.26   0
        40    628.6415    964.2782 307.6447810  +6.2955637     772.2856      1334.05     1011.706     78.03806     155.9522     311.8424      1.721     5.66     851.8632     54.96182     147.5378        10     1.248     0.801  57.38   0
        41    920.2982    961.8014 307.5237836  +6.3063515     1792.844     1686.406     1787.082     77.66555     155.7041     311.5012      1.228     4.20     847.4401     54.96182     231.2099        20     1.386     0.936  83.48   0
        42    641.0233    957.7834 307.6398590  +6.2986601     4635.691     6990.164     7255.626     77.91409     155.8282     311.7184      1.586     3.45       851.76     54.96182     703.6014        27     1.468     0.951  62.34   0
        43    779.7972    958.3434 307.5822288  +6.3030783     1334.162     1863.219     2014.392     77.54099     155.7661     311.5012      1.556     3.45     849.4048     54.96182     234.0627        16     1.309     0.790  66.38   0
        44    253.0844    957.7889 307.8009047  +6.2856271      4486.49     6889.965     6974.373     77.78992      155.704     311.6563      1.634     3.52     851.9155     54.96182     630.4973        29     1.441     1.048  66.27   0
        45    990.5342    957.5663 307.4947666  +6.3104474     767.8363      1413.84     1801.329     78.03806     155.9522     311.7804      2.162     6.07     845.3315     54.96182     91.27753        11     1.220     0.848 -88.12   0
        46    463.2775    956.1394 307.7137034  +6.2933745     1162.373      1600.14      1627.98      78.2854     156.0142     311.7804      1.484     4.15     852.8486     54.96182     178.3387        12     1.238     0.676  73.64   0
        47     21.9529    955.1826 307.8969382  +6.2789161     2193.757     3341.371     3573.224     77.66555     155.8902     311.5943      1.636     3.92     847.0435     54.96182     282.2399        20     1.252     0.995  67.38   0
        48    872.6133    954.3555 307.5438298  +6.3078308     943.0354     1363.606     1579.238     77.54099     155.7661     311.5633      1.809     4.31     848.3646     54.96182     160.2556        12     1.203     0.867  55.61   0
        49    944.5659    951.5130 307.5140535  +6.3114102     780.8394     1258.109     1604.558     78.16183     155.8282     311.8114      1.993     6.69     846.4286     54.96182     93.68848        12     1.534     0.819  55.92   0
        50    997.0503    950.5301 307.4922970  +6.3135699     745.7486     1552.396     2029.498     78.03805     155.8902     311.8424      2.347     5.18     844.8717     54.96182      154.403        14     1.543     1.018  72.72   0
        51    565.6824    950.3085 307.6713875  +6.2992192     1757.933     2534.406     2249.531     77.91409     156.1999     311.8734      1.542     3.90     852.4004     54.96182     291.6234        18     1.420     0.845  71.23   0
        52    289.5335    951.6437 307.7859811  +6.2893904     779.7805     1266.631     1453.273     78.16183     155.8902     311.8424      1.736     4.55     852.3936     54.96182      109.679         8     1.306     0.450  54.54   0
        53     55.1078    947.5486 307.8834334  +6.2831856     747.3405     1144.223     1449.888     78.03805     155.8282     311.9973      1.889     3.75     847.6212     54.96182     126.8076         8     0.931     0.738  40.68   0
        54    605.0101    946.7606 307.6551802  +6.3020031     1310.043     1942.051     1854.495     77.54099     155.7661     311.5633      1.456     2.85     851.9978     54.96182     203.4462        11     0.951     0.725  70.07   0
        55    284.5510    944.1979 307.7883006  +6.2922966     1403.837      2578.31     3339.984     77.54099     155.5798     311.4081      2.250     5.07     852.1663     54.96182     241.7048        18     1.551     0.875  64.64   0
        56    552.5129    942.3903 307.6771211  +6.3020462      632.991     677.5244     876.4682     77.78992      155.642     311.6563      1.385     4.41     852.3223     54.96182     101.3749         6     1.092     0.712  45.62   0
        57    751.8205    940.4151 307.5944452  +6.3095429     1027.132     1480.733     1466.601     77.91409     155.7041     311.7184      1.613     3.73     849.6592     54.96182      156.207        10     0.959     0.750  49.93   0
        58    889.3164    936.9786 307.5374780  +6.3155633     6789.487     10910.69     11331.54     77.91409      155.642     311.6873      1.706     3.68     847.6401     54.96182     927.4139        37     1.574     1.118  56.42   0
        59     98.1866    936.2193 307.8659338  +6.2893147      454.946     782.6766     418.9442     77.91409     155.7041     311.7184      1.731     3.88     848.1407     54.96182     68.87292         5     0.980     0.441  45.73   0
        60    594.4133    934.5252 307.6599908  +6.3066988     605.2249     972.2961     833.7872     77.66556     155.7041     311.6253      1.417     3.70     852.0056     54.96182     101.2258         6     0.977     0.403 -71.43   0
        61    425.2695    934.2577 307.7302188  +6.3011312      2130.72     3203.802     3419.314      78.2854     155.9522     311.7804      1.637     3.36     852.3069     54.96182     328.2763        16     1.220     0.808  56.76   0
        62    326.7654    932.3798 307.7711747  +6.2985953     9927.052     15101.71     16128.95     77.66556     155.7661     311.6253      1.633     3.61     852.1791     54.96182     1616.512        42     1.534     1.125  60.01   0
        63    246.7950    931.3007 307.8044092  +6.2963503     7309.045     11081.84     11476.92     77.91409     155.5798     311.4702      1.626     3.74     850.8288     54.96182     1130.353        36     1.485     1.093  57.38   0
        64    574.9412    926.0315 307.6683603  +6.3095521     1249.104      1892.68     2075.365     77.91409     155.9522     311.7494      1.594     3.54     851.8749     54.96182     192.9512        13     1.129     0.779  65.76   0
        65    759.4168    925.5626 307.5917901  +6.3159290     696.8495     1127.011     1024.274     77.78992     155.8282     311.5633      1.766     4.99      849.316     54.96182     106.0328         7     0.923     0.824  35.39   0
        66    904.7179    922.4071 307.5315724  +6.3220940     1010.901     1396.144     1013.073     77.78992     155.5798     311.6563      1.613     3.97     846.7015     54.96182     140.2357        11     0.935     0.854  36.25   0
        67    137.4544    922.4259 307.8500990  +6.2963321     635.5224     1033.788     1331.015     77.78992     156.0761     311.6563      1.752     5.39     848.9552     54.96182     92.25781         7     1.218     0.674  79.47   0
        68    972.4659    917.7984 307.5036000  +6.3262614     799.8072      1277.62     1580.033     77.54099     155.5798     311.5943      1.772     4.79     844.4235     54.96182     122.3738         8     0.971     0.670  82.77   0
        69    565.2821    915.9401 307.6727097  +6.3133941     607.4659     1102.131     1151.687      78.2854     156.0142     311.8424      1.753     3.85     851.6075     54.96182     116.0361         6     1.317     0.323  61.94   0
        70    741.2181    915.0188 307.5996995  +6.3196723     1697.712     2658.436     3409.535     77.91409      155.704     311.7494      1.729     3.90     849.2866     54.96182     246.9368        16     1.353     0.779  53.05   0
        71    616.9926    911.6102 307.6513875  +6.3169161     686.6733     840.0164     211.0882     77.66555     155.7661     311.6873      1.383     4.30     851.1138     54.96182     98.69104         8     0.969     0.662 -76.73   0
        72    605.0844    911.6001 307.6563316  +6.3165209      804.459     965.9635     619.7046     77.41622     155.4555     311.4702      1.400     3.96     851.2326     54.96182     136.9313        10     1.084     0.698  71.21   0
        73    526.4185    911.0316 307.6890092  +6.3141162     1161.981     1671.264     1269.135     77.78992     155.7661     311.6873      1.404     3.36     851.7341     54.96182     197.2095        11     1.075     0.667  55.99   0
        74    659.7800    908.5097 307.6337281  +6.3196307     2700.329      3892.63     4327.446     78.03806     155.7041     311.6563      1.596     3.40     850.4869     54.96182      448.196        22     1.411     0.939  58.14   0
        75   1011.3940    907.6840 307.4877769  +6.3317377     511.1237     612.3346     887.2645     77.78992      155.642     311.6253      1.636     4.11      842.942     54.96182     82.98431         5     0.999     0.483 -85.10   0
        76    972.6381    911.0516 307.5037545  +6.3290525     1136.863     1916.148     2439.269     77.91409     156.0142     311.8114      2.214     5.59     844.1863     54.96182     157.3052        15     1.408     0.838  64.79   0
        77    820.9775    905.4019 307.5669090  +6.3263129     801.4084     1078.552     970.9978     77.78992      155.642     311.5633      1.421     3.46     848.1447     54.96182     116.8318         8     0.815     0.693  74.36   0
        78     56.4647    904.4656 307.8843266  +6.3010166     2889.082     4480.458     4810.859     78.16183     155.9522     311.7804      1.674     3.62      847.061     54.96182     449.4585        26     1.342     1.075  81.16   0
        79    200.0688    903.5278 307.8247441  +6.3062426     2313.874     3586.021     3982.307      78.2854     156.0761     311.8114      1.658     3.71     849.7341     54.96182     359.8844        22     1.256     1.035  71.69   0
        80     73.8803    903.7168 307.8771223  +6.3019129     1970.745     3110.251     3059.206     78.03806     156.1999     311.8734      1.621     3.87     847.2542     54.96182     289.6161        19     1.320     0.975  62.65   0
        81    938.2427    903.9872 307.5182713  +6.3308193     889.4133     1420.383     1617.713     77.54099     155.7661     311.5633      1.774     4.97      845.039     54.96182     122.8865        11     1.074     0.841  41.67   0
        82    956.7732    901.9841 307.5106450  +6.3322657      460.005     910.5347     1560.711     77.78992     155.7661     311.7184      2.417     3.82     844.4039     54.96182     71.37201         5     0.820     0.511 -33.56   0
        83    234.1535    900.4262 307.8106990  +6.3086705     793.6747     1150.586     824.3517     77.78992     156.0142     311.7184      1.436     4.97     850.3399     54.96182     134.2828         9     1.201     0.584  70.85   0
        84    339.0602    899.7231 307.7671716  +6.3124902     914.9683      1396.14     1821.611      78.2854     156.0142     311.7804      1.886     5.65     851.8261     54.96182      118.911        10     1.237     0.728  37.20   0
        85    654.4692    897.4836 307.6363035  +6.3240046     7228.695     10561.14      11362.9     78.40878     156.1999     311.8424      1.620     3.47     850.0381     54.96182     1161.476        32     1.438     1.031  69.95   0
        86    792.0350    898.2295 307.5791657  +6.3283052      678.522     953.1838     665.5691     77.78992      155.704     311.6253      1.440     4.03     848.3965     54.96182     119.0644         6     0.923     0.502  36.75   0
        87     14.3817    895.6945 307.9020928  +6.3032181         1049     1769.965     1713.714     78.03806     155.7041     311.6873      1.871     6.40     846.6273     54.96182      146.559        13     1.518     0.759  50.05   0
        88    892.2937    893.8995 307.5376863  +6.3334475     2648.552     4189.679     4502.046     78.16183     156.4473     311.6873      1.731     3.56     846.2158     54.96182     347.5916        23     1.415     0.937  64.91   0
        89     27.8466    894.2243 307.8965529  +6.3042792     1113.943     1750.703     1566.568     77.78992     155.9522     311.6873      1.849     5.02     846.7513     54.96182      176.351        11     1.216     0.609  66.29   0
        90    337.4632    890.6803 307.7681395  +6.3161696     16843.78     25162.07     27156.82      78.2854     156.0142     311.8114      1.626     3.31     851.7094     54.96182     2723.784        45     1.518     1.088  62.44   0
        91     71.9033    891.9528 307.8783406  +6.3067026     1303.765     2144.501     2496.354     78.16183     155.8282     311.9663      1.785     4.83     847.1065     54.96182     177.9713        16     1.392     0.839  71.45   0
        92    208.6658    890.3962 307.8216184  +6.3119530     1286.721     1835.908     2171.848     77.54099     155.7041     311.5943      1.516     3.10     849.7704     54.96182     218.8367        11     1.056     0.725  67.76   0
        93    388.3386    890.2897 307.7470317  +6.3180412     728.0216     1057.076     1207.599     78.16183     156.0761     311.8734      1.339     3.80     851.5999     54.96182     144.3741         5     0.834     0.504  43.82   0
        94    100.9192    881.2261 307.8666577  +6.3121088     1856.443     2991.741     3048.781     78.03805     155.7661     311.8424      1.698     4.23     847.2202     54.96182     272.6042        19     1.387     0.901  65.72   0
        95    415.1935    881.4995 307.7361790  +6.3225726     1190.467     1870.041     1224.506     77.91409     155.5798     311.5633      1.612     4.74     851.3577     54.96182     157.2496        11     1.145     0.692  72.18   0
        96    495.8797    878.2776 307.7027899  +6.3266128     796.6991     1084.943     1377.739     78.40878     156.1999     311.9663      1.465     5.23       851.23     54.96182     151.6553        10     1.377     0.668  54.03   0
        97    669.4548    877.7887 307.6307438  +6.3326376     776.4996     1092.884     1589.132     77.54099     155.8902     311.5012      1.533     3.09     849.0536     54.96182     146.7943         6     0.869     0.565 -22.85   0
        98    882.4638    875.4598 307.5423858  +6.3407314     1980.961     3008.242     2979.327     78.16183     155.8902     311.8424      1.694     4.42     845.9006     54.96182     335.9871        22     1.438     1.022  63.61   0
        99    853.0825    874.9829 307.5546003  +6.3399454     2048.296     3237.336     3016.211     77.78992      155.642     311.7494      1.694     4.49     846.7009     54.96182     278.7867        21     1.539     0.893  57.00   0
       100     83.6433    874.9378 307.8740421  +6.3141224     2332.746     4764.389     5602.199     78.16182     155.8902     311.9044      2.111     8.25     846.9806     54.96182     997.3408        24     1.716     1.108   7.86   0
       101    816.7380    874.5319 307.5697049  +6.3389153      3064.45     4759.621     5559.691     78.16183     155.8902     311.8424      1.698     3.73     847.4775     54.96182     509.0928        25     1.415     0.978  54.66   0
       102    447.1194    872.6484 307.7232228  +6.3272991     581.3883     894.3419     797.8594     78.16183     155.9522     311.8114      1.657     5.18     851.2097     54.96182     112.0177         6     1.435     0.561  79.68   0
       103    552.5641    865.8693 307.6796741  +6.3336381     344585.1     514778.3     542161.4     78.03806     156.0142     311.9044      1.614     4.41     850.4686     54.96182     56544.92       191     1.734     1.319  62.30   4
       104    640.2354    869.0862 307.6431674  +6.3352508     1155.505     1808.835      2118.63     78.16182     155.8282     311.8114      1.600     4.16     848.9807     54.96182     182.3342        12     1.309     0.634  65.14   0
       105    396.7613    868.3914 307.7442729  +6.3273645     7910.532     11748.01     12269.96     77.54099     155.7661     311.5322      1.584     3.65     851.1898     54.96182     1352.704        36     1.461     1.039  58.45   0
       106    339.9711    866.8207 307.7679027  +6.3261037     12908.33     19582.46     20300.79     77.66555     155.7661     311.7184      1.597     3.43     851.3954     54.96182     1994.036        45     1.511     1.134  64.04   0
       107    658.3742    863.2562 307.6358326  +6.3382657     3695.173     5446.999     5945.298     77.78992     155.9522     311.6253      1.600     3.52      848.566     54.96182     614.3623        25     1.416     0.911  60.84   0
       108    890.9434    862.1538 307.5393114  +6.3465082     5281.749     8195.211     8767.827     78.16183     155.9522     311.9044      1.628     3.30     845.2273     54.96182     798.6133        35     1.516     1.072  53.53   0
       109    730.4156    860.7387 307.6060072  +6.3417192     722.3749     1207.765     1359.038     77.66556     155.8902     311.6253      1.576     3.40     848.2832     54.96182     112.7643         5     0.739     0.452 -70.36   0
       110    633.1819    857.2970 307.6464921  +6.3398812     3513.387     5404.053         5822     78.03806     155.7661     311.5633      1.622     3.59     848.6636     54.96182     519.6953        26     1.490     0.965  62.37   0
       111   1023.4291    855.9399 307.4845129  +6.3535017     2858.176     4088.133      4096.81     70.76215     127.3597     238.3696      1.488     4.15     841.2897     54.96182     578.3421        18     1.486     0.710  79.32  24
       112    176.1471    857.1851 307.8362397  +6.3245681     523.3091      725.064     804.6501     77.54099     155.8902     311.5322      1.328     4.40     848.4657     54.96182     82.28888         6     1.172     0.469  61.84   0
       113    821.6269    856.2037 307.5682901  +6.3466455     1634.285     2529.005     2729.176     77.66556      155.704     311.6563      1.733     3.38     846.7858     54.96182     307.1673        16     1.425     0.728  56.49   0
       114    623.3771    855.7711 307.6506141  +6.3401824     887.6149     1305.702     1646.679     77.66556     155.7661     311.6563      1.567     5.10     848.7318     54.96182     153.1998        12     1.405     0.664  56.39   2
       115    626.2308    851.9247 307.6495587  +6.3418660     2181.719     3331.694     4181.489     78.03805     156.0142     311.8114      1.647     3.79     848.5903     54.96182     355.5905        21     1.562     0.834  54.59   3
       116    948.8682    855.5681 307.5154824  +6.3511638     948.4563     1361.632     1574.018     78.03806     155.9522     311.7804      1.483     4.59     843.4253     54.96182     121.8992         9     0.931     0.680 -76.58   0
       117    909.7485    850.0002 307.5319112  +6.3521545     3189.142      4736.69      5341.57     77.41622     155.4555      311.377      1.577     3.50       844.48     54.96182      524.226        25     1.382     1.002  66.62   0
       118    319.9675    850.7477 307.7767493  +6.3320663     1026.762     1713.793     1431.595     78.03806     155.9522     311.7184      1.547     4.97     851.1237     54.96182     139.8746        10     1.296     0.620  56.81   0
       119    367.9837    845.8477 307.7569800  +6.3357037     2720.876     4010.082     3875.592     77.66555     155.8902     311.5943      1.500     3.32     850.8374     54.96182     475.7644        19     1.323     0.832  61.20   0
       120    504.0841    835.5966 307.7008204  +6.3445082     3113.357     4558.561     4975.406     77.66555     155.5798     311.5322      1.568     3.47     849.8536     54.96182     470.5486        22     1.376     0.894  62.42   0
       121    848.9660    834.7341 307.5576595  +6.3564238     1052.205     1455.699      1745.03     78.03806     156.0142     311.8114      1.306     4.05     845.6336     54.96182     170.7244         8     1.053     0.514  54.46   0
       122    569.7407    833.6200 307.6736278  +6.3475279     735.0097      1094.24      1097.69     77.78992     155.8282     311.6873      1.476     3.00     848.9462     54.96182     138.3743         7     0.813     0.626  80.71   0
       123    551.0223    831.6354 307.6814660  +6.3477191     6291.414     9307.341     10410.94     77.66555     155.7041     311.5943      1.578     3.49     849.2357     54.96182     1029.395        27     1.462     0.916  67.13   0
       124    557.9078    831.0201 307.6786280  +6.3482041      1270.79      1961.65     2580.417     78.03806     155.7661     311.6563      1.433     4.80     849.0657     54.96182     208.8338        13     1.378     0.658  63.52   0
       125    468.8467    830.6064 307.7156181  +6.3453850     1594.311     2488.126     2475.355     77.66555     155.7661     311.4702      1.564     4.18     849.8826     54.96182     265.6273        16     1.330     0.812  62.81   0
       126    262.8640    831.9241 307.8010914  +6.3379159      688.157     961.3898     1132.289     78.40878     155.9522     311.7804      1.515     2.55     850.2574     54.96182      129.274         6     0.742     0.543  56.47   0
       127    887.0637    829.9836 307.5420009  +6.3596595     1358.006     2090.105     1952.128     77.66555     155.8902     311.6563      1.527     4.06     844.7618     54.96182     253.8069        16     1.433     0.707  55.37   0
       128    110.5455    829.8804 307.8643965  +6.3336296     1410.879     1987.521     1523.052     78.16182     155.9522     311.8424      1.489     4.41     846.9455     54.96182     224.6862        14     1.276     0.800  59.72   0
       129    686.8596    828.9341 307.6251594  +6.3533898     728.7593     1146.977      609.713      78.2854     155.8902     311.8114      1.691     4.12     847.6667     54.96182     137.3507         7     0.985     0.536 -76.90   0
       130    521.6942    825.5950 307.6938458  +6.3492283     20520.23      30425.8      31699.9     77.91409      155.642     311.5633      1.612     3.38     849.3279     54.96182     3565.581        50     1.535     1.104  60.24   0
       131    362.8876    827.2677 307.7597220  +6.3432027     839.7943     1245.042     993.3471      78.2854     156.1999     311.8424      1.518     5.06     850.4736     54.96182     155.6653         9     1.215     0.663  60.51   0
       132    935.1935    823.8295 307.5222238  +6.3638096     3864.737     6087.078     5945.096     77.66555     155.7041     311.5943      1.654     3.49     843.5102     54.96182     530.5858        27     1.435     1.047  58.87   0
       133    168.4734    825.1223 307.8405082  +6.3375457     615.5735     766.2859     479.8468     78.40878     156.1999     311.8424      1.403     4.57     847.9079     54.96182     117.4039         6     1.188     0.499  89.14   0
       134     55.2013    822.1335 307.8876346  +6.3349618     497.1617     457.1671    -87.12312     77.54099     155.5798     311.5943      1.244     4.01     846.1579     54.96182     93.02277         5     0.965     0.476  43.17   0
       135    689.6904    818.4653 307.6243358  +6.3578065     676.3094     731.1356     581.7342     78.03806      156.138     311.8114      1.189     3.34     847.4375     54.96182      117.271         5     1.031     0.314 -69.78   0
       136    161.9790    816.6736 307.8434898  +6.3408147     531.3326     682.2086     553.4128     77.78992     155.8282     311.7494      1.467     3.42     847.6724     54.96182     100.5396         5     0.814     0.497  55.79   0
       137     31.9693    815.9193 307.8974895  +6.3367436     1627.945     2309.645     2002.625     78.03806     155.8902     311.7804      1.543     4.19     845.7518     54.96182     221.3608        18     1.248     0.972  53.97   0
       138    314.3505    814.2958 307.7803106  +6.3469255     3631.173     5134.317     5403.187     78.03806     155.8902     311.9663      1.504     3.44     850.3206     54.96182     588.5951        20     1.212     0.886  73.78   0
       139    779.8308    810.1311 307.5871899  +6.3642667     56039.09     84466.46     88686.55     78.03805     155.9522     311.7804      1.591     3.53     845.9229     54.96182     9044.929        77     1.627     1.148  59.57   0
       140     14.2967    812.4085 307.9049450  +6.3375967     2237.208     3449.973     3454.945     77.91409     155.5798     311.6253      1.631     3.61     845.4053     54.96182     338.0876        21     1.393     0.879  68.60   0
       141    718.3683    812.0185 307.6126455  +6.3614289     676.1171     890.6469     1418.989     77.78992     155.7661     311.6873      1.763     4.62     847.3579     54.96182       124.57         8     1.236     0.515  57.56   0
       142    423.3035    809.0599 307.7352524  +6.3527500     886.8402     1222.786     1256.016     77.91409     155.9522     311.9044      1.332     4.41     849.1639     54.96182     150.6284         9     1.119     0.603  67.02   0
       143    237.0054    807.9236 307.8126369  +6.3469534     5156.549     8235.859     10427.09     77.78992     155.4555     311.6563      1.801     3.64     849.3647     54.96182      740.617        33     1.504     1.079  62.67   0
       144    905.0956    805.4261 307.5353375  +6.3704009     8844.786     13381.05     14150.57      78.2854      155.704     311.6873      1.630     3.52     843.9591     54.96182     1325.699        38     1.520     1.045  59.93   0
       145    708.0717    804.8000 307.6171631  +6.3640640     21844.39     33655.49     36592.93     77.66555     155.4555     311.5943      1.603     3.66     847.2023     54.96182     3386.502        49     1.640     1.063  67.62   3
       146    701.7732    801.2182 307.6198986  +6.3653316     90407.91     135212.5     143210.6     77.78992     155.7661     311.7184      1.608     3.49     847.1086     54.96182     15565.01        90     1.669     1.186  62.74   3
       147    346.6392    802.0504 307.7673180  +6.3530666     20970.72     31619.87      33154.5     78.03805     155.9522     311.7804      1.594     3.46     850.1133     54.96182     3410.602        48     1.535     1.101  62.67   0
       148    205.3444    804.1599 307.8259086  +6.3474411     496.1997     886.8608     1262.427     78.16183     156.0142     311.8424      2.375     4.72     848.6213     54.96182      68.0921         6     0.982     0.643 -57.39   0
       149    408.5499    799.9338 307.7416853  +6.3560217      22909.8     33767.86     35496.39     78.03805     155.8282     311.7804      1.545     3.34     848.9899     54.96182      3698.23        49     1.501     1.087  62.20   0
       150    395.7270    802.2002 307.7469327  +6.3546551     1545.733      2245.98     2178.111     77.41622     155.3933     311.6253      1.568     4.14     849.3242     54.96182     255.8181        14     1.344     0.703  50.96   0
       151    635.9802    801.9872 307.6471897  +6.3628087     846.6859     1090.765     1478.808     77.91409      155.642     311.7184      1.420     3.65     847.1544     54.96182     135.3917         8     0.897     0.784 -48.89   0
       152    236.5172    786.2531 307.8135710  +6.3558830     774635.6      1762602      1958539     78.16183     155.9522     311.9354      2.294     5.64     848.6435     54.96182     63528.08       608     2.510     2.084  69.34   4
       153    945.6694    799.0358 307.5187052  +6.3743956     2070.861     3078.873     2774.535     78.03805     156.0142     311.9044      1.584     3.68     842.8967     54.96182     289.6429        18     1.287     0.844  71.41   0
       154    902.0793    796.8591 307.5368771  +6.3738368         6807     10470.58     11121.58      78.2854     155.9522     311.7494      1.592     3.35     843.8543     54.96182     1047.884        35     1.530     1.003  51.84   0
       155    875.1957    798.2371 307.5479932  +6.3723687      791.697     1094.034     1331.977     77.29126     155.7041     311.6253      1.575     3.92     844.3875     54.96182      159.485         7     1.102     0.519  75.41   0
       156    642.6234    795.8607 307.6446375  +6.3655607     6609.836      9884.47     10552.51     77.78992     155.8902     311.7184      1.585     3.49     846.9264     54.96182     1100.337        29     1.427     0.980  61.02   0
       157    132.3608    795.6368 307.8564968  +6.3485011     567.1434     703.3674     735.7328     77.91409     155.8282     311.6873      1.492     4.90     846.9746     54.96182       87.914         6     1.153     0.589  64.25   0
       158    431.3708    793.7147 307.7324199  +6.3593560     1788.131     2466.345     2700.062      78.2854      155.642     311.6563      1.516     3.73     848.4867     54.96182      267.424        16     1.272     0.819  55.26   0
       159    156.2560    793.3865 307.8466523  +6.3502352     981.3088     1550.301     1255.437     77.54099     155.8902     311.5322      1.596     3.04     847.2456     54.96182     163.8719         9     1.005     0.573  61.33   0
       160    731.0312    791.2004 307.6080871  +6.3704476     514.9177       748.66      801.149     77.54099     155.7661     311.6253      1.457     5.67     846.8012     54.96182     77.40997         8     0.998     0.907 -42.80   0
       161    870.9600    788.7031 307.5500717  +6.3761630     688.7199     1014.886     1263.767     78.16183     155.8282     311.9973      1.366     2.23     844.2884     54.96182     127.6664         5     0.744     0.469 -56.71   0
       162    147.1019    786.8402 307.8506739  +6.3526292     1055.838     1514.246     1641.746     78.16182     155.8282     312.0283      1.536     5.17     846.9815     54.96182     156.6085        12     1.373     0.833  80.80   0
       163    595.6785    787.7889 307.6644003  +6.3673185     890.2266     1411.984     1743.216     77.78992     155.5798     311.6873      1.603     5.34     846.9655     54.96182      137.777         9     1.256     0.641  52.85   0
       164    677.7329    786.0240 307.6303906  +6.3707986     2422.714     3819.544     3760.386     77.78992     155.8902     311.7494      1.636     3.63     846.3933     54.96182     410.2528        22     1.385     0.929  56.84   0
       165    411.4670    782.5611 307.7410595  +6.3632916     56332.27     82940.84     87664.16     78.03806     155.8902     311.8734      1.633     3.32     847.9247     54.96182      9527.29        79     1.582     1.230  62.04   0
       166    121.9395    786.1832 307.8611428  +6.3520525     1012.235     1825.133     1618.811     77.66555     155.8902     311.5633      1.758     6.13      846.613     54.96182     175.6493        14     1.479     0.786  66.48   0
       167    954.6633    784.5525 307.5154562  +6.3806756     662.9691     860.5419     971.3655     78.03806     155.8282     311.8424      1.194     3.84     842.3021     54.96182     115.7278         6     0.900     0.471 -87.01   0
       168    529.1900    781.5965 307.6922144  +6.3676438     7437.889      10921.9     11074.16     77.66555      155.642     311.6873      1.555     3.22      847.406     54.96182     1140.111        34     1.440     1.050  53.37   0
       169    446.0267    780.2925 307.7267871  +6.3653894     4521.894     6649.927     7583.587      78.2854     155.7041     311.6563      1.565     3.38     847.7236     54.96182     704.2115        26     1.521     0.860  62.87   3
       170    442.7043    773.7725 307.7283862  +6.3679694     2570.411     3873.823     4514.926      78.2854     155.7041     311.7184      1.695     3.08      847.384     54.96182     441.9416        20     1.449     0.808  59.82   3
       171    774.4655    778.2962 307.5904864  +6.3772296     11860.28     17388.74     18370.39     78.16183     156.0761     311.8424      1.579     3.44     845.1854     54.96182     1913.783        36     1.473     1.006  60.01   0
       172      3.7784    774.1102 307.9106073  +6.3530518     1001.287     1380.031     1585.087     78.16182     152.1242     270.4032      1.483     3.90     844.4873     54.96182     143.3824         9     0.986     0.637  33.77  16
       173    795.9435    772.3431 307.5817683  +6.3804064     1277.915     2098.051     1816.765      78.2854     155.9522     311.8734      1.694     4.36     844.3611     54.96182      200.248        14     1.278     0.777  66.37   0
       174    132.1554    770.1697 307.8574425  +6.3590074     11813.85     18293.95     19510.92     77.78992     155.9522     311.6563      1.624     3.57     846.3939     54.96182     1639.718        42     1.486     1.115  58.46   0
       175    140.2547    770.5149 307.8540682  +6.3591379     2992.852     4607.633     4912.994     78.16183     155.9522     311.9663      1.675     3.81     846.5225     54.96182     441.1015        26     1.441     0.981  68.25   0
       176    919.9061    766.8783 307.5304804  +6.3868101     6403.918     9732.479     10365.29     77.91409      156.138     311.8424      1.619     3.54     842.6559     54.96182     995.2742        33     1.490     1.022  59.20   0
       177    124.3739    767.5402 307.8607620  +6.3598307     3001.021     4799.522     5655.558     77.78992     155.9522     311.6873      1.761     3.54     846.2439     54.96182     465.1417        26     1.340     1.124  62.57   3
       178    124.4826    761.1256 307.8609336  +6.3624824     1929.932     3281.405     3698.047     78.40878     156.2618     311.8734      1.712     4.12     846.0897     54.96182     284.1707        22     1.467     0.975  68.28   3
       179    969.1082    766.8275 307.5100524  +6.3884759     1605.456     2246.273     2837.057      78.2854      155.704     311.6873      1.613     3.85     841.5835     54.96182     209.8969        18     1.270     0.930  51.03   0
       180    675.4598    764.5010 307.6320578  +6.3796078     1700.368     2447.044     2407.521     77.91409     155.8902     311.9354      1.483     4.18     845.4509     54.96182     328.5013        17     1.488     0.723  57.91   0
       181    562.2657    763.7639 307.6790814  +6.3761157     2363.089     3537.413     3691.462     78.03806     155.9522     311.8734      1.632     3.64     846.3146     54.96182     390.7042        20     1.346     0.883  56.67   0
       182    410.5525    763.1422 307.7420935  +6.3712776     1253.788     1908.727     2244.374     78.16183     155.9522     311.9354      1.583     4.62     846.7155     54.96182     178.2567        16     1.391     0.820  80.58   0
       183    693.9832    762.1097 307.6244470  +6.3812159      616.655     597.8633     362.3977     77.91409      155.704     311.7184      1.246     2.49     845.4517     54.96182     107.7197         5     0.646     0.544  89.13   0
       184    914.2498    759.0132 307.5330928  +6.3898680     3079.956      4660.93     4823.354     77.54099     155.8902     311.5322      1.540     3.84     842.5842     54.96182     428.3424        24     1.495     0.882  65.77   0
       185    943.6182    758.3298 307.5209212  +6.3911321     3132.058     4920.673     4815.003     77.66556     155.8282     311.7494      1.629     3.85     841.8787     54.96182     472.4633        24     1.485     0.889  65.52   0
       186    666.7266    758.3443 307.6358908  +6.3818567     1469.203     2088.481     1946.894     78.03806     155.8282     311.7804      1.451     4.18     845.2053     54.96182     238.8508        15     1.426     0.665  57.34   0
       187    974.5112    758.1311 307.5081004  +6.3922467     1914.201     2961.258     2762.674      78.2854     156.1999     311.7804      1.662     4.21     841.2928     54.96182     289.2927        16     1.296     0.802  63.10   0
       188    813.7546    756.3922 307.5749083  +6.3875878     1023.869     1433.933      1791.46     77.66556     155.8282     311.4702      1.526     4.15     843.8569     54.96182     181.8219        10     1.070     0.667  52.43   0
       189    889.2773    754.1743 307.5436242  +6.3910305     781.0138     1095.699     1030.801     77.91409     155.8902     311.7804      1.438     5.50     843.1233     54.96182     114.0455         9     1.122     0.762  61.11   0
       190    238.9975    752.9680 307.8136647  +6.3697072     1837.703      2918.27     3508.074     77.41622     155.7661     311.5943      1.615     3.88     847.3353     54.96182     260.2008        18     1.321     0.851  66.71   0
       191    932.1701    748.4892 307.5260047  +6.3948119      1079.46     1568.915     961.3337      78.2854     155.7041     311.7804      1.471     2.90     841.8112     54.96182     168.2379        11     1.028     0.706  85.95   0
       192    259.9784    749.0254 307.8050868  +6.3720411     579.2241     845.7355     1506.145     77.78992     155.7661     311.7494      1.346     3.10     847.2307     54.96182      112.876         5     0.627     0.598  89.10   0
       193    154.9356    748.1863 307.8487274  +6.3688501     806.3303     1216.363     1235.902     77.66555     155.7661     311.7184      1.534     4.18     846.1885     54.96182     157.5289         8     1.205     0.718  60.00   0
       194    958.5552    746.1959 307.5151257  +6.3966407     2494.814     3828.024     4746.398     77.54099      155.642     311.5012      1.719     3.56     841.3273     54.96182     405.6267        22     1.489     0.905  46.82   0
       195    905.5444    747.3812 307.5370975  +6.3943790     1183.009     1993.466     1718.106     77.66556     155.9522     311.6253      1.705     4.35      842.482     54.96182     168.7208        14     1.229     0.893  37.85   0
       196    678.1185    745.3555 307.6315973  +6.3876008     1080.122      1720.93     2689.905     78.16183     155.9522     311.7804      1.737     5.00     844.5923     54.96182     170.4122        11     1.236     0.707  46.64   0
       197    398.8449    740.9955 307.7477008  +6.3800268     528.2472     871.1337     926.9249     77.54099      155.642     311.5012      1.800     4.39     845.5089     54.96182     93.69141         6     1.339     0.410  66.40   0
       198   1000.2596    739.5075 307.4980330  +6.4007957     1749.813      2675.12      2552.76     78.03806     155.8902     311.9044      1.616     4.09      840.613     54.96182     259.9952        19     1.456     0.831  51.14   0
       199    469.1996    740.9759 307.7184900  +6.3823988     662.6183     916.8391       1036.5     77.78992      155.642     311.5943      1.530     2.83     845.7947     54.96182     107.1495         5     0.778     0.486  26.99   0
       200    895.3248    739.3105 307.5416116  +6.3973691     513.7266     835.2486     694.3646     78.16183     156.2618     311.9044      1.529     4.64      842.603     54.96182      73.5954         5     1.327     0.460  45.43   0
       201    626.3801    739.0414 307.6532921  +6.3884728      789.218     1471.253     1411.158     77.78992     155.7661     311.6253      1.824     5.62      845.129     54.96182     125.5004        10     1.259     0.708  57.29   0
       202    802.1180    738.0645 307.5803552  +6.3947646     1221.984     1708.491     1323.141      78.2854     156.0761     311.8114      1.505     3.13     843.4835     54.96182     209.5936        10     0.886     0.776 -36.25   0
       203    888.0439    735.3755 307.5447668  +6.3987501     1460.609     2262.477     2419.166     77.66555     155.8902     311.6873      1.648     4.24     842.7007     54.96182     256.5568        15     1.410     0.824  61.79   0
       204    862.6484    730.7982 307.5554652  +6.3997902     1030.615     1323.482       1728.2     77.54099     155.5798     311.4081      1.295     3.14     843.2355     54.96182     168.8781        10     0.850     0.811  42.90   0
       205    648.3823    730.2977 307.6444504  +6.3928203     505.1641     593.7541     134.9755     78.03806     155.7661     311.5943      1.482     3.49     844.5435     54.96182     99.12756         5     0.787     0.448  73.07   0
       206    844.9085    726.7338 307.5629677  +6.4008745     1465.051     2182.676      2044.81     78.16183      156.138     311.8114      1.536     3.57     843.1681     54.96182     238.5659        14     1.166     0.791  71.13   0
       207     43.9297    725.4816 307.8955825  +6.3744808     2449.277     3672.015     3598.303     78.40878     156.2618     311.8424      1.645     3.75     844.3569     54.96182     381.1735        24     1.438     0.968  50.86   0
       208    107.8071    724.0628 307.8691096  +6.3772204     995.2753     1898.871     2231.801     77.54099     155.7661     311.5943      1.923     6.45     845.1097     54.96182     170.8333        14     1.766     0.661  71.24   0
       209    456.5663    725.2058 307.7242666  +6.3884848     541.4359     708.4537      700.908     77.54099     155.7661     311.5943      1.112     3.45     845.1425     54.96182     108.2465         5     0.741     0.465 -72.63   0
       210    656.5613    714.1821 307.6415961  +6.3997476     6432.646     9450.596     10037.36     77.78992     155.8282     311.5943      1.538     3.34      844.136     54.96182     1132.709        31     1.421     0.955  60.86   0
       211    603.2970    713.3204 307.6637417  +6.3983170     1340.405     1980.648     2329.924     77.91409     156.1999     311.8734      1.671     4.67     844.9131     54.96182     230.1847        12     1.262     0.660  62.36   0
       212    525.4290    714.2792 307.6960417  +6.3953081     672.8632     893.2941     895.7344     78.03806     155.9522     311.8114      1.339     2.65     844.8322     54.96182     129.6542         5     0.690     0.490  81.85   0
       213    514.2571    713.5294 307.7007057  +6.3952426     872.9526      1578.44     1757.422      78.2854     155.9522     311.7804      1.841     5.66      844.873     54.96182     144.3033        10     1.378     0.655  55.31   0
       214    119.5080    709.9244 307.8647293  +6.3834514     3820.502     5856.658     6217.866     78.03805     156.0761     311.8114      1.596     3.57     844.9547     54.96182     597.3497        23     1.447     0.892  61.18   0
       215    993.6088    709.5005 307.5017999  +6.4129615     2601.042     3922.843     3812.475     77.91409     155.5798     311.6563      1.623     3.76     840.4015     54.96182     406.3145        23     1.335     0.989  56.63   0
       216    630.5936    709.9030 307.6525224  +6.4006434     2218.438     2982.217     2960.096     77.91409     155.5798     311.5943      1.448     3.62     844.5079     54.96182     353.6155        18     1.263     0.838  66.03   0
       217    306.3211    709.8631 307.7871667  +6.3897676     723.5632     1224.551      1426.63     78.40878     156.0142     311.8114      2.085     5.06     845.2123     54.96182     118.6121         9     1.084     0.669  50.97   0
       218    241.9956    709.7639 307.8138782  +6.3876437     587.9738     885.5674     1021.931     77.29126      155.704     311.6253      1.651     4.33     845.3261     54.96182     75.61078         7     1.199     0.445  57.40   0
       219    773.4244    706.2580 307.5933374  +6.4069347     20875.92     30768.73     32510.91     77.78992     155.9522     311.6873      1.578     3.50     843.5421     54.96182     3552.193        51     1.530     1.091  57.18   0
       220    903.4781    705.8954 307.5393466  +6.4114368     3759.406     5594.482     5640.305     77.91409     156.1999     311.8424      1.588     3.37     841.4009     54.96182     608.7491        24     1.389     0.910  60.17   0
       221    501.1053    706.4866 307.7064037  +6.3977085     1005.725      1370.42     1642.583     78.16182     156.3236     311.8734      1.420     4.24     844.7153     54.96182     152.6925         9     1.171     0.625  63.31   0
       222    472.6129    706.4533 307.7182354  +6.3967653     1450.359     1977.679     1650.929     77.54099     155.8902     311.5633      1.558     3.79     844.7042     54.96182      246.332        15     1.227     0.846  51.17   0
       223    319.0365    706.2148 307.7820103  +6.3917015     644.2288     995.9227     1029.397     77.78992     155.7661     311.5943      1.828     5.07      844.929     54.96182     81.18506         8     1.194     0.609  44.47   0
       224    275.0076    706.4687 307.8002828  +6.3901152     633.7767     916.7944     825.4156     77.66555      155.642     311.7184      1.481     4.68     845.1539     54.96182     83.55988         8     0.872     0.712 -83.05   0
       225    246.9410    699.7725 307.8121622  +6.3919348     6299.735     9618.401     9899.583     77.78992     156.0142     311.6873      1.602     3.70     844.8263     54.96182     973.2469        35     1.476     1.105  62.13   0
       226    653.9869    698.9828 307.6431760  +6.4059360     7155.213     11075.77     12031.67     77.91409      155.642     311.7184      1.597     3.47      843.954     54.96182     1128.609        34     1.532     1.011  63.23   0
       227    636.4011    700.4674 307.6504282  +6.4047334     965.7195     1330.941      1716.83     77.54099     155.5177     311.6253      1.591     5.80     844.2567     54.96182     149.0562        11     1.282     0.740  70.13   0
       228    349.2689    698.7714 307.7697085  +6.3957911     583.1592     1006.822     953.8495     77.91409     155.9522     311.7494      1.501     3.42     844.4482     54.96182     105.6653         5     1.211     0.280  55.58   0
       229    913.7751    691.7490 307.5355453  +6.4176214     1198.269     1746.445     1542.255     77.78992     155.9522     311.7184      1.501     4.87     840.7769     54.96182     191.2844        11     1.160     0.672  50.93   0
       230    725.6993    687.5483 307.6137830  +6.4130601     3840.949     5982.665     6601.086     78.16183     155.9522     312.0283      1.668     3.87     843.5161     54.96182     593.1955        28     1.494     0.981  63.48   0
       231    680.9485    687.9125 307.6323528  +6.4114100     1190.321     1815.574     2132.352     78.16183     155.8282     311.9044      1.474     4.25     843.4994     54.96182      193.903        16     1.301     0.892  79.97   0
       232    991.9755    684.0802 307.5033299  +6.4234015     8870.397      13417.4     13593.16     77.91409     155.7661     311.7804      1.566     3.45     840.1585     54.96182      1298.86        36     1.500     1.038  58.97   0
       233    930.4101    684.6711 307.5288750  +6.4210997     2454.584     3599.726     4073.061     77.66556     155.5798     311.6253      1.565     3.70     840.3238     54.96182     377.6463        20     1.314     0.931  77.11   0
       234     10.7414    683.5801 307.9107792  +6.3906586     1812.804     3172.914     3873.646     77.78992     155.8282     311.6253      1.881     5.74     843.9975     54.96182     242.2655        23     1.729     0.960  45.91  16
       235    428.3504    681.9517 307.7374394  +6.4053932      724.517     1078.865     1455.663     78.16182     155.8282     311.7804      1.505     2.92     843.8937     54.96182     115.8115         7     0.721     0.667 -87.30   0
       236     69.3464    678.8340 307.8866072  +6.3945948     26052.29     40156.93     42402.83     78.03806     155.9522     311.7494      1.642     3.50     844.0849     54.96182     3851.782        56     1.577     1.152  61.82   0
       237    530.6512    679.7978 307.6950340  +6.4097184     2167.433     3277.225     3362.569     77.54099     155.5798     311.4081      1.623     3.43      844.202     54.96182     366.9479        19     1.358     0.842  67.15   0
       238    499.4401    676.8977 307.7080914  +6.4098677     1360.538     2041.633     2031.025     78.16182     155.8282     312.0283      1.559     4.84     843.9573     54.96182     205.3728        16     1.415     0.811  65.81   0
       239    920.2977    675.8810 307.5333689  +6.4243904     1085.343     1464.069     1128.119     78.03806     156.2618     311.8734      1.432     4.01     840.2567     54.96182     183.8386        10     1.125     0.590  47.02   0
       240    539.8411    673.7029 307.6914233  +6.4125430     960.1503     1368.614     1424.279     78.16183     155.8282     312.0283      1.582     3.51     844.1555     54.96182     174.1687        10     1.049     0.694  43.20   0
       241    715.4611    671.2556 307.6185816  +6.4194432     3602.615     5081.141     5121.676      78.2854     155.9522     311.8114      1.446     3.31     843.1102     54.96182     560.3989        20     1.270     0.852  62.23   0
       242    737.4323    669.4691 307.6095183  +6.4209169     4339.186     6078.624      6275.85     78.03806     155.9522     311.8114      1.549     3.17      842.985     54.96182      770.596        23     1.323     0.915  68.02   0
       243    568.8686    667.3515 307.6795838  +6.4161393     3435.673     4782.144     4932.596     78.16183     155.8902     311.8114      1.465     3.16     843.9608     54.96182     625.1192        22     1.338     0.882  68.52   0
       244   1010.2769    665.5531 307.4963509  +6.4316617     5037.678     7483.546     7595.759     78.03806     156.0142     311.7804      1.621     3.58     839.5737     54.96182     671.5963        28     1.449     0.956  60.69   0
       245    404.7729    667.6997 307.7477097  +6.4104844     1253.199     2140.748     2436.378     78.16183     155.7041     311.7184      1.762     4.92     843.4838     54.96182     176.2805        12     1.184     0.722  49.56   0
       246    313.2354    666.4183 307.7857614  +6.4079352     1535.347     2162.888     2002.022     77.66556     155.7661     311.5943      1.487     3.43      843.324     54.96182      224.015        15     1.165     0.817  69.03   0
       247    229.5350    666.6984 307.8205058  +6.4050025     1682.623     2760.289     3068.426     78.16183     156.0142     311.8424      1.854     4.62      843.309     54.96182     304.0446        18     1.521     0.745  68.56   0
       248    975.6888    664.3558 307.5107539  +6.4310002     8059.961     12319.21     12774.88     78.16183     155.8282     311.8424      1.663     3.53     839.6231     54.96182     1395.106        36     1.507     1.037  59.30   0
       249    529.9429    665.2259 307.6958187  +6.4157103     638.8617     902.8221     710.7249     77.78992     155.9522     311.6873      1.455     3.38      843.815     54.96182     91.31311         5     0.790     0.500  52.31   0
       250    695.4410    663.2231 307.6271648  +6.4220884     855.9032     1235.852      1519.06     77.78992     155.7661     311.5943      1.552     3.40     842.9084     54.96182     153.3644         9     1.095     0.645  63.81   0
       251     87.1662    661.4186 307.8797972  +6.4023850       753.08     1001.726     790.6854     77.66555     155.7661     311.6253      1.341     3.92     843.7545     54.96182      142.491         7     0.993     0.566  76.02   0
       252    421.0049    658.8301 307.7412686  +6.4146915     2976.965     4426.122     5346.729     77.66555     155.7661     311.5943      1.632     3.48     843.2119     54.96182     477.4586        21     1.309     0.899  66.33   0
       253    134.0831    657.7156 307.8604420  +6.4054953     24523.08     36848.48      38210.8     77.91409      156.138     311.8734      1.580     3.50     843.8571     54.96182      3558.14        52     1.539     1.110  63.16   0
       254    802.5350    658.6635 307.5828475  +6.4275582     1266.993      1611.86     1693.061     78.16183     155.9522     311.8114      1.391     2.99     842.3778     54.96182     223.3405        13     1.083     0.767  47.27   0
       255    638.8532    658.2351 307.6508301  +6.4222505     511.6068     669.1575       176.91     78.03805     155.9522     311.8114      1.522     4.61     843.1832     54.96182     80.44629         6     1.441     0.418  67.50   0
       256    353.8384    653.1884 307.7693482  +6.4147625     648.9052     1086.238     1108.949     77.66555     155.7661     311.5322      1.686     5.09     842.8978     54.96182     91.32812         8     1.217     0.602 -44.79   0
       257    970.6232    647.4277 307.5134248  +6.4378195     7043.264     11195.88     12390.59     77.66556     155.8282     311.6563      1.753     4.00     838.8971     54.96182     1119.388        41     1.779     1.060  49.50   0
       258     15.2632    646.4758 307.9101571  +6.4061283     1287.514     1860.381     1580.754     78.40878     155.9522     311.7804      1.540     3.22      844.165     54.96182     206.8954        15     1.056     0.920  55.03   0
       259   1023.6404    641.5565 307.4916055  +6.4420149     14495.58     18989.43     20428.95      68.1172      124.131     234.9796      1.242     3.61     837.6812     54.96182     4037.918        30     1.646     0.653 -89.81  24
       260    928.4882    644.5171 307.5310194  +6.4376125     712.9109     894.0486     940.3503     77.91409      156.138     311.8424      1.481     4.83     839.5338     54.96182     98.04065         9     0.911     0.814  64.53   0
       261    207.5812    643.7669 307.8303957  +6.4137297     701.0095     1253.746     1478.501     77.66556     155.7661     311.6253      1.852     4.87     843.0341     54.96182     107.7611         9     1.381     0.487  86.42   0
       262    523.3735    642.9860 307.6992952  +6.4246710     838.1521      1488.92     1393.928     77.91409     155.7661     311.7494      1.712     6.20     843.0507     54.96182     110.8587        13     1.417     0.763  35.18   0
       263    789.2355    642.4860 307.5889133  +6.4337915     561.1811     567.4446     297.3274     78.16183     155.8282     311.8114      1.284     2.63     841.9175     54.96182     112.9859         5     0.712     0.471  18.12   0
       264    171.6933    639.0387 307.8454568  +6.4144728     2796.961     4418.576     4554.372      78.2854     155.8902     311.8734      1.686     3.91     843.2832     54.96182     415.1294        23     1.360     1.050  68.40   0
       265    564.1132    642.6407 307.6823900  +6.4261810      49725.2     73298.99     77006.75     78.16183     155.9522     311.8424      1.573     3.48     843.1258     54.96182     7416.086        73     1.549     1.200  62.39   0
       266    494.4830    639.2871 307.7114162  +6.4252279     543.8336     869.6067     819.0898     77.91409      156.138     311.8734      1.635     3.43     842.6489     54.96182     101.9108         5     0.752     0.453  69.43   0
       267     64.3632    633.6252 307.8902050  +6.4130896     1404.244     2131.721     2533.257     77.78992     155.7661     311.5633      1.759     3.99     843.5173     54.96182     235.8998        13     1.215     0.811  54.25   0
       268    461.3578    626.3949 307.7256055  +6.4294375      63228.2     95130.08     100140.4     77.54099      155.642     311.5322      1.616     3.51     842.0853     54.96182      10186.7        76     1.609     1.163  60.56   0
       269      4.9371    628.1277 307.9150654  +6.4133541     1650.797     2518.149      2633.19      78.2854     155.9522     284.7171      1.600     4.08     844.4376     54.96182     251.8125        18     1.318     0.915  48.41  16
       270    647.5251    623.7421 307.6483890  +6.4367811     913.8914     1280.053     1119.561     78.16183     155.9522     311.7804      1.369     3.59     841.8434     54.96182     189.2471         8     0.957     0.685  62.07   0
       271    135.8384    621.3608 307.8609418  +6.4205623     1756.258      2661.87     2533.135     77.91409     155.8902     311.6873      1.560     3.40     842.7669     54.96182     326.2781        19     1.391     0.843  66.69   0
       272    414.8497    619.1949 307.7451602  +6.4308471     859.1852     1533.621     1430.948     77.54099     155.7661     311.4391      1.811     5.50     841.8889     54.96182        134.8        12     1.393     0.612  60.89   0
       273    930.8320    619.3334 307.5308905  +6.4480877     599.9519      621.316     491.0074     78.03806     156.0142     311.7494      1.182     4.11     838.9637     54.96182     96.80768         7     0.849     0.620  31.33   0
       274    607.5867    618.4016 307.6651532  +6.4376464     1004.451      1486.25     1518.243     77.78992      155.642     311.5943      1.510     4.10     841.7132     54.96182     141.6868        12     1.059     0.814  59.19   0
       275    306.8959    615.7624 307.7901026  +6.4286338     2248.508     3431.816     3555.026     78.16182     155.8282     311.9354      1.616     3.83     841.7557     54.96182     371.8687        21     1.459     0.863  56.47   0
       276     14.0399    616.1052 307.9116926  +6.4186243     631.9601     874.8683     1107.062      78.2854     155.8902     311.9044      1.427     4.53     844.3593     54.96182     84.65991         6     1.043     0.559  78.85   0
       277      7.5149    616.8799 307.9143756  +6.4180843     702.2773     1093.368     1434.023     78.03805     156.2618     307.8804      1.538     4.10     844.4792     54.96182     99.72992         8     0.895     0.666  36.62   0
       278    459.1937    614.9895 307.7268883  +6.4340733     988.7842     1483.354     2410.539     77.66555     155.7661     311.7184      1.516     3.54     841.7078     54.96182     159.5256        10     1.006     0.718  -8.54   0
       279    733.4540    610.0614 307.6131661  +6.4453091     5526.797     7885.784     8063.366      78.2854     155.8902     311.7804      1.505     3.30     841.0379     54.96182     916.9517        28     1.345     0.976  62.74   0
       280    786.9316    605.2483 307.5911204  +6.4490874     14586.95     21422.97     22059.79     78.16183     155.8902     311.8114      1.556     3.39     840.7079     54.96182     2310.041        41     1.450     1.069  59.28   0
       281   1004.2270    605.9668 307.5008597  +6.4560591     1174.517     1681.267     1477.005     77.66555      155.704     311.5943      1.437     3.91     835.7999     54.96182     206.0498        12     1.094     0.795  34.34   0
       282    529.1016    605.1442 307.6981906  +6.4404855     1250.739     1992.504     2088.213     78.03805     155.9522     312.0283      1.751     4.83     841.8625     54.96182      216.418        15     1.449     0.851  85.56   0
       283    610.7671    603.2908 307.6643408  +6.4439912      3015.82     4453.127      4289.41      78.2854     155.8282     311.8114      1.594     3.48     841.1683     54.96182     489.2133        22     1.366     0.921  66.60   0
       284    928.3164    599.6151 307.5325964  +6.4561440     1261.187     1989.062     2524.358     77.78992      155.642     311.6873      1.896     4.41     838.4515     54.96182     167.9606        12     1.140     0.800  36.46   0
       285    369.2497    597.1357 307.7648390  +6.4384206     941.6251     1263.352     1600.792     78.03806     155.8902     311.8424      1.423     4.61      841.071     54.96182       150.41         8     1.031     0.586  83.87   0
       286    223.4998    596.6828 307.8253758  +6.4337030     1320.903     2170.746     2301.461     78.16183     156.4473     311.9044      1.767     4.81     841.7216     54.96182     189.9755        16     1.362     0.936  55.94   0
       287    187.0453    597.6868 307.8404791  +6.4320607     647.1321     1279.608     1911.158     78.16183     155.8282     311.7804      1.887     4.70      842.038     54.96182     97.83447         6     1.029     0.627  50.22   0
       288    863.0081    588.5898 307.5600871  +6.4585111     3067.272     4454.777      4720.74     77.66555     155.7661     311.7184      1.523     3.25     839.2389     54.96182     471.6725        20     1.285     0.872  58.23   0
       289    157.9687    588.3032 307.8528697  +6.4349548     624.8634     857.8041     673.0317      78.2854     155.7661     311.9044      1.471     5.62     842.0939     54.96182     94.68048         8     1.081     0.824  77.76   0
       290    821.9688    586.0429 307.5772152  +6.4581891     2643.264     3882.257     3724.238     77.78992     155.8902     311.6563      1.505     3.35     839.6815     54.96182     452.3701        21     1.225     0.938  61.44   0
       291    792.7065    581.9309 307.5895052  +6.4589070     2557.744      3921.42     4644.544     78.03806     156.0761     311.8114      1.603     3.25     839.8672     54.96182     484.6334        20     1.364     0.822  73.80   0
       292    735.2087    582.1857 307.6133740  +6.4568760     793.7917     1275.217     1824.339     77.91409     155.7041     311.6873      1.790     4.52     840.4122     54.96182     107.4099         7     1.034     0.562  66.16   0
       293    249.7764    580.6888 307.8150047  +6.4411904     8139.104     12181.29     13371.79     78.16183     155.7661     311.6873      1.630     3.57     840.9775     54.96182     1271.263        33     1.484     1.024  60.34   0
       294    802.3595    577.0840 307.5856593  +6.4612312       161178     239095.9     251478.1     78.16183     155.8902     311.7494      1.563     3.49     839.5921     54.96182      24943.7       125     1.659     1.242  62.50   0
       295    183.9500    575.3320 307.8425195  +6.4411849     58805.12     89804.79     95802.33     78.03805     155.8282     311.8114      1.650     3.50     841.5339     54.96182     9014.345        86     1.635     1.262  62.31   0
       296    732.6789    577.9636 307.6145664  +6.4585342      648.678     1166.487     1912.915     78.03805     156.0142     311.8114      1.942     4.29     840.3286     54.96182     93.22687         7     0.874     0.601 -64.03   0
       297    107.9508    571.4930 307.8742071  +6.4402084     6176.313     9475.311     9926.928     78.03805     155.8282     311.9354      1.654     3.69     842.0384     54.96182     974.7141        32     1.452     1.061  64.60   0
       298    973.4835    569.0526 307.5148640  +6.4702714     1512.639     2233.255     2213.349     78.16182     155.9522     311.9044      1.597     3.93     835.3352     54.96182     213.6592        17     1.249     0.861  60.70   0
       299    994.3974    568.2877 307.5062043  +6.4712861     736.3044     1006.882      1174.31     77.54099     155.5798     311.5633      1.270     2.69      834.475     54.96182     125.4218         5     0.715     0.450  69.72   0
       300    838.9619    564.4891 307.5708818  +6.4676561     4537.436     6635.146     7309.453     78.16182     155.8902     311.8424      1.534     3.43     838.8712     54.96182     767.1709        27     1.484     0.931  62.86   0
       301    222.1929    566.7977 307.8269276  +6.4459962     799.5751     1318.204     1726.529     77.54099      155.642     311.6563      1.766     5.64     840.6652     54.96182     139.8396        10     1.377     0.885  54.43   0
       302    357.3875    562.4817 307.7709334  +6.4523277     17437.31     26015.79     27169.48     77.78992      155.642     311.6563      1.625     3.51      839.838     54.96182     2792.657        46     1.494     1.108  58.68   0
       303    447.8956    562.5464 307.7333468  +6.4553436     845.4838     1121.617     1243.943     78.03805     155.9522     312.0593      1.530     4.54      839.972     54.96182     121.5575        10     1.100     0.750  48.72   0
       304    159.3090    561.2847 307.8532261  +6.4461536     1901.783     2951.246     3424.278     77.91409     156.2618     311.9354      1.726     4.15     841.6832     54.96182     317.1696        16     1.261     0.813  69.55   0
       305    792.9625    557.7377 307.5902113  +6.4689034     5931.045     8731.001      9212.39     78.16183     156.0142     311.8114      1.535     3.37     839.0141     54.96182     1006.606        28     1.425     0.941  59.41   0
       306    523.7943    557.3724 307.7020028  +6.4600288     6537.232     9653.412     9817.148     77.66556     155.7661     311.6253      1.576     3.63     839.9592     54.96182     1062.916        31     1.416     1.018  60.57   0
       307    234.5526    558.9088 307.8220617  +6.4496691     1037.201     1591.918     2248.332     78.16182     155.8902     311.9354      1.922     5.88     840.2875     54.96182     122.2695        12     1.067     0.911  27.74   0
       308     96.8209    559.0520 307.8792493  +6.4449690     793.5629     1256.618     1330.151     77.66555     155.9522     311.6253      1.433     4.24     841.9791     54.96182     138.3651         7     0.740     0.693   2.74   0
       309    382.0476    553.9353 307.7609812  +6.4566851     1435.839     2111.479     2229.526     78.03806     155.8282     311.8734      1.457     3.66     839.5645     54.96182     220.0217        14     1.223     0.725  86.69   0
       310    568.5627    550.4727 307.6836440  +6.4643800     2313.897     3814.154     3916.885     78.03806     155.9522     311.8734      1.778     4.04     839.8417     54.96182     314.6925        25     1.320     1.213 -34.53   0
       311    265.9848    546.9764 307.8094122  +6.4556532      86623.5     132799.4     139331.2     77.91409     155.7661     311.7184      1.602     3.50     839.8098     54.96182     12044.61        86     1.603     1.238  62.21   0
       312    170.7350    550.4627 307.8488472  +6.4510061     6909.815     10345.18     10611.95     78.16183     155.9522     311.8424      1.643     3.90     841.2679     54.96182     1070.786        31     1.491     0.989  62.86   0
       313    809.4613    549.8695 307.5836238  +6.4727040     1456.066     2204.749     2369.759      78.2854     155.9522     311.8424      1.528     3.84     838.5667     54.96182     225.7471        15     1.310     0.748  65.72   0
       314     42.3616    549.1862 307.9021967  +6.4472049     5091.375     7905.037     8356.986     77.78992     155.7661     311.5322      1.652     3.40     842.1562     54.96182     748.4934        30     1.523     0.985  50.94   0
       315    555.6863    544.6305 307.6891879  +6.4663597     1041.766     1544.903      1679.28      78.2854     155.7041     311.7184      1.703     3.49     839.5764     54.96182     170.1943        13     1.120     0.786  55.31   0
       316    249.8223    542.0602 307.8162897  +6.4571386      1395.22     1931.358    -125.2649     77.78992     155.8902     311.7494      1.433     3.49     839.6453     54.96182     240.9973        14     1.283     0.690  61.14   0
       317    965.6072    540.9959 307.5190754  +6.4815910     1732.108      2323.11     2606.858     77.54099      155.642     311.6873      1.373     3.07     834.4341     54.96182     311.4797        14     1.198     0.697  69.93   0
       318    789.0770    539.4906 307.5924377  +6.4763063     16631.32     24243.78     25616.79     78.03805     156.1999     311.8114      1.567     3.53     838.4429     54.96182       2524.4        48     1.505     1.099  59.11   0
       319    492.7484    537.8115 307.7155541  +6.4670615     40402.08      65667.8     70522.95     77.54099     155.8282     311.5633      1.760     3.97     839.2418     54.96182     5279.926        76     1.688     1.324  47.91   0
       320    643.5748    536.8214 307.6529524  +6.4725322     809.5206     1012.601     1353.607     77.78992     155.7661     311.7494      1.218     1.82     839.3331     54.96182     191.9494         5     0.671     0.442  64.05   0
       321    205.3405    534.0785 307.8350307  +6.4589356     1805.365     2953.978     2689.289      78.2854     155.9522     311.7494      1.718     4.12     839.9276     54.96182     289.3152        22     1.340     1.114 -87.80   0
       322     40.7495    534.5485 307.9033613  +6.4531931     1298.772     1953.889     1756.601      78.2854     155.8282     311.7494      1.642     3.92     841.9813     54.96182     184.5845        15     1.228     0.833  82.88   0
       323    663.0659    533.0596 307.6449846  +6.4747388     1431.027     2023.472     2260.909      78.2854     155.8902     311.8114      1.433     3.12     839.0161     54.96182     249.0178        13     1.196     0.712  68.20   0
       324    652.7509    532.8789 307.6492743  +6.4744675     3005.405     4629.731     5041.923     78.16183     156.0142     311.8114      1.594     3.77     839.0894     54.96182     510.0488        21     1.417     0.870  58.30   0
       325    715.0022    532.1043 307.6234482  +6.4768741      1500.55     2183.701      2029.82     77.66555      155.642     311.5012      1.447     3.18     838.9799     54.96182      280.963        14     1.175     0.719  79.50   0
       326     70.6621    530.0745 307.8910915  +6.4560491       726.78     1810.769     1296.708     78.40878     155.9522     311.8114      2.312     7.52     841.7795     54.96182     112.8752        15     1.981     0.800  32.95   0
       327    390.4224    528.5186 307.7583604  +6.4674593      1909.36     2751.481     3113.346     77.91409      155.642     311.7494      1.621     4.35     838.5339     54.96182     279.3378        18     1.392     0.804  60.79   0
       328    501.7909    526.1325 307.7121923  +6.4721867     2118.748     3414.674      4162.52     77.66555     155.7661     311.7184      1.694     3.77      838.798     54.96182     331.5044        20     1.299     0.942  70.74   0
       329    321.9727    526.7540 307.7868450  +6.4658856     3836.109     5698.746       6102.9     77.66555     156.0142     311.7184      1.568     3.61     838.6277     54.96182     619.3413        26     1.386     0.981  61.13   0
       330    137.0720    525.3444 307.8636746  +6.4602409     25954.51     39409.63      40761.2     78.03806     155.8902     311.7804      1.608     3.46     841.0648     54.96182     3746.951        52     1.524     1.128  60.66   0
       331    865.0362    525.5064 307.5613618  +6.4846221     1664.789     2171.492     1986.655      78.2854     155.8282     311.9044      1.384     3.31     837.3774     54.96182     319.1542        12     1.148     0.649  69.29   0
       332    102.1833    523.6201 307.8782206  +6.4597766     2728.136     4546.228     4849.649     77.91409     155.7661     311.7184      1.761     3.80      841.484     54.96182     384.6989        27     1.535     1.046  52.03   0
       333    339.2661    522.0270 307.7798231  +6.4684188     980.1324     1642.121      791.117     77.78992     155.8282     311.7184      1.588     4.69     838.3141     54.96182     153.2378        12     1.223     0.797  77.80   0
       334    962.6738    520.0386 307.5209963  +6.4901449      5296.31     7847.427     8140.458     78.03805     155.9522     311.8734      1.558     3.35     834.0322     54.96182     865.5416        28     1.465     0.960  60.36   0
       335    577.0654    514.1131 307.6813367  +6.4796757      2376.87     2391.716     2224.737     78.16183      156.138     311.8424      0.462     1.89     838.4264     54.96182     1846.652         5     0.372     0.304  24.67   0
       336    535.5553    512.3376 307.6986350  +6.4790153     1495.111     2340.116      2418.55     78.16183     155.8902     311.9044      1.686     4.40     838.2414     54.96182     222.2896        17     1.366     0.823  50.36   0
       337      1.8774    509.8911 307.9203371  +6.4620602      23109.3     29863.36      30645.5     74.09866     131.9816     243.5051      1.344     3.27      842.116     54.96182     3771.067        35     1.380     0.895  86.37  24
       338    434.1071    506.5071 307.7409612  +6.4780146     43273.47     64818.54     67774.34     78.16182     156.4473     311.7804      1.595     3.44     837.6838     54.96182     6200.828        65     1.556     1.176  60.34   0
       339    642.1289    506.1497 307.6545844  +6.4851460     12149.42     18052.46     18617.62     78.16182     155.9522     311.8424      1.557     3.49     837.9687     54.96182     1742.905        39     1.460     1.061  60.53   0
       340    282.0478    506.9167 307.8040940  +6.4727313     962.4758     1457.833     2005.668     78.16183     155.9522     311.8114      1.538     4.00     837.8586     54.96182     148.9317        10     1.079     0.659  67.61   0
       341    199.2534    504.0407 307.8385730  +6.4711307     18922.83      30067.5     31647.03     78.03806     155.9522     311.8424      1.694     3.91     839.0357     54.96182     2633.187        46     1.616     1.115  55.57   0
       342    976.2456    504.8118 307.5158703  +6.4968847      1179.52     1662.319     2184.547     77.66555     155.7661     311.5322      1.482     4.00     833.3806     54.96182     209.0754        11     1.185     0.745  72.42   0
       343    904.8943    504.2879 307.5455205  +6.4947153     887.9031      1255.84     1851.703     78.16183     156.3855     311.8734      1.690     5.83     835.0894     54.96182     138.2313        12     1.261     0.827  77.50   0
       344    165.1231    505.1726 307.8527079  +6.4695135     1531.266     2235.664     2010.374     78.03805     155.8902     311.7804      1.644     5.01      839.996     54.96182     207.6805        17     1.388     0.885  66.69   0
       345    816.4512    504.3887 307.5822479  +6.4917141     945.3037     1136.382     1493.968     77.54099     155.8282     311.5633      1.214     3.04     837.0441     54.96182     155.4421         7     0.912     0.490 -83.47   0
       346    563.8856    502.8999 307.6871876  +6.4838625     2817.962     4184.184      4319.06     78.16183     156.4473     311.9044      1.569     3.36     837.9322     54.96182     425.2996        23     1.408     0.932  62.75   0
       347    937.7557    500.1524 307.5320117  +6.4975215     4749.416     7162.941     7233.516     78.16183     155.8902     311.7494      1.548     3.45     834.0378     54.96182     834.0036        26     1.388     0.973  65.86   0
       348    611.0056    498.5698 307.6677647  +6.4872312     6646.826     9754.901     10053.68     77.66555     155.7661     311.5943      1.566     3.45     837.8492     54.96182     1094.503        30     1.424     1.004  65.78   0
       349     98.8164    498.9429 307.8804532  +6.4698501      1127.51     1621.959     1387.324     77.54099     155.8902     311.5633      1.508     3.15     841.1378     54.96182     207.9749        12     1.053     0.780  31.11   0
       350    960.3288    492.4427 307.5228954  +6.5014591     3578.897     5047.015      5468.51     78.03806     155.9522     311.8424      1.548     3.73     833.3967     54.96182     581.1141        25     1.425     0.930  64.48   0
       351    523.0952    489.7848 307.7045690  +6.4879074     7459.055     11286.13     11777.73     77.91409      155.704     311.6253      1.584     3.53      837.431     54.96182     1082.424        33     1.455     1.033  56.01   0
       352    369.1010    490.0457 307.7685120  +6.4826249     2616.883     4134.783     4374.643     78.16183     155.8282     312.0283      1.641     3.81     836.8342     54.96182       352.72        24     1.379     1.063  49.71   0
       353    398.7560    490.5440 307.7561800  +6.4834163     562.7235     904.8954     1140.988     78.16183     155.9522     311.8424      1.622     4.91     836.8276     54.96182     90.60071         7     1.117     0.612  68.27   0
       354    532.7343    486.8194 307.7006658  +6.4894552     743.9749     1035.822     1299.903     77.78992     155.9522     311.7184      1.357     4.44     837.2968     54.96182     120.1711         8     1.081     0.587 -80.95   0
       355    879.3423    485.6330 307.5567584  +6.5015619     3109.339     4506.181     5804.248     78.03806     156.0142     311.7494      1.747     4.20     835.0166     54.96182     515.6453        24     1.720     0.985  38.21   0
       356    227.6835    485.5796 307.8273904  +6.4797093     721.7443     1184.064     897.7708     77.91409      155.642     311.7494      1.808     4.03     837.6316     54.96182     102.9869         8     0.831     0.804  51.00   0
       357    926.4077    479.4347 307.5374194  +6.5056951     1253.876     1810.594     2050.035     77.66556     155.7661     311.5943      1.413     4.65     833.5126     54.96182      221.638        13     1.292     0.836  61.60   0
       358    887.1059    480.1041 307.5537196  +6.5041042     2202.712     3355.693     3612.414     78.16183     156.5708     311.7494      1.550     3.63     834.5377     54.96182     348.9133        21     1.412     0.892  56.96   0
       359    265.2561    478.9375 307.8120116  +6.4837164     520.7826     702.4467     337.9153      78.2854     155.9522     311.8424      1.220     5.02     836.7782     54.96182     91.56769         8     1.155     0.617  78.92   0
       360    105.8305    479.2448 307.8782065  +6.4782182      772.399     1169.801     987.1435     77.78992     156.0142     311.6873      1.612     4.27      840.626     54.96182     149.9122         8     1.271     0.645  46.56   0
       361    710.9774    476.0801 307.6270027  +6.4998678      3078.83     4614.332     4857.313     77.78992      155.642     311.7804      1.530     3.37     836.5105     54.96182       488.51        21     1.293     0.873  61.46   0
       362    422.3636    474.7509 307.7469085  +6.4907297     1109.996     1681.214     2465.016     77.91409     155.8902     311.7184      1.676     3.77     836.1249     54.96182     147.3368        13     1.125     0.838  66.26   0
       363    381.8176    474.1691 307.7637664  +6.4896067     3763.169     5785.476      6121.22     77.78992     155.7661     311.6873      1.629     3.54     836.0788     54.96182     585.7144        23     1.397     0.906  62.73   0
       364     72.7968    475.0385 307.8920665  +6.4788406     1929.963     2780.686     2734.388     77.29126      155.704     311.5633      1.503     3.55     841.0593     54.96182     311.9757        18     1.292     0.840  56.50   0
       365    609.6035    470.8093 307.6692810  +6.4986445     10291.37     15240.94     15885.78     77.54099      155.642     311.6563      1.587     3.35     836.4951     54.96182     1738.096        37     1.421     1.054  62.04   0
       366    772.2878    467.3742 307.6018324  +6.5055161     16614.44     24200.18     26091.09      78.2854     155.7661     311.6563      1.563     3.50     836.0624     54.96182      2731.42        42     1.461     1.047  61.17   0
       367    292.0704    467.7006 307.8012554  +6.4892579     2770.491     4305.872      4401.79     78.03806     156.0761     311.8424      1.615     3.66     835.8378     54.96182     390.6727        23     1.418     1.010  65.05   0
       368    415.7347    467.3578 307.7499106  +6.4935589     678.8254     993.9224     1582.228     78.16183     155.8902     311.8734      1.760     4.29     835.6909     54.96182     140.0256         8     1.181     0.632  57.61   0
       369    375.3391    464.3521 307.7667879  +6.4934415     1492.874     2425.028     2921.235     78.16183     155.8902     311.8734      1.683     3.67     835.6106     54.96182     201.2543        19     1.317     0.889  70.06   0
       370    902.0737    464.6439 307.5480219  +6.5109874       549.29     850.8065     1174.295     78.03806     156.0142     311.8424      1.418     4.46     833.7114     54.96182     82.17889         7     0.905     0.627  25.77   0
       371    801.4343    464.4087 307.5898271  +6.5077164     1278.363     1840.924     2227.224     77.66556     155.7661     311.6253      1.542     3.79     835.7993     54.96182      203.165        12     1.183     0.704  51.82   0
       372    957.5916    462.3374 307.5250416  +6.5137962      2149.97      3084.79     3604.369     77.54099     155.7041     311.6253      1.667     3.64     832.5737     54.96182     337.7245        19     1.268     0.907  54.04   0
       373    846.0396    462.1058 307.5713791  +6.5101603     522.9615     740.9421     773.9659      78.2854     155.8902     311.9044      1.409     4.68      834.757     54.96182     79.37695         7     1.234     0.504  83.05   0
       374    776.6473    462.7917 307.6001758  +6.5075539     1430.637     2189.277     3125.463     77.66556     155.8282     311.4702      1.611     3.70     835.8665     54.96182     234.6759        11     1.075     0.709  42.21   0
       375    706.3846    461.9007 307.6293867  +6.5055676     638.6852      947.741     881.5489     78.16183      155.704     311.5322      1.386     4.91      836.027     54.96182       116.98         8     1.145     0.598  44.38   0
       376    109.7227    459.2246 307.8772671  +6.4866141     4363.521     6666.979     7003.326     77.78992     155.8282     311.7804      1.619     3.64     839.9296     54.96182     665.1815        28     1.438     0.984  63.27   0
       377    363.9635    460.2754 307.7716496  +6.4947419     794.9264     1399.908     1849.283     78.03806     156.0142     311.8424      1.948     2.57     835.4331     54.96182      139.328         7     0.704     0.671  -1.91   0
       378    747.9365    458.4084 307.6122470  +6.5084017     2261.972     3496.639     3143.359     77.66555     155.7041     311.6253      1.593     3.90     835.8221     54.96182     355.4351        20     1.412     0.830  59.25   0
       379   1011.5338    457.1858 307.5028108  +6.5177258     4209.888     6948.376     7279.136     77.66555     155.8282     311.7494      1.752     4.16     831.3859     54.96182     538.5573        32     1.628     1.016  50.15   0
       380    267.7686    456.4753 307.8117265  +6.4930738     1591.248     2323.347     2827.123     78.03806     156.0142     311.7804      1.510     3.38     835.8093     54.96182     228.0403        13     1.139     0.747  66.14   0
       381    345.7518    453.9417 307.7794264  +6.4967441     3231.687     4898.252     4623.337     78.16182     155.9522     311.9044      1.569     3.81     835.1553     54.96182     491.9125        23     1.352     0.955  61.01   0
       382    701.6265    451.8615 307.6317003  +6.5095526     1634.243     2170.821      2100.79     77.78992     155.9522     311.7184      1.369     4.27     835.6816     54.96182     258.2822        13     1.195     0.712  56.81   0
       383    121.3652    452.4521 307.8726612  +6.4898024     1232.779      1247.93     1484.166     78.03806     155.9522     311.7184      0.835     1.67      839.455     54.96182     397.5056         5     0.629     0.437  31.80   0
       384    975.4994    450.7501 307.5179925  +6.5191785      661.044     948.8135     959.9891     78.16183     155.9522     311.9663      1.311     3.38     831.8882     54.96182      105.761         5     0.761     0.435 -66.80   0
       385    233.5928    449.8564 307.8261428  +6.4946555     816.3148     1053.957     1302.401     77.66555     155.8282     311.5633      1.373     3.58     836.5563     54.96182      160.092         8     0.982     0.709  61.22   0
       386    543.1518    444.5165 307.6977637  +6.5072687     1077.291     1842.908     2338.475     78.16183     155.9522     311.8424      1.817     5.20     835.0387     54.96182     149.6471        14     1.386     0.872  79.32   0
       387    691.7386    444.2880 307.6360615  +6.5123477       548.61     1038.188     1281.598     78.16183      156.138     311.8424      1.862     4.63     835.4053     54.96182     91.22998         5     1.312     0.463 -44.22   0
       388    465.2271    442.9065 307.7301806  +6.5053163     1315.604     1985.705     1975.946      78.2854      155.704     311.6563      1.771     3.89     834.9208     54.96182     192.0471        14     1.170     0.839  53.11   0
       389    827.9492    442.0522 307.5795656  +6.5178337      1748.13     2350.545     2366.487      78.2854     155.8282     311.8424      1.453     3.23     834.2091     54.96182     324.2863        14     1.173     0.740  68.29   0
       390    813.3994    440.9041 307.5856471  +6.5178205     1942.103     2951.266     3070.427     77.66555     155.5798     311.4391      1.563     3.28     834.4355     54.96182     312.4977        17     1.243     0.840  51.17   0
       391    710.7548    439.0791 307.6283388  +6.5151355     15412.87     22757.76     23881.53     78.16182     155.9522     311.8114      1.569     3.43     835.2327     54.96182     2462.687        40     1.474     1.031  56.78   0
       392    613.1066    440.9330 307.6688314  +6.5110958     772.7711     906.5681     948.3635     78.03806      156.138     311.8114      1.365     3.91     834.8953     54.96182     144.2678         7     1.085     0.448  59.41   0
       393    631.8001    434.9444 307.6612691  +6.5141952     2542.889     3796.122     3773.385     77.41622     155.5798     311.4391      1.552     3.67     834.7408     54.96182     412.9702        20     1.250     0.908  49.42   0
       394    704.9156    434.4015 307.6309212  +6.5168709     719.4167     883.2397     1302.481     77.41622     155.5177     311.5012      1.139     3.56     835.0599     54.96182     132.9449         6     0.987     0.464 -60.43   0
       395    607.4592    432.5128 307.6714601  +6.5143825     4997.614     6058.951     6807.616     78.16183     156.0142     311.9044      1.249     2.63     834.4317     54.96182     746.0082        14     0.966     0.786 -89.23   3
       396    603.4301    429.5996 307.6732315  +6.5154499     15108.25     23980.85     26331.35     77.54099     155.7661     311.6253      1.734     3.58     834.2642     54.96182     2444.219        51     1.778     1.125  49.00   3
       397    936.0518    429.0505 307.5351039  +6.5268180     3901.339     5669.189     5560.648      78.2854     155.8282     311.8114      1.493     3.57     832.2112     54.96182     589.1002        23     1.412     0.836  61.87   0
       398    412.5953    426.7611 307.7525830  +6.5102126     602.6766     775.8806     552.8276     77.29126     155.7041     311.5633      1.141     4.18     833.8204     54.96182      110.059         6     1.177     0.424  57.65   0
       399    375.1781    424.8753 307.7681861  +6.5097330     28670.33     43933.43        46429     77.78992     155.8282     311.7494      1.620     3.44     833.7362     54.96182     4085.411        53     1.556     1.130  57.71   0
       400    891.8864    424.7818 307.5535904  +6.5271031     1570.767     2407.317     3435.708     77.78992      155.704     311.6873      2.005     7.46     832.6159     54.96182     269.7921        18     1.764     0.883  45.24   2
       401    121.2864    424.2224 307.8736484  +6.5014533     2460.046     3872.253     3670.677     78.16183     155.7661     311.6563      1.653     4.25     838.6285     54.96182     391.0064        21     1.343     0.947  65.80   0
       402    904.9045    419.5074 307.5483606  +6.5297161     5407.792     7633.467     7482.013     78.16182      156.509     311.7804      1.495     3.27     832.3718     54.96182     956.5094        27     1.300     0.970  60.21   0
       403    586.6968    421.0026 307.6804705  +6.5184375     715.8022     1087.447     1221.699     77.78992      155.642     311.5012      1.481     2.77     833.7532     54.96182     126.0418         7     0.735     0.654 -86.51   0
       404     54.6293    419.8542 307.9014778  +6.5010084     1564.774      2503.05     2584.681     77.91409     156.0142     311.7494      1.759     3.55     840.3011     54.96182     251.3777        18     1.264     0.963  66.56   0
       405    961.1191    417.4537 307.5250815  +6.5324437       755.93     1140.801     1006.211     78.16182     155.9522     311.8734      1.490     2.43     831.1434     54.96182     151.6407         7     0.811     0.579  81.06   0
       406    795.1918    417.5500 307.5939935  +6.5268522     515.7577     749.6891     373.6676     77.66555     155.8282     311.5012      1.600     4.59     833.6019     54.96182     77.45343         6     1.004     0.595  64.99   0
       407    232.6894    415.4134 307.8276812  +6.5088438     13944.44     21213.72     21656.31     77.91409     155.7041     311.6873      1.653     3.69     835.6631     54.96182     2090.885        44     1.530     1.123  56.61   0
       408    727.8259    409.8145 307.6222324  +6.5277890     835.5053     1181.666     1685.114     77.91409     155.7661     311.7494      1.688     4.82     834.2587     54.96182       130.55        10     1.130     0.714  80.04   0
       409     68.4942    409.9358 307.8960555  +6.5055706     893.0568     1362.307     1469.583     78.03805     156.0142     311.8424      1.615     3.07     839.5556     54.96182      146.877         8     0.821     0.699  45.35   0
       410    956.2355    407.8319 307.5274325  +6.5362527     911.4226     1569.177     2225.903     77.78992     155.7041     311.5633      1.746     4.76     830.9532     54.96182     151.8836        10     1.343     0.630  62.07   0
       411    695.7922    408.4030 307.6355844  +6.5272980     666.6642     913.2381     1246.499     77.54099      155.642     311.6563      1.195     4.11     834.2066     54.96182     130.8442         7     1.391     0.348  67.47   0
       412    345.6741    404.9823 307.7811104  +6.5169529     1206.355     2040.904     2073.443     77.66555     155.7661     311.7184      1.698     4.14     832.9534     54.96182     193.7147        13     1.230     0.794  66.69   0
       413    178.8839    405.2869 307.8503686  +6.5112116     786.9535     1394.783     1275.494     77.91409      156.138     311.8424      1.939     3.90     836.7036     54.96182     129.3226         9     1.035     0.680  75.93   0
       414    132.9437    403.9165 307.8694937  +6.5102289     5097.254     8043.768     8041.479     78.16183     155.9522     311.9044      1.648     3.72     837.7236     54.96182     696.8171        30     1.510     0.986  60.57   0
       415    430.4441    402.8647 307.7459758  +6.5206776     775.0931     1250.427     1239.118     78.16183     155.8902     311.8114      1.813     3.77     832.8322     54.96182     150.6333         9     1.073     0.816 -88.46   0
       416    237.6966    402.7110 307.8260307  +6.5142561     1219.555     1912.197     1896.784     78.16183     156.3855     311.8424      1.678     4.27     834.9409     54.96182     191.0555        15     1.295     0.818  66.39   0
       417    818.9984    400.7523 307.5846699  +6.5345840     881.7243     944.0029     1062.261     77.54099     155.5798     311.4081      1.248     3.73      832.955     54.96182     151.5602         9     1.112     0.652  56.49   0
       418    155.1773    399.7535 307.8604009  +6.5126969     2523.801     4309.385     4744.037     77.78992     155.9522     311.6873      1.796     4.16     837.1517     54.96182      343.064        28     1.458     1.143  79.37   0
       419    550.4777    399.0011 307.6962536  +6.5263047     912.2343     1379.598     1554.725     77.41622     155.3933     311.6253      1.530     4.35     832.4471     54.96182     152.7582        11     1.184     0.663  63.72   0
       420    378.4323    394.7220 307.7678516  +6.5222904     2209.318     3314.982      3526.32     78.03806     155.9522     311.7804      1.656     3.56     832.5487     54.96182     303.6381        21     1.312     0.946  49.45   0
       421    967.4280    394.0006 307.5232476  +6.5423369     999.0679     1523.943     2475.303     77.66555     155.7041     311.6253      1.568     5.39     829.9948     54.96182     163.7899        10     1.503     0.546  45.97   0
       422    266.4113    395.1212 307.8143617  +6.5183562      702.467     1049.681     735.2562     77.78992      155.642     311.6563      1.319     3.58     833.6588     54.96182     136.8034         7     1.105     0.422  34.50   0
       423    312.5788    392.6841 307.7952702  +6.5209163     681.4998     768.9402      629.385     77.91409      155.642     311.7184      1.341     4.11     832.7223     54.96182     106.0408         7     1.002     0.482 -82.96   0
       424    432.3551    388.2003 307.7456764  +6.5267956     7330.871     11448.57     11981.91     77.41623      155.642     311.4081      1.659     3.58     832.2322     54.96182     1157.275        34     1.475     1.087  64.57   0
       425     28.8244    388.9932 307.9132385  +6.5128774     3039.482     5304.205     5636.757     77.66555     155.7661     311.6563      1.900     4.33      839.696     54.96182     498.8709        30     1.599     1.189 -76.40   0
       426    764.9038    387.3523 307.6075875  +6.5383043      1964.15     3058.706     3283.797     78.03806     155.8282     311.9663      1.670     3.37     833.2831     54.96182     364.1693        18     1.337     0.849  50.68   0
       427    772.9459    385.6447 307.6043047  +6.5392787     13380.68     19675.79     20828.78     78.16182     155.9522     311.8424      1.576     3.50     833.1846     54.96182      2267.96        42     1.490     1.046  57.93   0
       428    336.4487    383.7860 307.7856569  +6.5253928     1211.487     1730.952     2246.624     77.54099     155.8902     311.5012      1.663     3.74     832.3262     54.96182     206.2782        14     1.273     0.787  55.26   0
       429   1016.8945    380.8409 307.5031429  +6.5494229     3753.928     5524.253     5489.505     78.16182     155.8902      310.911      1.559     3.49     827.3967     54.96182     571.1283        24     1.349     0.954  59.73  16
       430    948.3683    377.5901 307.5317143  +6.5484745     551.1313     784.0788      973.539     77.66556     155.7041     311.6563      1.146     3.45     830.1247     54.96182     91.40607         5     1.032     0.333  69.09   0
       431    181.5562    376.5886 307.8502286  +6.5231487     822.6902     1059.676     921.6141     77.66556     155.8282     311.5322      1.454     5.41     835.6699     54.96182     96.65649         9     1.069     0.772  84.95   0
       432    387.5470    375.8289 307.7647033  +6.5303964     552.9731     890.9546     1041.958     77.91409     156.0761     311.7184      1.719     4.36     831.8251     54.96182     86.37634         5     0.914     0.592 -46.06   0
       433    520.2656    373.7012 307.7096535  +6.5357347     531.2463     813.6786     557.7725     78.16183     156.0142     311.8114      1.507     5.63     831.2765     54.96182     91.54608         6     1.619     0.551  39.04   0
       434    452.5051    372.3823 307.7378408  +6.5340028     2232.314      3339.01     3626.358     78.03806     155.7661     311.6563      1.646     4.40     831.5966     54.96182     338.0511        20     1.371     0.936  63.34   0
       435    838.3206    368.5734 307.5777251  +6.5485153     34174.46     51490.21     54472.91     78.03806     155.8282     311.8114      1.649     3.68     832.3337     54.96182     5088.159        63     1.666     1.113  68.21   0
       436    480.5529    371.9187 307.7262074  +6.5351366     3179.383     4774.999     4878.854     78.16182     155.9522     311.8424      1.603     3.86     831.6094     54.96182     478.1716        25     1.357     1.000  56.82   0
       437    909.2794    371.8658 307.5481419  +6.5495305     757.6577     1223.744     1230.847      78.2854     156.0761     311.7804      1.556     4.08     831.1701     54.96182     140.5417         7     1.139     0.461  66.33   0
       438    983.8342    368.5911 307.5172852  +6.5533753     564.8608     738.9896     827.7708     77.66555     155.7661     311.6563      1.495     3.86     828.2012     54.96182     97.15753         5     0.877     0.546 -49.70   0
       439    330.2400    363.9034 307.7889064  +6.5333918     788.3383     1172.556     1134.294     78.16182     155.8282     311.9663      1.508     4.70     831.7717     54.96182     136.1515         9     1.324     0.474  63.97   0
       440     56.3793    364.9204 307.9026097  +6.5237447     645.0093     1034.547     539.2226     77.78992      155.642     311.8114      1.592     3.78       837.92     54.96182     121.8939         8     1.002     0.649 -29.34   0
       441    610.0953    360.9142 307.6727746  +6.5440288     2814.337     4208.354     4526.939     78.16183     156.3236     311.8734      1.614     4.42     830.3129     54.96182      386.542        20     1.415     0.872  56.72   0
       442     18.5021    361.3021 307.9184626  +6.5239601     1285.131     1998.418     1691.214     78.16183     156.3855     311.6563      1.696     3.87     838.5889     54.96182     161.0661        12     1.062     0.763  62.62   0
       443    694.7571    354.5342 307.6378255  +6.5495020     82953.52     119123.9     125227.4     78.16183     155.8902     311.8424      1.585     3.33     832.6409     54.96182     14377.15        89     1.582     1.184  59.48   0
       444    853.0089    356.0480 307.5720448  +6.5541778     1328.141     1856.025     1636.259     77.66555     155.7661     311.4702      1.417     3.91     832.0852     54.96182     219.9438        15     1.318     0.742  60.24   0
       445     74.0622    353.9439 307.8956372  +6.5288725     1394.003     2316.941     2537.785      78.2854     155.9522     311.8424      1.708     4.50     837.0395     54.96182     209.8647        16     1.414     0.747  64.12   0
       446    936.4392    351.7970 307.5375342  +6.5587239     835.2117      860.512     514.8698     77.29126     155.7041     311.5322      1.160     3.84     829.7394     54.96182     152.4445         7     0.962     0.484  82.38   0
       447    557.2633    351.1979 307.6950449  +6.5462668     2736.951     4159.825     4067.822     77.54099     155.7041     311.5943      1.577     3.68     829.6992     54.96182     422.3794        21     1.344     0.933  58.94   0
       448     94.4633    349.9131 307.8873009  +6.5312246     6130.836     9445.518     9919.107     78.16182      156.138     311.8424      1.629     3.61     836.5408     54.96182     873.6925        29     1.441     1.016  60.04   0
       449    755.5540    349.5359 307.6127416  +6.5536029     657.1917     866.5408     1340.948     78.16183     155.8902     311.8424      1.482     4.70     832.3028     54.96182     91.95789         7     0.944     0.662 -71.85   0
       450    540.5303    347.4996 307.7021193  +6.5472318     7498.979     10986.85     11622.05     78.16183     156.0761     311.8424      1.598     3.50     829.5333     54.96182     1206.511        33     1.423     1.016  61.88   0
       451    269.5716    345.0814 307.8147387  +6.5391199     2662.669      4171.38     3453.883     78.03805     155.7661     311.7804      1.607     3.91     832.1505     54.96182     390.0834        21     1.374     0.968  50.81   0
       452    403.4174    342.6034 307.7592323  +6.5446462     26348.82     39552.06      41753.4     77.78992     155.5177     311.6563      1.655     3.56     830.4124     54.96182     3982.981        54     1.536     1.154  58.50   0
       453    582.1338    341.8834 307.6850287  +6.5509469     648.5994     929.0246      974.673     78.40878     156.1999     311.8734      1.562     5.32     829.3063     54.96182     109.9849         8     1.282     0.726  85.43   0
       454    511.5560    341.3988 307.7143590  +6.5487774     1252.764     1840.594     2073.044     77.54099      155.642     311.4081      1.525     3.49     829.6055     54.96182      197.726        11     1.111     0.763  79.35   0
       455    383.4608    340.6188 307.7675879  +6.5447944     1294.032      1966.26     2087.366     77.78992     155.8902     311.6563      1.718     4.06     830.4482     54.96182     183.7824        15     1.199     0.830  60.00   0
       456    670.5964    341.2167 307.6483084  +6.5541898     517.4299     673.9888     651.0023     77.78992     155.5798     311.6563      1.215     3.45     831.7144     54.96182     64.23022         5     0.754     0.455 -72.29   0
       457    482.8772    338.0319 307.7263839  +6.5492040     1259.303     1840.623     1839.128     78.03806     155.9522     311.7494      1.512     3.92     829.8218     54.96182     212.5284        17     1.298     0.880  62.50   0
       458    798.3503    335.3168 307.5954437  +6.5609065     961.7233      1433.08     1568.336     78.16183     155.9522     311.8734      1.540     5.01     831.4681     54.96182      163.045        11     1.367     0.576  61.85   0
       459    634.6375    335.0365 307.6634518  +6.5555351      655.494     1018.948     712.7712     77.91409     155.8282     311.6563      1.725     4.91     830.0327     54.96182     75.08783         8     1.014     0.674  15.33   0
       460    492.5609    333.0347 307.7225302  +6.5515923     8797.241     13437.19     14313.22     77.91409     155.8282     311.6253      1.626     3.51     829.3823     54.96182     1320.094        37     1.506     1.060  58.51   0
       461    380.4565    334.7585 307.7690333  +6.5471126     797.5027     1110.844     1308.265     78.03806     155.9522     311.8424      1.536     4.08     830.1991     54.96182     129.9808         7     1.044     0.457  77.74   0
       462    761.7228    331.8227 307.6107746  +6.5611221     3218.975     4809.248     5182.419     77.78992     155.7661     311.7494      1.585     3.48     831.3697     54.96182     558.7706        22     1.377     0.860  63.23   0
       463    917.2563    331.5298 307.5461819  +6.5664494     977.6574     1380.065     1358.154      78.2854     155.8902     311.7804      1.495     3.85     829.4246     54.96182     171.1009         9     0.949     0.768  67.87   0
       464    709.1705    331.5247 307.6326125  +6.5594841     857.7033     1061.039     991.0286     78.03806     156.0142     311.8424      1.575     5.18        831.3     54.96182     124.6755        10     1.286     0.590  66.26   0
       465    318.9833    329.7236 307.7947351  +6.5471231     1027.041     1730.391     1639.744     77.66555     155.7041     311.6873      1.823     4.53     830.9335     54.96182     154.8352        13     1.248     0.876  64.96   0
       466    254.9284    323.5164 307.8215487  +6.5475292     605.9817     904.3108      705.348     78.40878     156.2618     311.8424      1.627     3.92     831.9908     54.96182     102.1046         5     0.737     0.633  74.36   0
       467    154.6275    322.9940 307.8632239  +6.5443657     1891.655     2695.424     2576.834     77.66555     155.7661     311.6253      1.497     6.10     835.3756     54.96182     783.9979        15     1.259     0.831  69.90   0
       468    601.8726    322.2546 307.6774909  +6.5597126      587.783     956.5523     1114.522     78.03806     155.8282     311.7494      1.878     5.03     828.5637     54.96182     104.9401         8     1.271     0.563  63.98   0
       469    382.4173    317.2176 307.7688106  +6.5544198     7488.834     11448.49     12158.16     77.91409      155.642     311.7494      1.634     3.56     829.3708     54.96182     1109.695        34     1.484     1.026  60.71   0
       470    238.3401    317.8301 307.8286304  +6.5493180     2134.167     3233.968     3617.366     77.91409     155.9522     311.7804      1.625     3.29     832.1365     54.96182      316.772        15     1.101     0.838  57.63   0
       471    750.2490    313.1241 307.6161687  +6.5684571     56053.23     81552.63     85411.08     78.03806     156.0142     311.8114      1.516     3.36     830.4072     54.96182     8743.501        67     1.544     1.101  58.38   0
       472    736.3256    317.0436 307.6218202  +6.5663724     983.9313     1553.901     1096.799     78.03805     156.0142     311.8424      1.537     3.14     830.6177     54.96182     174.4102         9     0.945     0.629  41.59   0
       473    421.7782    312.3348 307.7526270  +6.5577590     2284.007     3701.817     4142.098     77.78992     155.9522     311.6873      1.777     4.34     828.7071     54.96182     349.4194        22     1.637     0.841  59.74   0
       474    985.2247    310.2635 307.5186633  +6.5775014     1752.764     2514.648     2519.879     77.78992     155.9522     311.7494      1.481     3.39     825.3839     54.96182      295.494        16     1.222     0.790  60.87   0
       475    926.0679    309.3235 307.5432669  +6.5759116     2447.809     3529.508     3908.218      78.2854     156.0761     311.7804      1.512     3.85      828.066     54.96182     378.1097        22     1.349     0.970  62.02   0
       476    568.1740    310.0636 307.6918981  +6.5636144     1393.861     1997.031     1976.091     77.78992     155.9522     311.7494      1.517     3.82     827.7097     54.96182     191.6467        14     1.125     0.811  60.13   0
       477    458.8644    308.6068 307.7373490  +6.5605445     1078.472     1867.814     2470.178     77.66555      155.704     311.5943      2.231     5.56     828.2317     54.96182     165.5298        17     1.514     0.977  55.21   2
       478    458.9716    303.1247 307.7374893  +6.5628112     704.4117     1130.819     1858.475     78.03806     156.0142     311.7804      1.606     4.18     827.8814     54.96182      101.058         7     0.940     0.531  44.70   2
       479    408.4062    308.1861 307.7583209  +6.5590221     1879.359     2855.895     2978.105     77.78992     155.7041     311.6563      1.527     3.71     828.6523     54.96182     317.1874        17     1.332     0.777  56.50   0
       480    288.3875    307.6456 307.8081879  +6.5552075     589.2388     716.5221     755.0149     77.54099     155.7661     311.5633      1.404     4.24     831.1932     54.96182     102.7862         6     1.155     0.443  56.18   0
       481    829.8438    302.8194 307.5834539  +6.5753769     1188.189     1847.093     1947.969     77.66555     155.8282     311.6563      1.522     3.78     829.5353     54.96182     199.1213        11     1.226     0.643  60.74   0
       482    438.9662    299.8220 307.7459099  +6.5635023     1032.561     1721.343     1920.202     77.66555     155.7661     311.5943      1.899     5.26     827.9116     54.96182     151.6855        13     1.293     0.842  58.26   0
       483    185.0361    299.3832 307.8513924  +6.5551374     2522.002     3844.817     4387.356     77.78992     155.7661     311.5943      1.633     3.81     833.8026     54.96182     331.0798        21     1.361     0.917  64.53   0
       484    748.7421    297.7939 307.6173099  +6.5747353     6308.722     9303.981     9680.704     77.66555     155.8282     311.5322      1.552     3.24     829.6342     54.96182     1117.716        30     1.399     0.996  57.62   0
       485    220.7175    297.8918 307.8366231  +6.5569552      623.496     751.0577     1356.876     77.91409     156.2618     311.8734      1.211     3.74     832.1302     54.96182      104.958         7     0.762     0.662  79.01   0
       486    765.2289    295.6961 307.6105323  +6.5761537     2841.385     4143.587     4246.523      78.2854      155.704     311.8114      1.568     3.59     829.5272     54.96182     412.6428        22     1.367     0.907  68.26   0
       487    338.9228    296.6838 307.7875685  +6.5614335     744.9555     1246.283     1141.593      78.2854     156.2618     311.9044      1.900     5.71     829.3289     54.96182     92.06061        10     1.066     0.862  69.53   0
       488     81.2258    296.8094 307.8945950  +6.5526998     1090.368     1537.693     1692.591     77.78992     155.7661     311.6873      1.558     3.46     836.2815     54.96182     212.4235        11     0.964     0.864   9.70   0
       489    467.6258    295.1412 307.7341638  +6.5663978     644.2485     636.0439     797.3797     77.78992     155.9522     311.6563      1.248     3.81     827.3139     54.96182     106.5223         6     0.833     0.619 -59.58   0
       490     68.3247    290.6897 307.9001602  +6.5547908     1236.337     2003.903     1782.229     78.16183     156.2618     311.8734      1.655     5.17     836.3128     54.96182     195.1049        14     1.494     0.733  53.75   0
       491    354.7405    290.3975 307.7812108  +6.5645607     1617.471     3365.606     3724.993     77.54099     155.7041     311.5322      2.207     6.66      828.554     54.96182     264.5012        26     1.807     1.112  14.25   0
       492   1003.3849    286.6056 307.5119131  +6.5878751     6145.941     9094.222     9667.312     77.78992      155.642     311.6563      1.632     3.36     823.5363     54.96182     1021.502        31     1.516     0.973  53.87   0
       493    481.4030    286.2640 307.7287406  +6.5705254     2087.567     3086.164     3088.565     77.54099     155.7661     311.5943      1.620     3.99      826.688     54.96182      298.551        19     1.397     0.897  66.63   0
       494    244.0135    282.0143 307.8274837  +6.5642943     5868.584     9030.166     9896.489     78.03806      155.642     311.7494      1.625     3.54     831.3889     54.96182     861.3466        31     1.449     1.031  65.96   0
       495    408.2090    276.9326 307.7594567  +6.5719175     3085.303     3196.366     3089.909     77.66555     155.7661     311.7184      0.668     1.38     827.4667     54.96182     1391.118         6     0.600     0.434  59.16   0
       496    763.2914    275.5070 307.6120155  +6.5844235     923.8633     1216.507     1255.641     78.16183     156.4473     311.8114      1.468     3.52     828.5782     54.96182     206.5185         8     1.069     0.662  64.34   0
       497    221.0544    275.0919 307.8372535  +6.5663787     586.1329     779.9261     682.5778     78.03806     155.8282     311.9663      1.312     3.83     831.7283     54.96182      74.9704         5     1.235     0.341 -64.60   0
       498    378.2430    272.7989 307.7720427  +6.5726163     1700.079     2576.221     2989.039     77.54099      155.642     311.4391      1.703     3.49     827.8849     54.96182     267.8369        19     1.259     0.934  57.17   0
       499    965.0273    271.8640 307.5283405  +6.5926789     1019.408     1450.789     2065.259     77.78992     155.9522     311.7184      1.547     4.14      824.797     54.96182     174.0334         9     1.107     0.692  71.49   0
       500    534.0048    269.2189 307.7074661  +6.5793289     364.4003     474.6956     120.0258     77.78992     155.5798     311.6253      1.437     3.84      825.807     54.96182     64.96735         5     1.288     0.329 -63.81   0
       501    185.0956    269.7470 307.8523694  +6.5673736     695.1536     931.2186     889.9939     78.03806     155.9522     312.0593      1.546     4.36     833.0177     54.96182     107.8261         7     1.087     0.498  74.23   0
       502    300.5111    268.5523 307.8044722  +6.5717539     1243.319     1756.348     1297.197     78.16183     155.8282     311.9354      1.516     4.70     830.0969     54.96182     168.4361        13     1.171     0.844  47.25   0
       503    147.9975    268.4532 307.8678215  +6.5666572     1966.016     2857.803      2627.47     77.54099      155.704     311.4081      1.569     3.92     834.2162     54.96182     264.7168        17     1.185     0.963  37.31   0
       504    901.0405    263.4099 307.5552034  +6.5940291     1728.766     2614.872     2503.155     77.54099     155.7661     311.5322      1.606     4.79     826.2213     54.96182      333.884        20     1.639     0.844  39.79   0
       505    557.6138    264.2762 307.6978261  +6.5821621     2333.735     3491.432     3418.456     77.78992     155.7041     311.6253      1.600     3.48     825.8718     54.96182     415.6308        19     1.342     0.886  62.03   0
       506    721.1488    261.7862 307.6299818  +6.5886756     5238.947     7669.216     7686.883     77.54099     155.9522     311.5633      1.521     3.39     827.8951     54.96182     795.7951        27     1.373     0.950  58.22   0
       507    662.0098    261.7796 307.6545470  +6.5866956     2325.385     3250.854     3287.603     77.78992      155.642     311.6253      1.470     3.53     827.2968     54.96182     334.5563        17     1.216     0.838  59.94   0
       508    959.4181    261.7711 307.5310091  +6.5966580     714.3863      1029.62      1273.92     77.78992     155.7661     311.7494      1.588     3.48      824.646     54.96182     114.7276         7     0.951     0.474  80.52   0
       509    377.0863    256.2350 307.7730819  +6.5794153     754.7999     1299.355     1551.034     78.16182     155.8282     311.8114      1.838     4.76     827.6043     54.96182     101.7828         8     1.097     0.648  76.79   0
       510    917.2473    254.1688 307.5487814  +6.5983862     1373.413       1900.3     2536.996     77.78992     155.9522     311.7184      1.445     3.87     825.3223     54.96182     214.6859        13     1.123     0.762  63.70   0
       511    220.5704    246.9865 307.8384041  +6.5779647     2313.593      3731.86      4345.05     77.78992     155.7661     311.7184      1.688     3.78     831.2694     54.96182     365.2371        24     1.502     0.979  58.00   0
       512    863.2404    246.0045 307.5714894  +6.5999497      1878.52     2740.292     3172.222     77.41622      155.704     311.5322      1.522     3.60     826.3361     54.96182     292.3796        19     1.302     0.876  58.49   0
       513    753.8062    245.6252 307.6169597  +6.5964417     1685.061     2385.061     2747.347     77.66556     155.7661     311.6253      1.531     3.67     827.2811     54.96182     275.6542        12     1.076     0.734  61.33   0
       514    242.3145    240.8841 307.8295788  +6.5812163     618.7456     852.3132     900.7697     77.91409      156.138     311.8734      1.536     4.72     830.8111     54.96182     139.6312         8     1.485     0.604  77.28   0
       515    454.5889    236.9356 307.7415408  +6.5899882     23044.09     35407.57     37490.26     77.66555     155.7661     311.6563      1.632     3.51     825.5595     54.96182     3475.991        50     1.526     1.143  58.93   0
       516    315.3493    238.9370 307.7993088  +6.5844790     758.0779      1029.25     631.6481     78.16182     155.8902     311.8734      1.501     3.49       829.14     54.96182     140.6896         8     0.976     0.653 -79.88   0
       517    780.6194    236.1072 307.6061417  +6.6012693      13648.6        20257     21694.15     78.03806      155.704     311.6563      1.578     3.41     826.5903     54.96182     2308.104        49     1.495     1.269  39.53   0
       518    719.2708    231.8384 307.6317687  +6.6009760     707.8492     1400.422     1155.618     78.03806     155.9522     311.8734      1.949     4.20     826.7459     54.96182     109.7318         7     1.520     0.331  40.53   0
       519    460.4307    231.5007 307.7392975  +6.5924282     1403.758     2175.341     2443.209     78.16183     155.7041     311.9044      1.782     4.49     825.2861     54.96182     240.9984        14     1.151     0.763  53.14   0
       520    142.7749    230.2461 307.8712825  +6.5822535     2520.856     3668.349     4216.319     77.78992     156.0142     311.6873      1.635     3.48     832.9672     54.96182     373.1066        22     1.363     0.971  53.75   0
       521    117.6716    229.4993 307.8817345  +6.5817153     1214.087     1705.035     1763.298     77.91409      156.138     311.8114      1.636     3.92     833.9882     54.96182     175.0925        13     1.089     0.847  63.76   0
       522    773.6185    228.9675 307.6092897  +6.6039822     661.1729     1207.787      1639.11     77.66555     155.7661     311.6873      1.667     4.73     826.3234     54.96182     107.7083         7     1.128     0.562 -27.34   0
       523    916.9424    226.5634 307.5498344  +6.6097724     1583.616     2333.637     2909.952     78.16182     155.9522     311.8114      1.576     3.63     823.8171     54.96182     254.3253        16     1.314     0.800  61.19   0
       524    614.8658    224.5229 307.6753833  +6.6004947     516.6607     694.5557     782.2844      78.2854     155.9522     311.7804      1.341     4.22     826.1953     54.96182     70.21954         6     1.067     0.476  58.17   0
       525    299.1511    223.7288 307.8065504  +6.5902120     1017.017      1541.35     1386.416     78.16183     155.9522     311.8424      1.505     4.66     829.4813     54.96182     159.2541        10     1.268     0.718  87.12   0
       526    578.6426    222.7365 307.6904900  +6.6000165     4801.831     7115.825     7016.194     78.16183     155.8902     311.8424      1.576     3.51     825.3337     54.96182     752.1555        27     1.396     0.972  54.67   0
       527    541.3041    222.6560 307.7060025  +6.5987962     2084.863      3126.79     3128.849     78.03806     155.8902     311.9973      1.656     3.45     824.4646     54.96182     377.3975        20     1.398     0.896  57.98   0
       528    383.1289    221.8304 307.7717326  +6.5938213     1641.876     2448.478     1930.275     78.03805     155.9522     311.7494      1.538     4.02     826.8676     54.96182     238.8062        17     1.326     0.836  58.85   0
       529    939.5112    219.7793 307.5406869  +6.6133279     2892.379     4223.656     4453.383     78.03806     155.7041     311.6873      1.574     3.18     823.2087     54.96182     544.5466        21     1.420     0.809  59.58   0
       530    885.6397    219.2541 307.5630828  +6.6117427     11671.99     16678.76     17625.36     78.03806     156.0142     311.8114      1.526     3.42     824.4434     54.96182     2207.279        36     1.502     0.948  60.09   0
       531    313.3024    218.9091 307.8008351  +6.5926780     910.6222     1810.617      2133.64     78.16183     156.4473     311.8114      2.247     6.76     828.9122     54.96182     137.2242        15     1.709     0.749  79.55   0
       532    205.0146    219.6379 307.8457894  +6.5887304     710.7762     1081.505     746.1995     77.91409     155.7661     311.5322      1.718     4.93     831.1538     54.96182     89.61053         8     1.027     0.669 -76.98   0
       533    972.3187    217.1430 307.5271470  +6.6155132     10161.17     14769.25     15304.09      78.2854     155.9522     311.8114      1.525     3.48     823.0685     54.96182     1595.968        34     1.451     0.966  59.56   0
       534    683.7750    217.2500 307.6470039  +6.6058085     2789.841     4184.909     4793.469     77.78992     155.9522     311.7184      1.643     3.95     826.0611     54.96182     454.2659        22     1.413     0.882  54.51   0
       535    560.6802    219.1467 307.6980722  +6.6008955     952.7787     1108.352     741.3724     78.16183     155.9522     311.8734      1.477     3.24     824.7541     54.96182     177.9638        10     1.035     0.649  28.95   0
       536     11.7788    215.8094 307.9261803  +6.5837935     25462.32     39152.79      41018.1     77.78992     155.7041     311.6253      1.628     3.52     837.1774     54.96182     3851.156        54     1.584     1.149  58.53   0
       537    258.1210    216.8333 307.8238257  +6.5916771     1208.285     1826.718     1620.453     78.03805     155.9522     311.8114      1.641     4.06     830.2586     54.96182     150.5462        13     1.117     0.794  71.62   0
       538    492.3609    212.0652 307.7266894  +6.6015244     1921.545     2759.596     2697.208     78.16182     155.8902     311.9044      1.474     3.63     824.2372     54.96182     290.0918        17     1.202     0.872  68.62   0
       539    824.2009    208.8535 307.5889537  +6.6139799     2145.719     3113.696     2996.568     77.54099      155.642      311.377      1.465     3.85     824.9552     54.96182     330.2483        20     1.394     0.853  61.28   0
       540    876.5147    207.8565 307.5672560  +6.6161426     2205.914     3212.345     3584.147     78.16183     155.9522     311.9663      1.511     3.01     824.2379     54.96182      437.322        18     1.273     0.853  53.72   0
       541    504.2820    207.9564 307.7218760  +6.6036211     2585.804     3802.897      3743.69     78.16183     155.9522     311.7804      1.526     3.55     824.1338     54.96182     410.2371        19     1.251     0.875  64.83   0
       542    338.9069    204.5574 307.7906842  +6.5994642     5858.962     11943.12     13380.74     78.16182     155.9522     311.9354      2.202     6.08     827.7425     54.96182     679.0106        50     2.150     1.197  88.31   0
       543    735.8381    205.2666 307.6257801  +6.6125008     41202.61     60343.59     63267.86     78.03806     155.8902     311.9044      1.552     3.54     825.6143     54.96182     7087.675        61     1.544     1.090  60.05   0
       544    969.7264    204.0705 307.5286623  +6.6208233     3094.494     4503.001     4839.768      78.2854     156.0761     311.8114      1.544     3.46     822.6841     54.96182     521.2115        21     1.388     0.845  67.36   0
       545    903.7617    202.4399 307.5561193  +6.6192904     7867.738     11277.59     11949.09     77.91409     156.0142     311.6873      1.525     3.25     823.3947     54.96182     1464.507        32     1.434     0.978  65.98   0
       546   1008.0699    202.6485 307.5127817  +6.6226920     1823.925     2508.362     2557.782     78.16183     155.8902     311.8424      1.514     4.38     822.4545     54.96182     270.6093        17     1.424     0.730  57.79   0
       547    447.2529    201.3651 307.7457872  +6.6044258     5084.198     7719.754     7904.854     78.03806     155.9522     311.7804      1.609     3.63     824.8453     54.96182      739.062        27     1.412     0.950  56.19   0
       548    221.9300    198.1930 307.8394880  +6.5981530      628.695     956.9523     1375.428     77.66555     155.5798     311.7184      1.513     3.98     830.7409     54.96182     102.5978         6     0.963     0.471  40.52   0
       549    104.6633    192.7663 307.8883801  +6.5964402     4836.625     7207.727     7315.226     78.03806     156.0142     311.7804      1.609     3.32      833.243     54.96182      776.868        30     1.398     1.016  59.97   0
       550    924.2551    192.0230 307.5479557  +6.6242763     978.2017     1406.023     1782.572     77.78992     155.9522     311.6253      1.510     4.30      822.728     54.96182     171.0986        10     1.256     0.672  78.02   0
       551    274.9534    189.3907 307.8177609  +6.6035726     34374.14     52466.12     55326.62     77.66555     155.8282     311.4702      1.633     3.64     829.6882     54.96182     5011.129        61     1.595     1.148  60.65   0
       552    250.2954    190.4556 307.8279672  +6.6023026     6782.427     10335.88     11070.35     78.03806     155.9522     312.0283      1.681     3.49     830.1812     54.96182     1009.714        34     1.512     1.073  59.03   0
       553    601.9517    191.4167 307.6818621  +6.6137284     461.9634      927.584     1114.379     77.66555     155.9522     311.5943      2.160     4.89     824.6606     54.96182     81.28455         5     1.420     0.477  -5.37   0
       554    703.8454    188.8143 307.6396231  +6.6182204     914.3928     1197.628     1372.046     77.54099     155.7661     311.5943      1.511     5.39     824.9764     54.96182     158.3231         9     1.468     0.558  43.97   0
       555    399.0104    184.8878 307.7663820  +6.6096060     50305.65     77362.65     81555.25     77.78992      155.704     311.6563      1.620     3.51     825.6302     54.96182       7046.9        73     1.622     1.195  58.73   0
       556    154.9726    186.1006 307.8677088  +6.6008883     4151.342      6584.24     6706.786     78.16183      155.704     311.7184      1.650     3.71     831.4709     54.96182      575.566        31     1.543     1.053  64.04   0
       557    416.4352    185.3496 307.7591284  +6.6100013      1467.84     2286.569     1928.611     78.03806     155.9522     311.7184      1.688     3.91      825.175     54.96182     237.1222        16     1.271     0.815  62.10   0
       558    303.0465    182.5835 307.8063215  +6.6073285     18706.19     28447.83     30173.16     77.66555     155.8282     311.5943      1.631     3.47     828.7935     54.96182     2648.357        52     1.547     1.148  60.06   2
       559    310.4586    182.7116 307.8032383  +6.6075251     2047.263     3457.449     4507.354     78.16183     155.9522     311.9354      2.022     3.53      828.518     54.96182     313.1632        22     1.346     1.023  42.94   3
       560    686.4628    183.0201 307.6470388  +6.6200296      1126.39      1587.88     1703.935     77.78992     155.9522     311.6873      1.482     4.26     824.8167     54.96182     162.0814        12     1.204     0.694  58.92   0
       561    786.8524    181.7059 307.6053806  +6.6239365     1321.719     1722.975     1665.575     78.03806     155.8282     312.0593      1.366     3.53     824.1567     54.96182     242.8658        11     1.157     0.645  77.32   0
       562     26.0741    183.0000 307.9213534  +6.5978199     460.7141     353.9192     398.2758     77.41622     155.3311     311.5943      1.104     3.89     836.8826     54.96182     84.40027         5     0.866     0.500  26.99   2
       563     25.7121    180.3794 307.9215925  +6.5988895     594.3055     822.4763     445.6757     78.03806     155.7041     311.7184      1.691     3.49     836.8969     54.96182      107.301         5     1.246     0.283  34.53   2
       564    562.1836    179.4225 307.6987854  +6.6173450     503.9779     851.4775     1052.883     77.91409     155.7661     311.7494      1.828     4.61     823.5783     54.96182     83.81647         6     1.018     0.592  60.79   0
       565     55.1577    178.2200 307.9094351  +6.6007748     9280.436     14223.61     14787.88     77.66555     155.8282     311.6873      1.633     3.71     835.2694     54.96182     1338.478        37     1.504     1.087  61.79   0
       566    738.2893    181.1414 307.6255730  +6.6225424     34145.45     50116.32     52410.88     78.03806     155.9522     311.9354      1.538     3.58     824.4835     54.96182     5549.992        58     1.535     1.078  60.88   0
       567     88.9140    176.3056 307.8954787  +6.6027041     1513.378     2153.393     2040.332     78.16183     156.3236     311.8734      1.525     4.65     833.2797     54.96182     248.5004        15     1.497     0.677  58.23   0
       568    996.8472    175.6899 307.5183477  +6.6334463      1169.21     1605.653     2089.135     78.16183     155.8282     311.9354      1.588     3.39     821.5454     54.96182     214.3603        10     1.080     0.609  68.56   0
       569    964.6307    174.9583 307.5317556  +6.6326714     653.3894     972.6198     981.1359     77.66555     155.8902     311.6563      1.392     4.16     821.8737     54.96182     108.7193         7     1.152     0.429  32.45   0
       570    723.1808    169.7938 307.6322307  +6.6267207     690.3091       862.53     1010.535     77.78992      155.642     311.6253      1.257     2.97     824.0759     54.96182     108.1305         6     0.740     0.564 -51.19   0
       571    571.8047    165.4473 307.6952595  +6.6234372     837.3495     1255.736     1206.714     77.54099     155.7661     311.5012      1.560     5.73     823.2775     54.96182     138.5911        12     1.409     0.711  56.35   0
       572    997.6382    161.7049 307.5184881  +6.6392462     2465.437      3538.73     4110.351      78.2854     155.8282     311.9354      1.658     3.45     821.0298     54.96182     425.6035        20     1.319     0.882  63.10   0
       573    580.6045    159.5230 307.6918035  +6.6261783     1096.202     1568.759     1324.504     77.78992     155.4555     311.6563      1.628     4.70     823.2169     54.96182     189.1223        12     1.305     0.645  53.90   0
       574    589.1257    157.5701 307.6883295  +6.6272705     2075.248     3189.142     3267.361     78.03806     155.9522     311.8114      1.603     3.58     823.2341     54.96182     345.2632        21     1.284     0.956  58.52   0
       575    273.8676    155.6194 307.8193525  +6.6174772     31102.57     47702.83     51189.05     77.78992     155.9522     311.7184      1.646     3.65     829.4139     54.96182     4594.005        61     1.590     1.195  64.42   0
       576    333.3813    157.7638 307.7945588  +6.6185954     1156.445     1690.944     1781.093     77.66556     155.7661     311.5943      1.568     3.76     827.2917     54.96182     163.7756        10     1.051     0.727  67.00   0
       577     19.1775    154.1867 307.9251936  +6.6094813     4439.477     6749.061     7060.344     77.91409     155.7661     311.7184      1.593     3.62     837.3464     54.96182      582.325        27     1.365     0.995  64.97   0
       578    705.5129    152.2965 307.6401585  +6.6333517     8366.893     12169.86     12547.01     78.16183     156.3236     311.8424      1.565     3.52     823.4099     54.96182     1465.754        33     1.498     0.955  61.02   0
       579    183.1826    153.8137 307.8570826  +6.6151676     888.7369       1339.1      671.239     77.91409      155.642     311.7184      1.592     3.91     830.6176     54.96182     129.3327         8     0.921     0.676  57.47   0
       580    259.8615    151.0436 307.8253250  +6.6188945     948.4699     1209.092     1488.501     78.16183     155.8902     311.9354      1.265     3.58     829.7184     54.96182     172.6951         9     1.064     0.657  68.04   0
       581    116.3376    149.4233 307.8849971  +6.6147263     4900.966     7605.824     8131.951     77.78992     155.9522     311.7184      1.685     3.81     831.4423     54.96182     731.1231        28     1.445     0.995  59.61   0
       582    455.2339    147.0196 307.7443041  +6.6271289     1405.707     2303.641     1775.185     77.66555     155.7661     311.6253      1.630     4.38     823.4604     54.96182     225.4171        15     1.284     0.861  60.83   0
       583    578.3192    147.6364 307.6931531  +6.6310086     915.7849     1372.116     1096.745     78.03806     156.0142     311.8114      1.631     4.30      822.838     54.96182     135.5099         8     0.991     0.557  72.83   0
       584    387.0615    145.5717 307.7726718  +6.6254345     3996.742     6691.291     6923.211     77.78992     155.9522     311.7804      1.799     4.34      825.364     54.96182     485.2842        28     1.555     1.005  62.77   0
       585    644.2028    146.2518 307.6658309  +6.6337911      848.108     1221.897     1247.526     77.54099     155.7041     311.4081      1.526     3.24     823.1602     54.96182     154.3765         9     0.934     0.692  78.93   0
       586    563.8066    144.9284 307.6992729  +6.6316394     651.2721     817.5208     567.6392     77.66555     155.5177     311.7184      1.445     5.04     822.6931     54.96182     92.36017         8     1.443     0.499 -63.66   0
       587    351.4667    144.1765 307.7875048  +6.6248130     3344.511     5079.275     5245.851     77.78992     155.9522     311.7494      1.616     3.59     826.7731     54.96182     542.0486        26     1.457     0.962  60.47   0
       588    105.6877    144.2157 307.8895970  +6.6165168     1790.692     2712.501     2736.851     77.91409     155.7041     311.6873      1.554     3.56     831.4772     54.96182     343.1201        17     1.236     0.896  67.27   0
       589    741.9127    142.4154 307.6253697  +6.6386510     617.4847     927.9871     916.0658     77.78992      155.704     311.6873      1.659     4.62     822.7199     54.96182     86.95154         6     0.947     0.639  69.31   0
       590    667.3901    142.2785 307.6563323  +6.6362091     853.5279     1268.183     956.4906     77.78992      155.642     311.6563      1.328     5.26     823.1157     54.96182      182.662         9     1.259     0.621  56.34   0
       591    998.4557    138.7584 307.5189180  +6.6487465     1568.185     2339.516     2143.178     78.03806     155.8902     311.8114      1.546     3.46     819.9752     54.96182     283.2908        12     1.189     0.661  63.53   0
       592    203.3058    133.0912 307.8494242  +6.6244002     5607.671     8608.193     9149.271     78.16183     156.4473     311.8114      1.660     3.65     830.3557     54.96182     833.1552        32     1.492     1.057  58.48   0
       593    665.1367    132.1064 307.6576106  +6.6403328     6368.923     9121.099     9429.324     78.16182     156.0142     311.8734      1.486     3.60     822.6033     54.96182     964.6941        27     1.354     0.952  60.55   0
       594     86.0749    133.1760 307.8981173  +6.6204124     2198.087     3675.859     4182.473     77.78992     155.7661     311.7494      1.787     3.70     832.0853     54.96182     333.9166        24     1.362     1.103  34.04   0
       595    813.5005    132.0447 307.5959790  +6.6453304     1127.176     1419.299       1772.2     78.16182     155.8902     312.0283      1.275     3.86     821.8907     54.96182     191.9492         9     1.046     0.646  66.20   0
       596    617.2387    129.3504 307.6776011  +6.6398637     9893.119     14706.57      15711.1     78.03806     155.9522     311.7494      1.586     3.73     822.2399     54.96182     1581.379        37     1.460     1.054  60.84   0
       597    252.0952    130.1966 307.8292553  +6.6272388      660.119     999.1597      841.861     77.91409      155.642     311.5633      1.445     5.36      829.856     54.96182     115.6317         7     1.144     0.711  81.94   0
       598     16.6227    128.7127 307.9271173  +6.6199108     890.3721     1564.443     1548.273     78.16183     155.7661     311.7184      1.953     5.25     837.0959     54.96182     152.2423        10     1.328     0.587 -60.22   0
       599    344.4549    125.1086 307.7910611  +6.6324486     3685.426     5877.818     6533.097     78.03805     155.8282     311.9354      1.732     3.56     827.2899     54.96182     535.3824        28     1.347     1.153 -85.48   0
       600    526.3066    124.4900 307.7155393  +6.6388175       1750.7     2618.686     2661.396     78.16183     156.4473     311.8424      1.535     3.77     822.3566     54.96182     282.3405        17     1.291     0.937  60.08   0
       601    990.7594    124.5367 307.5225922  +6.6543604     825.5549     1114.366      570.429     78.16183     155.8902     311.9044      1.457     3.71      819.454     54.96182     138.8578         9     0.892     0.741  77.71   0
       602    620.7816    120.8201 307.6764164  +6.6435041     55432.63     81554.39     85863.58     77.91409     155.8902     311.7494      1.567     3.53     821.9067     54.96182     8909.315        69     1.559     1.134  60.39   0
       603    299.8193    114.5267 307.8099601  +6.6353146     3677.567     5892.287     6660.723     77.78992     155.8902     311.7184      1.789     3.88      828.749     54.96182     559.5427        26     1.382     1.089  56.52   0
       604    699.7320    108.6277 307.6440288  +6.6511854     883.4612     1309.211     816.4279     77.78992     155.8902     311.7184      1.631     5.07     821.4117     54.96182     152.4545        10     1.281     0.568  57.55   0
       605    671.4362    108.0025 307.6558047  +6.6504947     1304.124     1959.159     1840.391     77.29126     155.7661     311.6253      1.477     3.25     821.4127     54.96182     233.3384        14     1.240     0.708  73.60   0
       606      2.5762     97.1631 307.9340204  +6.6324602     22970.34     51592.52     70245.06     77.78992     140.5648     253.7689      2.806     8.43     837.7411     54.96182     5670.102       198     4.033     2.039 -84.20  24
       607    685.2094    104.7301 307.6501930  +6.6523075     3386.202     4844.238     5154.444     77.66555     155.7041     311.6563      1.538     3.86     821.2442     54.96182     475.3328        22     1.398     0.853  55.27   0
       608    427.0009     95.8223 307.7577588  +6.6473149     4214.088     6160.815      6553.75     77.78992      155.642     311.5322      1.519     3.42     823.0234     54.96182     661.4688        24     1.375     0.915  56.24   0
       609    475.6042     95.7889 307.7375692  +6.6489624     555.4488     652.4871     805.3115     77.78992      155.642     311.7184      0.869     1.61     822.0234     54.96182     207.6249         5     0.660     0.465 -71.16   0
       610    899.5566     91.3589 307.5615947  +6.6650071     4170.321     5983.384     6347.189     77.91409     155.9522     311.6873      1.515     3.48     819.5125     54.96182     750.9093        23     1.325     0.885  64.15   0
       611    881.5557     92.1378 307.5690469  +6.6640832     2236.415     2930.373     2783.134     78.16183     155.8902     311.9044      1.393     3.20     819.7481     54.96182     379.9573        15     1.164     0.786  63.10   0
       612    591.4958     89.7584 307.6896282  +6.6553442     1773.006      2748.03     3013.651     78.16183     155.8902     311.9354      1.710     4.17     820.9526     54.96182     297.5521        17     1.349     0.833  56.96   0
       613    237.8709     89.4769 307.8365398  +6.6435692     855.6897     1489.953     1921.509     78.40878     156.1999     311.8114      2.111     5.58     829.8804     54.96182     130.2704         9     1.141     0.769  26.87   0
       614    390.4127     87.6938 307.7732324  +6.6494400     1879.002     2695.814     2154.206     77.91409     155.7041     311.6253      1.567     4.39     825.0032     54.96182     280.4391        16     1.338     0.786  61.43   0
       615    138.2169     84.3654 307.8781093  +6.6423204     3178.669     4885.741     4988.964     77.78992     155.7661     311.6563      1.643     3.87     829.4899     54.96182     427.1307        25     1.455     0.932  59.68   0
       616     20.0712     82.2673 307.9272576  +6.6392000     12610.48     19723.94     21481.39     78.16183     156.0761     311.7804      1.661     3.78     834.9139     54.96182     1708.266        41     1.558     1.088  58.35   0
       617    286.5109     83.1172 307.8165492  +6.6478327     1302.539     1855.736     2185.906     77.91409      156.138     311.8424      1.574     3.63     829.0011     54.96182     223.0208        14     1.216     0.741  60.46   0
       618    940.8843     81.5234 307.5447554  +6.6704499     505.1937      663.456      570.634      78.2854     156.2618     311.9044      1.497     4.07     818.4449     54.96182     97.67194         6     1.032     0.460  56.29   0
       619    755.2965     82.0921 307.6218377  +6.6640024     694.5398     1050.233     1769.836     78.16183     156.4473     311.7804      1.590     4.01     820.0847     54.96182     113.5648         6     0.950     0.483  52.12   0
       620    559.9414     82.3946 307.7029848  +6.6573248     693.5125     805.0239     223.6758     77.66555     155.8282     311.5633      1.182     4.24     821.1177     54.96182      118.964         8     0.926     0.658  -8.70   0
       621    149.9633     81.0373 307.8733424  +6.6440904     556.9797     726.3343     338.3909     77.91409     155.8282     311.6253      1.314     3.68     829.3214     54.96182     92.60846         5     1.002     0.389  59.64   0
       622    889.0416     78.6119 307.5663911  +6.6699176     821.5082     1084.563     675.7042     77.54099     155.7661     311.5322      1.372     3.17     819.1609     54.96182     142.8804         6     0.908     0.514  73.84   0
       623    821.8239     76.9753 307.5943714  +6.6683432     6272.685     9159.329     9815.703     77.66555     155.7661     311.7494      1.507     3.47     819.6072     54.96182     1055.177        30     1.466     0.948  65.37   0
       624    766.9636     77.3249 307.6171509  +6.6663613     3352.725     4740.219     5344.989     78.03805     156.0142     311.8424      1.509     3.15     819.8135     54.96182     619.5096        21     1.330     0.880  61.92   0
       625    411.9938     77.8996 307.7645976  +6.6542090     1072.475     1476.348     952.0624     77.91409     155.5798     311.5633      1.451     3.71     823.5564     54.96182     158.0992        12     1.168     0.713  80.40   0
       626    529.4225     75.4848 307.7158961  +6.6591524     1277.402     1772.427     2047.971     78.03806     155.7041     311.7494      1.520     3.59     821.0757     54.96182     191.1808        12     1.131     0.747  75.82   0
       627     91.4342     76.9242 307.8977946  +6.6438142     532.4261     839.9144     1044.791     78.03805     155.9522     311.7804      1.686     4.43     830.2208     54.96182     101.0983         5     1.128     0.495 -88.93   0
       628     60.4296     74.1445 307.9107679  +6.6439154     3274.071     5054.653     5196.594     77.91409     156.0142     311.7494      1.615     3.55     831.9056     54.96182     512.1788        29     1.460     1.076  65.98   0
       629     44.7066     75.0213 307.9172695  +6.6430228     988.1841      1445.72     1131.347     78.03805     155.7661     311.6253      1.515     5.33     832.8139     54.96182     140.8663        11     1.255     0.808  55.63   0
       630    649.4668     75.1178 307.6660380  +6.6633333     661.3852     993.1393     566.1642      78.2854     156.1999     311.8734      1.543     2.79     820.3376     54.96182     107.2735         6     0.763     0.498 -86.75   0
       631    421.7708     73.6747 307.7606785  +6.6562819     1094.069     1411.904     799.4442     78.03806     155.9522     311.8114      1.446     5.71     823.0682     54.96182      156.586        11     1.334     0.689  51.35   0
       632    584.3207     70.7736 307.6932483  +6.6629406     1221.529     1974.149     1845.452     78.03806     155.8282     311.7804      1.616     5.43     820.4875     54.96182     184.8864        12     1.206     0.689  51.86   0
       633      2.8632     69.5372 307.9348368  +6.6438739     2664.065     4032.133      4826.16     78.16183     144.0293     258.1872      1.753     4.11     834.6381     54.96182     360.7477        20     1.406     0.887  57.19  24
       634    761.5401     64.8720 307.6198227  +6.6713204     2207.924     3297.561     3814.183      78.2854     155.9522     311.8424      1.644     3.58     819.2723     54.96182     360.8768        21     1.453     0.849  75.58   0
       635    402.2410     65.1772 307.7690783  +6.6591330     1152.913     1910.087     1244.448     77.78992     155.7661     311.5943      1.733     3.98     824.2141     54.96182     149.4024        15     1.171     0.870  40.49   0
       636     75.4539     65.5190 307.9048188  +6.6479831     896.5978     1138.823     1286.209     78.16183     155.9522     311.8734      1.476     3.68     830.7865     54.96182     133.2474         8     0.900     0.706  36.34   0
       637     99.6270     64.0817 307.8948258  +6.6493920      930.015     1426.932     954.5365     78.03806     155.7661     311.7494      1.539     5.47     829.6942     54.96182     156.2574        10     1.307     0.646  63.35   0
       638     88.1651     58.4482 307.8997778  +6.6513308     9686.295     14829.81     15720.59     77.91409     155.9522     311.7494      1.658     3.63     830.0107     54.96182     1392.701        35     1.506     1.050  59.75   0
       639    417.1478     58.0513 307.7631260  +6.6625760     2519.684     3859.699     3971.994      78.2854     155.8282     311.8424      1.570     4.12     823.2275     54.96182     363.6993        19     1.399     0.832  53.64   0
       640    238.8563     58.3919 307.8371809  +6.6564345     501.5189     600.4401     497.5243     77.54099     155.8282     311.5633      1.149     3.40     829.1537     54.96182     82.58569         5     0.766     0.437 -20.28   0
       641    630.9614     50.5427 307.6745531  +6.6728576     19290.16     28148.26     29814.49     78.16182     156.0142     311.8114      1.566     3.55     819.7748     54.96182     3111.501        46     1.519     1.057  59.12   0
       642    254.8257     52.4812 307.8307466  +6.6594125     1450.923     2369.401     3533.315     78.03806     155.7661     311.8114      1.978     4.06     828.9245     54.96182     243.4795        13     1.246     0.703  61.57   0
       643    660.2700     51.3948 307.6623482  +6.6734891     679.5104     891.9869     784.3642     77.66556     155.5798     311.6563      1.603     6.10     819.7748     54.96182     104.9183         9     1.517     0.690  52.13   0
       644    530.6802     46.5315 307.7163491  +6.6711471     5506.437      8063.31     8308.556      78.2854     156.1999     311.7804      1.605     3.68     819.9934     54.96182     872.4333        26     1.433     0.931  58.84   0
       645    617.2468     41.0402 307.6805706  +6.6763202     3224.856     5463.886     6264.926     78.03805     155.9522     311.6253      1.892     5.86     819.5403     54.96182     477.0833        34     2.093     0.964  65.57   0
       646    436.2724     42.1711 307.7557167  +6.6697746     23203.12     35393.61     36929.05     78.03806     155.9522     311.7804      1.618     3.63     822.3055     54.96182     3541.686        53     1.558     1.119  59.74   0
       647    256.8720     42.5978 307.8302305  +6.6635613     9429.637     14524.26     16178.32     77.66555     155.5798     311.6563      1.681     3.72     828.7559     54.96182     1440.832        40     1.531     1.095  62.14   0
       648    316.8379     43.1580 307.8053002  +6.6653493     987.1904     1688.053     1822.844     77.91409     155.9522     311.6873      1.855     5.35     828.1243     54.96182      143.473        10     1.172     0.688  54.59   0
       649     22.2008     42.1333 307.9277320  +6.6558392     2340.953     3565.568     3696.324     77.41622     155.5177     311.5633      1.630     4.05      831.032     54.96182     299.6801        22     1.372     0.948  62.09   0
       650    914.2222     42.2048 307.5571519  +6.6857899     2054.494      3067.66     3028.512     77.78992     155.7041     311.6253      1.525     4.07     817.1677     54.96182     310.0176        17     1.358     0.740  60.08   0
       651    549.9592     42.2326 307.7084847  +6.6735692     740.0895     879.1841     308.0359     77.91409     155.8282     311.6563      1.312     2.79        819.7     54.96182     144.9336         6     0.852     0.481  40.48   0
       652    248.9412     46.8141 307.8333827  +6.6615537     1870.404     3009.486     4298.881     77.54099     155.8902     311.5322      1.850     4.02     828.8596     54.96182     295.2883        18     1.369     0.857  69.17   1
       653    244.9621     39.1918 307.8352932  +6.6645662     3035.687      4766.76     5755.769     77.41622      155.704     311.5322      1.741     3.89     828.7078     54.96182     466.9698        24     1.428     0.954  58.86   0
       654    298.2109     37.6811 307.8132233  +6.6669831     884.1633     1389.065     2104.693     77.78992     155.7041     311.6563      1.694     3.53     828.4538     54.96182     151.1426         9     0.946     0.719  37.70   0
       655    934.8809     32.7088 307.5488877  +6.6904011     969.5035     1284.981     1599.968     77.91409     156.1999     311.8734      1.404     5.62     816.1489     54.96182     159.3912        12     1.377     0.727  69.98   0
       656    686.1506     31.9206 307.6522515  +6.6823964     1856.688     2609.885     2609.583     78.16183     156.0142     311.8114      1.436     3.56     819.0319     54.96182     312.1482        17     1.373     0.733  55.34   0
       657    197.6028     27.7610 307.8553537  +6.6676891     792.7875     1140.992     1249.498     77.29126     155.7041     311.5322      1.566     4.71     828.4757     54.96182     114.0797         9     1.273     0.679  56.71   0
       658    251.9180     27.1515 307.8328104  +6.6697708     842.4069     1221.018     1258.358     78.16183     155.9522     311.8424      1.816     5.38     828.4675     54.96182     124.5412         9     1.236     0.662  58.04   0
       659    706.5377   1021.2980 307.6105279  +6.2746350     924.1026      1532.88     2001.209     77.91409      151.997     269.6515      2.053     5.22      852.096     54.96182     148.4058        10     1.216     0.641  52.44  16
       660    236.8929   1021.0558 307.8054914  +6.2589644     1375.352     2116.189     1707.908     78.03806     153.5787     272.8942      1.522     4.38     854.2571     54.96182     190.6199        12     1.126     0.753  88.34  16
       661    518.5339     22.7331 307.7221972  +6.6805634     3185.908     4700.621     4371.262     78.16183     155.9522     311.8424      1.630     3.63     819.1711     54.96182     475.4083        25     1.315     1.049  54.19   0
       662    720.8161     20.8930 307.6382204  +6.6881111     2017.807     2988.766     2939.827     77.91409     155.7661     311.6873      1.555     3.84     817.7916     54.96182     366.7155        19     1.468     0.805  54.07   0
       663    456.8226     21.2694 307.7478842  +6.6790940     1812.832     2747.764     3120.295     77.78992     155.8902     311.7804      1.583     3.71     820.8491     54.96182     270.6632        15     1.264     0.774  60.97   0
       664    711.9202   1018.9448 307.6083725  +6.2757867     2610.971     4367.013      4776.01      78.2854     155.9522     296.3946      1.720     3.80     852.0215     54.96182     352.4255        24     1.483     0.934  67.20  16
       665    780.0396     18.4407 307.6136979  +6.6911081     535.5972     636.3998      1041.97     77.91409     156.0761     311.6873      1.217     2.89     816.9857     54.96182       101.17         5     0.738     0.589  83.51   0
       666    435.5115   1020.0509 307.7230777  +6.2660576     946.2153     1320.848     1192.172     78.16182     155.7661     284.9207      1.392     4.05     853.1021     54.96182     191.7322         7     0.952     0.492  83.73  16
       667    727.8940   1018.3242 307.6017622  +6.2765781     1075.845     1221.297     1401.051     77.91409      156.138      301.824      1.304     3.00     851.8815     54.96182     166.9355         9     0.893     0.661  62.11  16
       668    358.6397   1016.6753 307.7551016  +6.2648679     1873.861     2846.769     2968.684     78.03806     155.9522     311.5012      1.673     4.31     852.4952     54.96182     285.1826        19     1.434     0.882  50.32  16
       669    970.0185   1014.0306 307.5013924  +6.2864512     547.6971     843.5604     657.5967     77.78992     155.7661     311.6873      1.778     4.71     848.0972     54.96182     104.1971         5     1.428     0.442 -16.91   0
       670    697.2887   1013.6124 307.6146255  +6.2774979     534.4513      749.368      1468.05     77.91409     155.7041     311.7184      1.002     3.29     852.0459     54.96182     101.4413         5     0.740     0.442 -20.10   0
       671    745.4814   1006.0842 307.5948721  +6.2822202      7670.52     12476.83     13452.37     77.91409     156.1999     311.8734      1.766     3.56     851.1993     54.96182     1107.526        41     1.644     1.115  54.08   0
       672    291.2039   1005.3275 307.7834773  +6.2672848     14755.25     23443.22     25909.83     77.66555     155.5177     311.6563      1.742     3.78     853.2817     54.96182     2212.406        60     1.577     1.518 -38.61   0
       673    540.9724   1006.6858 307.6797491  +6.2751158     4199.729     6714.293     7443.167      78.2854      155.642     311.6873      1.785     3.87     854.3135     54.96182     599.1445        26     1.509     0.951  63.54   3
       674    538.1376    998.9095 307.6811874  +6.2782310     8270.469     13001.82     14013.48     78.16183     156.0761     311.8734      1.668     3.54     854.0756     54.96182     1179.397        35     1.497     1.058  62.56   2
       675    510.9966   1007.8267 307.6921542  +6.2736388     1126.452     1416.082     828.3248     77.66555      155.704     311.6563      1.461     4.50     854.2939     54.96182     151.4395        11     1.021     0.762  76.98   0
       676    415.2893   1005.9952 307.7319456  +6.2711808     859.5273     1459.927      1086.82     77.66555      155.642     311.5322      1.826     6.07     852.4658     54.96182     115.8401        12     1.333     0.800  53.92   0
       677    806.9828   1005.5282 307.5693595  +6.2845088     1201.874     1817.704     2211.948     77.66555     155.8902     311.7184      1.727     4.52     848.9894     54.96182     164.1516        14     1.091     1.068 -37.11   0
