#   1 NUMBER                 Running object number                                     
#   2 X_IMAGE                Object position along x                                    [pixel]
#   3 Y_IMAGE                Object position along y                                    [pixel]
#   4 ALPHA_J2000            Right ascension of barycenter (J2000)                      [deg]
#   5 DELTA_J2000            Declination of barycenter (J2000)                          [deg]
#   6 FLUX_APER              Flux vector within fixed circular aperture(s)              [count]
#   9 FLUXERR_APER           RMS error vector for aperture flux(es)                     [count]
#  12 FLUX_RADIUS            Fraction-of-light radii                                    [pixel]
#  13 FWHM_IMAGE             FWHM assuming a gaussian core                              [pixel]
#  14 BACKGROUND             Background at centroid position                            [count]
#  15 THRESHOLD              Detection threshold above background                       [count]
#  16 FLUX_MAX               Peak flux above background                                 [count]
#  17 ISOAREA_IMAGE          Isophotal area above Analysis threshold                    [pixel**2]
#  18 A_IMAGE                Profile RMS along major axis                               [pixel]
#  19 B_IMAGE                Profile RMS along minor axis                               [pixel]
#  20 THETA_IMAGE            Position angle (CCW/x)                                     [deg]
#  21 FLAGS                  Extraction flags                                          
         1    173.6498     19.4545 307.8652241  +6.6681797     6208.286      14087.4     16096.87     89.29236     178.1604     356.2499      2.388     5.90     1135.312     62.78859     820.2594        56     2.119     1.462 -43.47   0
         2    517.8943     17.6251 307.7221897  +6.6804283     1724.304     4151.058      4837.48     89.43353     177.8769     356.0374      2.443     7.89     1108.609     62.78859     188.3135        32     1.993     1.344 -40.42   0
         3    918.8508     17.0748 307.5555288  +6.6939900     3005.567     5793.738     6663.591     89.29236     178.2311     356.2499      2.090     5.25     1097.838     62.78859     360.5525        33     1.773     1.124 -37.66   0
         4    720.2029     15.8263 307.6381509  +6.6879062     1378.654     2735.058     2786.666     88.72542     177.8059     356.0019      2.001     7.42     1104.328     62.78859     175.6403        21     1.703     0.905 -48.28   0
         5    456.2640     15.9955 307.7478642  +6.6790466     1085.409     2374.792     2828.213     88.44058     177.8769     356.0019      2.432     7.14     1112.941     62.78859     131.4258        17     1.369     1.044 -52.70   0
         6    984.0875     13.0264 307.5285454  +6.6978260     1511.182     2876.062     2775.794     89.43353     177.9478     356.1082      1.989     6.97     1090.434     62.78859     176.6423        19     1.559     0.931 -40.35   0
         7    703.3942      9.7057 307.6453454  +6.6898745     4572.798     9855.992     11354.27     89.00934     177.8059     355.9665      2.283     5.25     1104.934     62.78859     531.6083        44     1.934     1.335 -39.93  16
         8    623.5579      9.0935 307.6785545  +6.6874707     2315.716      5033.59     5860.609     89.43353     178.0895     356.3561      2.315     6.51     1106.562     62.78859     244.8285        35     1.888     1.252 -38.20  16
         9    423.8683      5.3918 307.7616904  +6.6823445     3577.187     8521.188     9527.408     88.72542     177.8769     330.9906      2.421     6.15     1116.123     62.78859     423.6521        49     2.074     1.415 -38.34  16
        10     24.7919      5.0744 307.9275887  +6.6691348     5134.278     11468.77     12984.66     88.86749      177.664      326.771      2.336     5.76     1138.579     62.78859     616.3256        49     1.975     1.429 -41.62  24
        11    670.6763      4.8653 307.6591102  +6.6907848      621.392      1448.77     1308.836     89.43353     178.1604     324.4464      2.235     3.68      1106.49     62.78859     128.0736         5     0.940     0.684  13.40  16
        12    319.7374      1.9389 307.8050937  +6.6802946     5927.952     9409.138     10643.07     85.24462     151.5275     279.0866      1.692     6.35     1128.763     62.78859     860.2267        28     1.720     0.878 -12.27  24
        13     93.0692      1.8805 307.8993168  +6.6727400     1179.997     2101.835     2085.642     84.94812       150.86     278.1357      2.037     7.35     1139.002     62.78859     174.9341        17     1.731     0.873  -8.80  24
        14    414.7344   1000.5905 307.7317552  +6.2710911     790.4506     1487.279     1499.337     88.72542     178.0187     356.1082      2.081     4.80     1168.808     62.78859     144.9615         8     1.308     0.500 -32.40   0
        15    713.3676   1023.7713 307.6069293  +6.2714585     1782.801     2168.645     2565.274     75.84696     139.6563     265.9391      1.007     2.67     1163.666     62.78859     511.7827        10     1.139     0.418  -1.98  24
        16    705.1153   1023.7067 307.6103592  +6.2712108     676.4647     976.4603     875.3681     76.83846     141.2729     267.4057      1.325     4.05     1163.614     62.78859     145.7695         6     1.107     0.423   9.51  24
        17    568.9111   1023.4532 307.6669424  +6.2667854     1951.718     2608.671     2784.276     80.99485     145.2359     272.0363      1.482     3.96     1168.122     62.78859     346.6412        14     1.322     0.668  -8.25  24
        18    428.1688   1023.4432 307.7254012  +6.2621022     856.5436     1515.983      1578.66     80.21227     145.2359     271.9899      2.017     4.71     1168.829     62.78859     144.8053         9     1.150     0.724   9.92  24
        19    262.2724    997.1854 307.7951968  +6.2674114     845.1672     1460.262     1158.982     88.72542     177.9478     356.0728      1.987     3.53     1170.854     62.78859      123.958         7     1.012     0.502 -23.87   0
        20    906.2402    993.8271 307.5278243  +6.2902277     8067.702      13302.1     14264.55     88.86749     177.9478     356.0374      1.737     4.68     1157.976     62.78859     1152.861        36     1.782     0.890 -41.12   0
        21    537.6303    993.1765 307.6809593  +6.2782466     6760.758     12166.54     13435.99     88.72542     178.0187     356.0019      1.916     4.73     1167.298     62.78859     862.9203        42     1.859     1.062 -41.34   0
        22    879.8227    989.9550 307.5389283  +6.2909502     11203.41     19680.63     21718.68     88.72542     178.1604     356.0374      1.893     4.76     1157.927     62.78859     1435.833        50     1.931     1.065 -38.56   0
        23    592.3902    990.6411 307.6582993  +6.2811162     1222.075     2342.711     2598.665     88.58311     177.9478     355.8956      1.933     6.45     1166.279     62.78859     163.6458        17     1.459     0.986 -45.99   0
        24   1001.5446    989.3824 307.4883855  +6.2952230     4474.058     7409.825     7236.252     88.72542     178.0895      355.931      1.775     4.53      1157.38     62.78859     657.4578        29     1.769     0.852 -40.16   0
        25    524.1938    989.0549 307.6866799  +6.2795012     3378.074     6122.217     6548.244     88.72542     177.8769     355.8601      1.898     4.87     1167.368     62.78859     404.2146        31     1.775     1.060 -34.07   0
        26    633.5220    988.4896 307.6412869  +6.2833730     1257.221     2066.797     2117.195     89.00934     178.4434     356.3561      1.726     5.91     1164.637     62.78859      180.972        17     1.535     0.861 -48.26   0
        27    477.2197    985.5314 307.7063108  +6.2793917     1791.429     3421.037     3539.965     88.86749     178.0187     356.1082      2.064     5.57     1168.033     62.78859     243.5575        23     1.666     0.983 -36.44   0
        28    911.5645    977.5303 307.5261619  +6.2971340     40772.34     67217.45     71547.23     89.15096     178.2312     356.3207      1.808     4.56     1157.188     62.78859     5679.579        66     1.884     1.049 -38.93   0
        29    218.9220    976.0268 307.8139204  +6.2747010     1429.141     2515.943     2054.666     89.15096     178.0895     356.1436      1.827     5.23     1170.518     62.78859     204.0481        20     1.576     0.903 -34.18   0
        30    617.6890    974.3102 307.6483428  +6.2887016     647.5238     915.8704     814.5186     89.29236     178.7259     356.3207      1.559     4.82     1164.759     62.78859     114.7206         7     1.314     0.501 -20.97   0
        31    757.6872    969.2683 307.5903599  +6.2954377     5622.957     10040.23     11379.45     89.43353     178.4434     356.2499      1.941     4.84     1160.662     62.78859     681.8348        40     1.868     1.057 -42.37   0
        32    809.4344    971.2968 307.5687961  +6.2963187     2122.245     3458.791     3494.574     89.29236     178.0187     356.3915      1.763     4.69     1158.923     62.78859      256.671        21     1.540     0.852 -34.35   0
        33    544.6038    968.1541 307.6789092  +6.2888115     756.1637     1376.855      1564.01     88.58311     177.8769     355.8247      2.055     5.09     1166.141     62.78859     137.8453         8     1.418     0.786 -54.29   0
        34    227.2880    968.4081 307.8107041  +6.2781263     1096.814     1932.751     2108.255     88.86749     177.8059      355.931      2.066     5.34     1170.334     62.78859     149.8617        14     1.432     0.790 -35.35   0
        35    191.8394    967.9438 307.8254437  +6.2771340      746.952     1276.836     1222.042     89.29236     178.2311      356.179      1.711     2.93     1170.389     62.78859     132.7635         6     0.885     0.456 -54.56   0
        36     52.2686    966.6600 307.8834585  +6.2729984      2293.68      4139.87     4507.222     89.43353     178.0895     356.2145      1.923     5.16     1171.151     62.78859     278.0288        24     1.590     0.939 -41.98   0
        37    945.9136    964.3490 307.5123376  +6.3037164     6319.882     10291.86     10399.38     89.29236     178.0187     356.2853      1.721     4.63     1156.019     62.78859     922.2573        31     1.747     0.871 -37.06   0
        38    919.5427    956.0190 307.5235727  +6.3062817     1824.757     2955.741     3330.799     88.86749     178.0895     356.0019      1.945     5.11     1156.096     62.78859     238.2621        16     1.515     0.670 -43.00   0
        39    640.4163    951.8907 307.6396600  +6.2987155     3856.327     6464.267     6636.189     89.00934     177.9478     356.1082      1.817     4.78      1163.11     62.78859      482.611        28     1.727     0.923 -38.59   0
        40    252.6588    952.3218 307.8007117  +6.2856160     3436.775      6218.51     6936.433     89.43353     178.1604     356.1436      1.944     5.05     1170.001     62.78859     375.4213        33     1.784     1.086 -41.92   0
        41    779.5281    952.3569 307.5818581  +6.3031467     1070.324     1665.397     1525.249     89.15096     178.1604     356.2499      1.672     5.58     1159.172     62.78859     137.8274        12     1.372     0.640 -38.26   0
        42    990.5488    951.4190 307.4942316  +6.3105355     786.1222     1213.514     1744.283     88.72542     178.2312     355.9665      1.912     5.93     1153.677     62.78859     108.6334         9     1.525     0.649 -36.44   0
        43    462.8811    950.5109 307.7134522  +6.2933753       900.33      1345.05     1659.755     89.00934     178.3727     356.3207      1.887     5.86     1167.386     62.78859     124.6188        10     1.340     0.722 -51.84   0
        44     21.3816    950.0073 307.8968535  +6.2788413     1687.091     3186.447     3215.805     88.86749     177.8059     356.0374      1.987     5.23      1171.13     62.78859     242.5096        19     1.608     0.888 -35.47   0
        45    963.4322    946.7779 307.5056523  +6.3115532     439.3064     746.9225     415.5037     88.72542     177.9478     356.0019      1.428     4.52     1154.333     62.78859     92.11218         5     1.225     0.473 -32.56   0
        46    564.8681    944.8984 307.6712783  +6.2990892      1217.16     2171.328     2216.991     89.29236     178.3019     356.2499      1.935     5.04     1164.706     62.78859     151.3813        16     1.292     0.927 -43.21   0
        47    289.1190    945.7313 307.7857908  +6.2895545     526.0239     1047.579     1921.952     89.57449     178.4434     356.2499      2.238     3.48     1169.923     62.78859     111.4779         5     1.600     0.219 -27.58   0
        48    995.3240    945.3281 307.4924530  +6.3132091     607.6394     1412.009      1652.07     89.57449     178.4434     356.2145      2.203     3.50      1152.93     62.78859     99.18433         5     1.045     0.339 -21.08   2
        49    943.8981    945.4725 307.5138108  +6.3114446      667.226     977.6367     676.5352     89.00934     178.3019     356.2145      1.416     4.57     1154.925     62.78859     113.0763         7     1.134     0.523 -28.08   0
        50    604.2411    940.4672 307.6550730  +6.3022293     810.8815     1356.278     1451.474     89.29236     178.0895     356.2853      1.997     5.48     1163.532     62.78859     98.30688        10     1.278     0.662 -47.24   0
        51    284.5590    938.4022 307.7879335  +6.2924287      1281.21     2281.688     2540.084     88.58311     177.8769      355.931      1.840     7.05     1169.783     62.78859     129.1565        16     1.353     1.030 -27.94   0
        52    750.6130    934.5553 307.5944703  +6.3095372     646.0038     815.6267     378.3433     88.58311     177.9478      355.931      1.422     3.34     1159.469     62.78859     121.1094         5     1.002     0.323 -67.39   0
        53    888.5348    931.3084 307.5372865  +6.3154572     6335.165     10623.23      11081.8     89.15096     178.3727     356.2145      1.792     4.80     1155.128     62.78859     797.2367        33     1.767     0.934 -37.61   0
        54    424.7769    928.5543 307.7300235  +6.3011721     1625.674     2727.058     2733.445     88.86749     178.1604     356.0728      1.844     5.62      1168.36     62.78859     191.0659        16     1.350     0.843 -30.97   0
        55    326.2157    926.8375 307.7710224  +6.2985942     7216.693     13997.99     15510.75     89.00934     177.9478      355.931      2.096     5.28     1169.136     62.78859     906.1481        47     1.893     1.204 -35.50   0
        56    872.6573    947.9312 307.5433216  +6.3080661     900.2131     1304.596     1308.664     89.43353     178.0895     356.1436      1.672     4.65     1156.027     62.78859     136.6223         8     1.157     0.531 -32.29   0
        57    246.3211    925.8640 307.8042418  +6.2963296     5439.408     10225.23      11220.3     89.57449     178.2312     356.2145      2.026     4.91     1169.493     62.78859     739.1917        43     1.904     1.174 -36.21   0
        58    758.2762    920.6587 307.5917561  +6.3155303     544.2482     1210.955     1516.757     89.43353     178.2312      356.179      2.221     4.59      1158.47     62.78859     99.20117         6     1.654     0.362 -51.01   0
        59    574.4118    920.1458 307.6681510  +6.3096282     951.9169     1591.346     1164.054     88.58311     178.0895     355.8956      1.727     5.99     1163.383     62.78859     137.9802        13     1.582     0.639 -30.82   0
        60    904.1774    916.6154 307.5312837  +6.3220436     963.3288     1694.437     2747.896     89.00934     177.9478     356.1082      2.673     6.42     1154.233     62.78859     157.9462        13     1.714     0.675 -38.98   0
        61    971.1833    911.8101 307.5036103  +6.3262501     680.7202     1313.822     1730.359     89.00934     177.8769     356.0728      2.314     9.04     1151.437     62.78859     92.69312        11     2.214     1.031 -34.31   0
        62    861.6066    914.5627 307.5490374  +6.3214787     632.3016     901.3892     1223.717     88.29782     177.8769      355.931      1.538     3.48     1154.781     62.78859      134.323         5     1.015     0.345 -21.94   0
        63    740.9162    909.5278 307.5993434  +6.3195500     1204.401      2502.58     2603.645     89.43353     178.5141     356.2499      2.082     5.68       1158.3     62.78859     184.2057        14     1.447     1.063 -42.57   0
        64    564.4436    910.3254 307.6726239  +6.3133516     516.3366     770.6077     585.7722     89.15096     178.2312     356.2499      1.845     4.23     1163.214     62.78859     85.01843         6     1.152     0.443 -34.30   0
        65    971.8966    904.9311 307.5035458  +6.3291144     1217.082     2093.215     2877.529     89.15096     178.3019     356.2145      1.712     6.03     1150.927     62.78859     179.9229        12     1.493     0.684 -40.46   0
        66    604.6848    905.7549 307.6560622  +6.3165782     731.6574     1141.583     1242.209     89.29236     178.0895     356.2145      1.596     3.43     1162.024     62.78859     122.2627         5     1.115     0.304 -35.62   0
        67    526.1471    904.6839 307.6887231  +6.3144062     790.7099      1442.29      1283.63     89.29236     178.1604     356.3561      1.810     5.74     1164.028     62.78859     111.7577         9     1.340     0.693 -34.49   0
        68    659.2637    902.7325 307.6334920  +6.3196418     1865.218     3520.973     3551.545     89.29236     178.1604     356.2853      1.946     6.00     1160.419     62.78859     261.9326        21     1.678     0.835 -37.43   0
        69   1010.3090    901.8920 307.4876908  +6.3316426     552.5315     1109.452     654.8135     89.29236     178.7259     356.2853      1.959     4.26      1148.87     62.78859     105.5948         5     1.043     0.497 -51.81   0
        70     55.8619    898.9939 307.8842660  +6.3010595     2150.167     4220.871      4739.09     88.58311     177.9478     355.9665      2.058     5.89     1169.898     62.78859     259.5068        27     1.766     1.009 -48.16   0
        71    199.7634    897.9776 307.8245272  +6.3062897     1727.886     3273.642     3456.307     88.86749     177.8769     355.9665      1.992     5.44     1169.132     62.78859     218.3301        23     1.496     1.093 -48.43   0
        72     73.2757    898.4250 307.8770521  +6.3018769     1461.815      3142.74     2494.232     88.86749     177.9478      356.179      2.174     7.25     1169.668     62.78859     185.3676        21     1.747     0.947 -29.61   0
        73    937.1833    898.4234 307.5181856  +6.3306507     743.3113     1166.078     771.2877     89.00934     178.0187     356.1082      1.316     4.29     1152.163     62.78859     163.8284         7     1.507     0.347 -33.07   0
        74    819.7430    898.8538 307.5669580  +6.3265760     631.6179     1078.713     345.1382     89.43353     178.1604     356.2145      1.632     3.44     1155.296     62.78859     99.18591         5     0.987     0.346 -46.34   0
        75    653.9141    891.8649 307.6360816  +6.3239516      5667.93     10024.66     10516.06     89.43353     178.3727     356.2499      1.878     4.81     1159.916     62.78859     708.8274        36     1.830     1.018 -40.63   0
        76    234.3120    894.5615 307.8102923  +6.3088543     697.1149     998.5978     1195.249     89.29236     178.0895     356.2499      1.514     4.14     1169.033     62.78859     107.9199         6     1.056     0.477  -8.35   0
        77    791.1400    892.7050 307.5790477  +6.3281653     501.5972     753.0287      1177.75     89.15096     178.1604     356.3207      1.481     3.93     1155.748     62.78859     108.3422         5     0.736     0.709  49.89   0
        78     14.2803    890.6940 307.9018199  +6.3030953      865.187     1810.441     1453.698     89.00934     178.4434     356.2853      2.057     6.28     1170.265     62.78859     128.6534        12     1.683     0.659 -36.52   0
        79    891.3985    888.0835 307.5375542  +6.3334018      2357.86     3819.663     3894.351     88.44058      177.664     355.8956      1.788     4.88      1152.93     62.78859     318.0382        21     1.537     0.824 -43.67   0
        80     27.0727    888.8878 307.8965677  +6.3042693     868.6107     1580.024     1743.615     89.43353     178.4434     356.2145      1.843     4.41     1170.066     62.78859     137.6088        10     1.291     0.672 -60.54   0
        81    336.9768    885.1482 307.7679656  +6.3161681     11687.61     23475.08     26192.92     88.72542     178.1604     356.0728      2.137     5.22     1168.113     62.78859     1319.083        59     2.058     1.257 -35.17   0
        82     71.8293    886.0744 307.8780727  +6.3069283     1205.368     2063.726      2062.74     89.15096     178.1604      356.179      1.825     5.40     1169.454     62.78859     181.3577        15     1.396     0.863 -43.45   0
        83    208.3058    884.4492 307.8214381  +6.3121613     1031.495     1961.572      1638.68     89.15096     178.0187     356.3561      1.964     6.19     1168.902     62.78859     116.6143        13     1.446     0.744 -28.85   0
        84    414.5452    876.0337 307.7360527  +6.3225186     902.5331     1635.806     1750.739     89.15096     178.1604     356.2145      2.036     6.39     1165.846     62.78859     124.9181        13     1.595     0.720 -46.60   0
        85    100.1352    875.8154 307.8666636  +6.3121112     1231.479     2506.577     2200.516     88.72542     178.0187     356.1082      2.136     6.43     1168.958     62.78859     136.7239        20     1.531     1.029 -26.13   0
        86    881.9397    869.8203 307.5420994  +6.3406297     1663.081     2973.334     2994.134     88.86749     178.0187     356.1436      1.796     5.37     1152.355     62.78859     239.8385        20     1.647     0.908 -41.09   0
        87    852.7164    869.4503 307.5542520  +6.3398127     1729.662     2938.653     3475.389     89.29236     178.1604     356.3207      1.814     4.84     1153.174     62.78859      261.449        17     1.522     0.742 -39.42   0
        88    815.9155    868.7430 307.5695640  +6.3388830     2427.306     4419.355     4704.204     89.29236     178.1604     356.3207      2.015     5.61      1153.82     62.78859     319.2229        24     1.837     0.828 -40.28   0
        89     83.8852    869.2148 307.8736379  +6.3142933     1748.803     3715.361      4004.16     88.86749     177.8769     356.1082      2.282     8.39     1168.988     62.78859     189.1627        25     1.812     1.084 -37.89   0
        90    551.9822    860.2848 307.6794932  +6.3336005     246806.6     476041.1     527364.5     88.86749     177.8769     356.1436      2.081     5.01     1161.353     62.78859     27501.83       157     2.136     1.406 -37.51   0
        91    339.4313    861.3911 307.7677514  +6.3260601     8847.658     17887.39     19794.67     88.72542     177.9478     356.0374      2.166     5.35     1167.477     62.78859     975.6066        57     2.240     1.278 -37.08   0
        92    396.3349    862.9185 307.7440616  +6.3273272     5721.207     11323.62     12651.15     89.57449     178.3727     356.2145      2.125     5.22     1165.803     62.78859     641.8457        45     1.971     1.217 -39.96   0
        93    640.3175    862.9572 307.6427068  +6.3354365     822.9401     1657.755     1746.301     89.29236     178.1604      356.179      1.997     6.08     1158.814     62.78859     118.0879        12     1.601     0.648 -35.14   0
        94    657.9720    857.4451 307.6355590  +6.3382999     2818.418     5258.538     6005.287     88.72542     178.2311     356.1082      2.071     5.57     1157.691     62.78859     341.7701        29     1.765     1.007 -46.39   0
        95    890.2457    856.3890 307.5391017  +6.3464517      4632.81     8067.454     8967.085     88.72542     178.0187     355.8956      1.843     5.01     1151.307     62.78859     571.6263        30     1.883     0.842 -37.39   0
        96    632.7577    851.4869 307.6462350  +6.3399216     2598.838     4650.342     5436.271     89.29236     178.0187     356.2499      1.899     5.80      1158.34     62.78859     371.6252        29     1.781     1.058 -32.98   0
        97   1022.9696    850.8798 307.4841490  +6.3531276     3830.125     5117.952     5186.812     86.27436     153.1836     280.8889      1.395     4.28     1144.866     62.78859     646.8584        19     1.296     0.829 -50.29  24
        98    821.1727    850.5917 307.5679924  +6.3465531     1448.881     2263.053     2198.632     88.86749     177.9478     356.0374      1.753     5.61     1153.039     62.78859     189.5977        19     1.516     0.898 -45.47   0
        99    624.9617    847.2269 307.6496176  +6.3414214     1453.015      3269.15     4218.981     88.86749     177.9478     356.0374      2.644     9.98     1158.401     62.78859     198.7213        30     2.643     1.052 -54.94   0
       100    948.4843    849.2166 307.5151491  +6.3513453     598.4394     1151.663     1301.025     88.86749     177.8769     356.1082      2.080     5.76      1148.53     62.78859     79.88647         7     1.554     0.601 -53.67   0
       101    909.2756    844.0137 307.5316132  +6.3521934     2690.127     4831.474     4769.515     88.72542     177.8769     356.0019      1.888     5.02     1149.982     62.78859     339.3262        24     1.727     0.884 -37.62   0
       102    367.3769    840.1837 307.7568614  +6.3357495     1907.504     3796.722      4066.93     89.00934     178.0187     356.1082      2.121     5.51     1165.703     62.78859     228.2112        28     1.679     1.103 -40.14   0
       103    503.5671    829.9442 307.7006325  +6.3445171     2238.893     4673.236     4959.135     89.15096     178.1604     356.2145      2.222     6.16     1161.304     62.78859     261.6376        33     1.959     1.097 -39.64   0
       104    550.4581    826.1234 307.6812820  +6.3476564     4401.829     8678.857     10717.87     89.43353     178.1604     356.1436      2.283     5.20     1159.871     62.78859     518.2689        45     2.067     1.225 -32.74   2
       105    848.2886    828.8179 307.5574621  +6.3564447     796.8269     1364.242     1500.928     89.00934     177.8769     356.1082      1.815     4.43     1151.254     62.78859     126.1984         8     1.121     0.499 -35.43   0
       106    568.4026    827.3372 307.6737863  +6.3477525     545.2004     975.0477     1199.251     88.58311     177.9478      355.931      1.653     3.91     1159.231     62.78859     82.92664         5     1.033     0.424  74.84   0
       107    467.9217    825.2679 307.7155987  +6.3452606     1161.583     2294.803     2228.489     89.43353     178.2312     356.2145      2.077     7.76      1162.01     62.78859     137.6202        20     1.816     1.058 -31.88   0
       108    885.8751    824.0982 307.5420062  +6.3596411     1152.644     1851.111     1491.416     88.72542     178.3019     356.2145      1.671     5.61     1149.679     62.78859     171.1002        12     1.340     0.661 -40.65   0
       109    109.5815    824.1547 307.8644951  +6.3337590     861.6746     1682.788     1297.672     88.86749     178.0187      355.931      2.104     5.12     1167.687     62.78859     118.3275         9     1.243     0.595 -22.40   0
       110    521.0817    819.9518 307.6936946  +6.3492267     14111.96        27810     30582.94     89.29236     178.1604     356.2499      2.118     5.04     1160.373     62.78859     1692.961        59     2.010     1.278 -38.12   0
       111    934.4807    818.2803 307.5220094  +6.3636560     3421.578     5786.868     5958.472     89.57449     178.4434     356.3915      1.841     4.78     1147.802     62.78859      432.624        28     1.776     0.879 -40.59   0
       112     31.7976    810.4023 307.8972739  +6.3368357     1122.161     2180.944     2239.485     88.58311      177.664     355.8601      1.919     6.82     1167.925     62.78859     146.0295        17     1.653     0.790 -33.63   0
       113    313.6483    808.6947 307.7802487  +6.3469598      2361.68     4520.167     4684.954     89.15096     178.0187     356.3561      2.059     5.63     1166.393     62.78859     282.8904        29     1.764     1.123 -31.79   0
       114    779.2065    804.4213 307.5869850  +6.3642252     43246.13     79091.47     86492.81     88.86749     177.9478     356.0019      1.969     4.80     1152.566     62.78859     5064.532        83     2.035     1.252 -38.49   0
       115     13.7401    806.8962 307.9048942  +6.3376791     1469.364     3218.687     2841.997     89.00934     178.1604     356.3207      2.212     8.02     1168.012     62.78859      178.451        26     1.999     0.917 -40.55   0
       116    236.6716    802.3723 307.8124406  +6.3470007     3630.633     7986.437     11617.56     89.00934     178.0895     356.1082      3.080     5.50     1167.297     62.78859      417.666        49     2.118     1.338 -44.66   0
       117    904.4817    799.6293 307.5351012  +6.3703628     7202.024     12542.12     13747.82     89.15096     178.0187     356.2145      1.877     4.78     1147.908     62.78859     928.6788        38     1.876     0.988 -38.97   0
       118    707.4201    799.1454 307.6169865  +6.3640184     15753.52      30891.6      34957.7     88.72542     178.1604     356.0019      2.108     5.05     1153.103     62.78859      1961.89        62     2.047     1.288 -37.57   3
       119    701.1724    795.5950 307.6197020  +6.3652769     66052.75     125538.2     139058.5     88.72542     177.9478     356.0019      2.065     4.96     1153.044     62.78859     7600.432        92     2.099     1.302 -37.86   3
       120    346.0891    796.5857 307.7671826  +6.3530425     14068.04     28876.03     32384.37     89.00934     177.9478     356.0728      2.195     5.31     1164.479     62.78859     1556.252        66     2.125     1.341 -37.10   0
       121    407.9695    794.3809 307.7415505  +6.3560167     14948.68     30903.05     35171.07     88.86749     177.9478     356.0728      2.225     5.43     1162.396     62.78859     1600.147        71     2.155     1.366 -38.68   0
       122    395.7345    796.4082 307.7465646  +6.3547716     990.3455      1955.08     2019.429     88.72542     177.8769     356.0728      1.855     5.86     1162.875     62.78859     162.2709        12     1.381     0.821 -62.18   0
       123    944.8628    793.0737 307.5185457  +6.3744093     1914.952     3221.428     2956.959     89.57449     178.1604     356.2145      1.714     4.55     1145.754     62.78859     254.7285        20     1.535     0.827 -57.80   0
       124    236.0294    780.9734 307.8134336  +6.3558154     763541.1      2257321      2700214     88.72542     177.9478     356.0374      2.687     7.50      1166.19     62.78859     63568.64       553     2.676     2.050 -45.29   4
       125    430.7005    788.2007 307.7323167  +6.3593265     1124.271       2226.5     2828.441     88.72542      177.735     355.8601      2.033     6.85     1161.172     62.78859     147.4938        17     1.663     0.791 -27.06   0
       126    901.3182    791.0328 307.5367053  +6.3738078       5703.5     9856.957     11292.06     89.15096     178.0895      356.179      1.867     4.71     1147.481     62.78859     759.7333        31     1.782     0.919 -38.03   0
       127    676.9653    780.1804 307.6302796  +6.3708373     1846.638     3413.064     4069.617     88.72542     177.9478     355.9665      2.100     6.65     1152.679     62.78859     233.3557        21     1.797     0.892 -36.71   0
       128    122.5153    780.9003 307.8605920  +6.3520523     900.9745      1470.13     1351.234     89.29236     178.7259     356.3207      1.773     6.67     1166.249     62.78859     151.7633        12     1.385     0.900 -60.75   0
       129    410.9005    777.0521 307.7409200  +6.3632701     36198.82      75097.7     85001.81     89.29236     178.1604     356.4623      2.231     5.32     1161.196     62.78859      3920.89        87     2.153     1.425 -38.02   0
       130    642.0490    790.2922 307.6444437  +6.3655005     4707.415     9032.664     9817.237     89.15096     178.0187     356.3915      2.041     4.92     1154.273     62.78859     533.8412        40     1.825     1.196 -37.32   0
       131    953.4678    779.0058 307.5154447  +6.3805040     721.0699     1043.075     1184.459     88.72542      177.735     356.0019      1.431     3.71     1144.472     62.78859     114.8153         6     0.798     0.497 -85.75   0
       132    528.6104    775.9838 307.6920549  +6.3676335     4908.443     9868.425     10750.16     89.00934     177.8769     356.0728      2.136     5.11     1157.263     62.78859      544.837        43     1.944     1.224 -38.49   0
       133    445.5266    774.7751 307.7266122  +6.3653646     3146.154     6334.918     7346.714     88.86749     178.0187     356.1436      2.182     6.03     1159.684     62.78859     333.1379        34     1.903     1.172 -34.03   0
       134    773.8180    772.5911 307.5902982  +6.3771903     8813.228     16696.02     18118.97     89.00934     177.8769     356.0019      2.017     5.07     1150.449     62.78859     1062.445        47     1.944     1.137 -36.75   0
       135    442.1412    768.3756 307.7282354  +6.3678943     1644.046     3315.295     4177.965     88.86749     178.1604     356.0374      2.313     5.61     1159.347     62.78859     208.7316        24     1.638     1.072 -54.08   0
       136      3.7630    769.0502 307.9103260  +6.3529725     834.2656     1453.216     1482.156     89.00934     173.8598      308.828      1.843     5.60     1167.143     62.78859     122.7041         8     1.108     0.797  -3.22  16
       137    795.0244    766.8710 307.5816810  +6.3802568     969.1351     1736.499     1757.725     88.86749     178.0187     356.1436      2.102     5.35     1149.772     62.78859     125.6738        10     1.354     0.596 -49.46   0
       138    131.6469    764.8098 307.8573452  +6.3590018      7786.46     16575.76     19078.09     88.72542     178.0895     355.8247      2.243     5.29     1165.556     62.78859     870.5223        55     1.993     1.402 -36.71   3
       139    139.9379    764.9131 307.8538974  +6.3592363     1987.572     4261.546     4866.813     89.29236     178.3727     356.2145      2.237     6.22     1165.568     62.78859     236.0437        29     1.748     1.178 -48.56   3
       140    124.0423    761.9340 307.8606020  +6.3599351      1920.15     4095.984     5353.162     89.29236     178.0895     356.2853      2.479     5.67      1165.41     62.78859     208.4169        28     1.609     1.255 -46.94   3
       141    124.3560    755.5130 307.8606899  +6.3625969     1478.498     2925.358     3950.983     89.29236     178.0187     356.2145      2.467     5.79     1165.145     62.78859     154.2639        22     1.485     1.120 -49.46   3
       142    919.2729    761.1205 307.5302543  +6.3867556     5331.224     9561.964     10212.92     89.57449     178.4434     356.2145      1.949     4.84      1144.99     62.78859     660.9658        33     1.843     0.987 -39.44   0
       143    968.0690    761.1485 307.5099802  +6.3883623     1261.771     2350.599     2750.292     89.15096     178.0187     356.1436      2.337     6.41     1142.846     62.78859      164.099        16     1.535     0.893 -33.04   0
       144    674.8581    758.5856 307.6318848  +6.3796847     1259.366     2441.926     3575.503     88.58311     178.0187     355.8956      2.307     7.05     1151.636     62.78859     146.4242        19     1.685     0.853 -38.43   0
       145    561.7164    758.1524 307.6789045  +6.3760991     1795.443      3790.51     4474.252     89.29236     178.1604     356.2499      2.436     6.15     1154.914     62.78859      225.146        27     1.828     1.066 -33.96   0
       146    942.9214    752.6179 307.5207157  +6.3910511     2463.546     4421.791     4858.257     88.86749     177.8059     356.1436      1.858     5.30     1143.439     62.78859      322.494        25     1.800     0.834 -42.09   0
       147    913.5428    753.0921 307.5329057  +6.3898808     2608.037     4361.748     4644.708     89.15096     178.0895     356.3207      1.826     4.89     1144.717     62.78859     341.2181        24     1.720     0.853 -33.12   0
       148    973.8585    752.3572 307.5078711  +6.3921846     1755.244     3234.189     3497.799     89.15096     178.1604     356.2853      1.934     4.45     1142.228     62.78859     245.9473        19     1.470     0.906 -40.63   0
       149    666.4457    752.4728 307.6355864  +6.3819291     1099.773     2009.453     2438.742     89.15096     178.2312     356.2145      2.085     5.89     1151.551     62.78859     146.7079        15     1.445     1.008 -29.58   0
       150    812.9861    750.8054 307.5747608  +6.3874876     740.0035     1278.921     476.2961     88.86749     177.8769     356.0728      1.429     5.36     1148.192     62.78859     113.2812         9     1.320     0.615 -33.69   0
       151    888.1840    748.4351 307.5435985  +6.3909626     567.3804       964.89     1162.057     88.86749     177.8769     356.0374      1.508     3.46     1145.772     62.78859     81.64343         5     1.274     0.272 -54.70   0
       152    238.4658    747.2688 307.8135653  +6.3698145     1149.326     2788.024     3729.461     89.29236     178.2312     356.2499      2.734     8.60     1164.308     62.78859     135.8844        22     1.850     1.245 -43.86   0
       153    930.8518    742.8790 307.5260586  +6.3946725      698.675     1256.055     1488.022     89.29236     178.1604     356.2145      1.688     5.61     1143.199     62.78859     99.21008         9     1.674     0.531 -48.59   0
       154    904.4872    741.7944 307.5370489  +6.3942457     917.2834     1552.573     1372.875     88.72542     177.8059      355.931      1.703     6.24     1144.587     62.78859     129.7085        14     1.648     0.664 -48.08   0
       155    957.8492    740.3040 307.5149287  +6.3966311     1996.279     3645.887     3844.252     89.15096     178.0895     356.3915      1.855     6.32     1142.212     62.78859     258.3707        23     1.629     0.961 -39.49   0
       156    677.8837    739.6516 307.6312676  +6.3876040     664.2811     1328.765     1713.719     89.29236     178.0895     356.3207      2.633     6.88     1150.553     62.78859     119.6116         9     1.303     1.020 -72.18   0
       157    999.5840    733.6281 307.4978138  +6.4007716     1575.256     2792.771     2457.542     88.86749     177.8769     356.1082      1.827     5.64     1140.767     62.78859     202.0382        18     1.443     0.881 -44.55   0
       158    801.8736    731.7825 307.5800197  +6.3949739     732.5225     1134.232     1392.102     88.72542     178.0895     356.1082      1.930     5.00     1146.986     62.78859     131.2825         7     1.183     0.663 -32.30   0
       159    887.1168    729.5671 307.5446782  +6.3987186     1171.097     2490.178     2652.496     89.29236     177.9478     356.1436      2.078     6.45     1144.729     62.78859      193.129        16     1.696     0.688 -25.76   0
       160    861.2675    724.7529 307.5555804  +6.3998488     765.6061     1506.699     1290.552     89.29236     178.0895     356.2145      2.175     6.25     1145.535     62.78859     128.3818        11     1.289     0.850  -6.43   0
       161    844.2400    720.8845 307.5627854  +6.4008810     1264.847     2126.033     1657.651     89.29236     178.0895     356.1436      1.802     6.29     1145.472     62.78859     140.2623        15     1.383     0.803 -42.34   0
       162     43.7312    720.3146 307.8953800  +6.3744343     1545.099     3224.425     3326.083     89.43353     178.4434     356.2499      2.146     7.24     1164.846     62.78859     178.1986        24     1.763     1.094 -39.02   0
       163    655.8887    708.4194 307.6414614  +6.3997695     4370.332     8667.888     9528.978     89.00934     177.8769     356.1082      2.104     5.41      1148.57     62.78859     505.7776        39     1.947     1.160 -34.12   0
       164    602.7945    707.3844 307.6635555  +6.3984305     943.2226     2031.668     1842.918     88.86749     177.8059     356.0374      2.359     6.26     1150.901     62.78859     110.5817        13     1.389     0.792 -48.07   0
       165    118.9204    704.7688 307.8646723  +6.3833687       2411.3     5526.612     6433.076     89.15096     178.0895      356.179      2.414     6.77     1162.731     62.78859     264.8688        39     2.017     1.318 -43.93   0
       166    629.5928    704.1728 307.6525302  +6.4006484     1658.881     3212.874     4326.606     88.72542     177.9478     356.0019      2.536     6.94     1149.524     62.78859     205.0128        20     1.718     0.965 -48.92   0
       167    992.9473    703.7098 307.5015792  +6.4129063     2278.402     3988.949     3762.411     89.29236     177.9478     356.3561      1.802     5.96     1139.283     62.78859     270.8601        21     1.663     0.835 -34.92   0
       168    772.7802    700.5715 307.5931610  +6.4068959     14442.95     28130.21     31341.77     88.86749     177.9478     356.1436      2.104     5.13     1145.368     62.78859     1688.032        63     2.065     1.258 -37.07   0
       169    902.7006    700.3438 307.5391890  +6.4113034     2996.929      5434.76     6067.638     89.00934     178.1604     356.4623      1.930     5.00     1141.685     62.78859     361.0731        26     1.776     0.878 -40.65   0
       170    471.7976    701.7990 307.7181694  +6.3963746     780.1036     1619.355     1784.306     88.58311      177.664     355.8601      2.295     6.23     1154.576     62.78859     115.5055        10     1.131     0.964 -13.84   0
       171    246.5298    694.3227 307.8120122  +6.3919468     3979.116     8846.494     9847.725     89.57449     178.4434     356.2145      2.287     5.70     1160.759     62.78859      456.443        43     1.917     1.359 -37.51   0
       172    653.3698    693.3962 307.6430158  +6.4058894     4866.408      10158.9     11449.17     88.72542     178.0187     356.0374      2.233     5.61     1147.435     62.78859     517.0345        43     2.010     1.233 -37.50   0
       173    913.1516    685.8819 307.5353344  +6.4176221     994.7804      1977.03     2389.012     89.29236     178.1604     356.2499      2.040     6.91     1140.365     62.78859     134.1813        14     1.889     0.708 -39.94   0
       174    725.0476    681.8956 307.6136238  +6.4130219     2562.438      5248.41     5909.704     89.15096     178.0187     356.3915      2.155     5.71     1144.833     62.78859     283.2249        31     1.722     1.183 -37.59   0
       175    679.1920    682.9444 307.6326405  +6.4110642     668.5129     1299.693     1626.965     88.58311     177.9478     355.8956      2.216     6.75     1145.291     62.78859     92.94543         7     1.313     0.974  74.89   0
       176    991.3199    678.3033 307.5031114  +6.4233439     7502.532     12920.17     13873.34     89.00934     178.4434     356.3207      1.832     4.53     1137.885     62.78859     971.3818        38     1.877     0.956 -36.68   0
       177    929.8366    678.8519 307.5286389  +6.4210786     1884.768     3427.902     3870.921     89.15096     178.1604     356.2145      2.062     5.19     1139.439     62.78859      215.881        23     1.564     1.002 -31.98   0
       178     10.8179    678.5836 307.9104726  +6.3905643      1297.88     2816.902     3084.544     89.00934     177.8059     356.1436      2.304     7.25      1164.02     62.78859      186.764        19     1.533     1.073 -42.79   0
       179    529.9374    674.3641 307.6949429  +6.4096403     1266.653     2696.081     2955.208     89.29236     178.1604      356.179      2.292     8.64     1151.406     62.78859     149.7863        23     1.971     1.058 -38.46   0
       180     68.8081    673.5047 307.8865538  +6.3946022     16474.44     35749.59     40609.96     89.00934      177.735     355.9665      2.302     5.49     1162.618     62.78859     1959.038        74     2.115     1.488 -41.74   0
       181    498.0376    672.3339 307.7082652  +6.4094161     916.7523     1910.973      1858.54     89.15096     178.0895     356.2853      2.162     6.66      1152.45     62.78859      131.272        11     1.228     1.013 -69.36   0
       182    919.7040    670.6534 307.5331254  +6.4241281     806.8176     1375.118     499.7118     89.15096     178.1604     356.4977      1.855     6.04     1139.234     62.78859     119.3447        10     1.487     0.690 -29.34   0
       183    714.6119    665.4221 307.6185162  +6.4194776     2525.338     4923.487     5560.924     88.86749     177.9478     356.1082      2.057     5.44     1143.898     62.78859     317.5828        28     1.841     0.974 -44.33   0
       184    736.8724    663.6329 307.6093276  +6.4209563     2807.429     5608.805     6392.286     89.15096     178.1604      356.179      2.140     5.84     1143.684     62.78859     311.0845        33     1.862     1.102 -36.35   0
       185    568.0648    661.7557 307.6795284  +6.4161164     1906.567      4102.39       4157.1     89.29236     178.0895     356.2145      2.227     6.43     1149.375     62.78859     254.1212        27     1.713     1.134 -37.73   0
       186    228.8979    662.9085 307.8204038  +6.4043297     882.8867     2131.334     2855.162     89.29236     178.7259      356.179      2.667     4.88     1159.274     62.78859     130.5894         8     0.997     0.676  27.62   2
       187    974.9476    658.8220 307.5105705  +6.4308459     6461.048     12052.17     12969.04     88.72542     178.1604     356.0019      1.973     4.92     1137.303     62.78859     802.0165        41     1.882     1.073 -40.30   0
       188    404.6630    661.6236 307.7474228  +6.4107265     745.5214     1800.145     1595.209     88.86749     178.1604     356.1082      2.080     7.57     1155.202     62.78859     117.7438        12     1.731     0.927   5.30   0
       189    313.1810    660.3733 307.7854732  +6.4081908     916.3752     1888.267     2387.912     88.86749     177.9478     356.1082      2.604     6.03      1157.57     62.78859     120.7679        10     1.412     0.725 -40.04   2
       190   1009.5430    659.7805 307.4961637  +6.4315969     4163.107     6977.359     6981.278     88.86749     178.0895     356.0019      1.810     4.69     1136.478     62.78859     517.5394        34     1.813     0.965 -35.35   0
       191    695.2900    657.3498 307.6268170  +6.4221686     663.2509     1345.722     1352.699     89.29236     177.9478     356.3915      1.671     4.78     1143.804     62.78859      116.745         7     1.361     0.476 -45.99   0
       192    133.6097    652.3797 307.8603498  +6.4054927     14766.15     33212.89     37540.34     88.86749     177.8059     356.0019      2.350     5.73     1160.137     62.78859     1676.098        69     2.127     1.482 -39.98   0
       193    420.6051    653.1056 307.7410879  +6.4147755     1783.337      4007.52     5198.934     89.00934     177.8059      355.931      2.612     6.69     1154.186     62.78859     230.9008        28     1.764     1.128 -37.61   0
       194    802.3965    652.3036 307.5824853  +6.4278117     763.9068     1274.383      1199.02     89.00934     177.8059     355.8601      1.713     5.59     1141.863     62.78859      100.777         8     1.269     0.694  -8.90   0
       195    969.8095    641.7274 307.5132815  +6.4377348     5270.171      10514.2     12034.54     88.72542      177.735     356.0374      2.119     4.72     1136.591     62.78859     624.5814        47     1.855     1.322 -28.81   0
       196    563.4877    637.0413 307.6822664  +6.4261695     30315.67     65302.77     74448.09     89.29236     178.0895     356.2499      2.297     5.44     1147.994     62.78859      3146.18        84     2.184     1.480 -35.60   0
       197    171.2290    633.8538 307.8453498  +6.4144002     1565.762     3955.803     4292.894     89.00934     178.2311     356.1436      2.434     8.20     1159.199     62.78859      174.976        29     1.829     1.279 -31.35   0
       198    493.8283    633.8041 307.7113187  +6.4251862     414.4636      883.262     884.2321     88.72542     177.9478     356.0374      1.394     4.27     1150.811     62.78859     110.4171         5     1.378     0.376 -88.90   0
       199   1023.3302    637.6834 307.4911794  +6.4411789     39792.49     48920.67     50271.09     82.53775      147.477     274.4372      1.195     2.87     1135.012     62.78859     8324.664        34     1.324     0.823 -78.39  24
       200     63.6751    628.3320 307.8902222  +6.4130833      912.549     2252.388     2606.275     89.43353     178.3019     356.2145      2.680     4.17     1161.305     62.78859      111.172         9     0.984     0.767  58.30   2
       201    460.7676    620.9107 307.7254917  +6.4294087     38300.54     85311.02     98405.86     89.43353     177.9478     356.2145      2.370     5.66      1151.31     62.78859     3858.928        94     2.229     1.548 -38.45   0
       202      4.2858    622.8016 307.9150842  +6.4133791     1130.487     2599.191     3112.429     88.44058      177.095     316.1354      2.450     8.18     1163.352     62.78859     127.2894        21     1.657     1.128 -34.23  24
       203    135.0402    615.9899 307.8609921  +6.4205668     899.5803     1845.044     889.6176     88.58311     177.9478      355.931      1.989     6.93     1159.361     62.78859     104.3308        13     1.485     0.907  -9.14   0
       204    306.5642    610.3339 307.7899198  +6.4286328     1332.781      3264.48     3813.555     89.15096     178.2312     356.2853      2.545     9.78     1154.147     62.78859     176.3833        26     1.949     1.368 -48.54   0
       205    732.7499    604.2997 307.6130449  +6.4453205     3448.695     7208.238     7823.016     89.29236     178.1604     356.3915      2.199     5.77     1140.886     62.78859     358.5682        38     1.955     1.199 -43.18   0
       206   1003.2488    600.5612 307.5007742  +6.4558429     963.5928     1599.863     1190.565     89.29236     178.2312     356.0374      1.604     5.91     1133.502     62.78859      125.516        11     1.404     0.700 -51.31   0
       207    786.2259    599.6492 307.5909820  +6.4490179     9647.937     19592.56     21433.28     88.86749     178.1604     356.1082      2.149     5.35     1139.744     62.78859     1048.127        52     2.015     1.257 -38.90   0
       208    610.3170    597.6146 307.6641428  +6.4440092     1783.776     3881.068     4787.636     88.86749     177.8769     356.0374      2.479     6.07     1143.499     62.78859     191.0767        33     1.787     1.263 -38.10   0
       209    926.7205    594.1976 307.5327879  +6.4559330     846.2351     1451.595     1998.657     88.58311      177.593     355.9665      1.803     5.74     1135.471     62.78859     112.2903         9     1.698     0.547 -35.73   0
       210    369.4933    591.1266 307.7644248  +6.4386641     747.4958     1522.983      2008.99     89.15096     178.3019     356.2499      2.470     7.15     1151.113     62.78859     91.65857         8     1.438     0.995  59.11   0
       211    223.0296    592.3102 307.8252388  +6.4332857     687.3773     1593.695     1763.006     89.43353     177.8769     356.1436      2.400     4.58     1156.753     62.78859     103.7863         5     1.167     0.510  33.09   2
       212    862.4293    582.8528 307.5598850  +6.4584844     2136.335     3896.326     4175.566     89.00934     178.3019     356.1082      1.912     4.70     1136.138     62.78859     304.8805        26     1.620     0.998 -29.11   0
       213    820.9583    580.3570 307.5772014  +6.4581381     1866.744     3322.047     3583.848     89.00934     178.1604     356.0728      1.913     5.45     1137.852     62.78859     238.9443        22     1.684     0.904 -41.68   0
       214    801.5602    571.5679 307.5855584  +6.4611233     109629.9     219487.4       246677     88.86749     177.9478     356.0728      2.161     5.25     1138.444     62.78859     11766.17       147     2.455     1.451 -34.38   0
       215    249.3105    575.4519 307.8148917  +6.4411249     4478.323     10368.31     12262.44     89.29236     177.9478     356.3207      2.477     5.69     1154.034     62.78859     528.4973        53     2.021     1.508 -34.18   0
       216    183.3633    569.9578 307.8424787  +6.4411901     34087.21     79268.93     93947.82     89.00934     178.1604     356.0728      2.460     5.98     1156.407     62.78859     3604.725       108     2.316     1.659 -39.99   0
       217    107.5930    566.2278 307.8740870  +6.4401968     3817.025     8814.845     10010.17     88.72542     177.9478     356.0019      2.376     5.68     1157.837     62.78859     467.4114        45     1.978     1.392 -33.16   0
       218    838.2233    558.7625 307.5707562  +6.4676288     3205.789     6143.338     7471.292     88.86749     177.8769     355.9665      2.155     4.73     1136.016     62.78859     404.7423        35     1.828     1.115 -34.29   0
       219    356.7443    557.0784 307.7708766  +6.4522983     9756.429     22687.93     26478.84     89.43353     178.1604     356.2499      2.432     5.90      1148.59     62.78859     1020.448        70     2.173     1.566 -38.05   0
       220    222.7412    559.8846 307.8264596  +6.4466655     526.8748     1173.231     876.7839     89.29236     178.1604     356.3207      2.179     6.38     1153.956     62.78859     89.07886         6     1.208     0.947 -40.19   0
       221    158.1904    557.0792 307.8533753  +6.4456665      1031.89     2251.321     2989.447     88.86749      177.735     356.0374      2.505     7.73      1156.71     62.78859     140.2887        15     1.708     0.979 -68.90   2
       222    523.0936    552.0616 307.7019266  +6.4599157     3763.976     8725.702     10382.97     89.15096     178.1604     356.2853      2.421     6.31     1144.423     62.78859     396.0887        52     2.222     1.387 -42.91   0
       223    792.1804    552.1031 307.5901133  +6.4688496     3906.293     8158.137     8754.148     89.15096     177.9478     355.9665      2.174     5.14      1137.91     62.78859      434.303        39     1.815     1.229 -42.50   0
       224    972.4992    562.9125 307.5148203  +6.4703704     917.1423     1664.721     1538.168     89.29236     178.6553     356.2499      1.936     6.53     1132.199     62.78859     116.5153        12     1.549     0.772 -31.42   0
       225    381.4483    548.2896 307.7609099  +6.4567517     919.4225     2117.426     2435.609     89.29236     178.0187     356.3915      2.358     7.40     1147.262     62.78859     113.3229        16     1.879     0.816 -23.20   0
       226    567.7853    545.3162 307.6835847  +6.4641894     1705.777     3515.187      4089.95     88.86749     177.8059     356.0728      2.233     6.70     1142.045     62.78859     214.3519        28     2.005     1.012 -46.11   0
       227    170.1780    545.1544 307.8487997  +6.4509913      3901.45     9079.348     10702.25     88.86749     178.1604     356.0374      2.481     5.74     1155.595     62.78859     434.3335        53     2.071     1.501 -38.31   0
       228    265.3790    541.6121 307.8093640  +6.4556350     48796.11     116513.4     136504.2     88.86749     177.8059     356.1082      2.489     5.91     1150.731     62.78859     5241.376       111     2.296     1.665 -39.38   0
       229     41.7696    543.8013 307.9021983  +6.4472548     3071.594     7003.478      7570.25     88.58311     177.9478     356.0019      2.314     5.55     1157.306     62.78859     371.3658        44     1.889     1.424 -35.59   0
       230    808.9409    544.1631 307.5834168  +6.4726851     940.2621     1888.975     2166.769     89.29236     178.2311     356.2145      2.213     6.64         1137     62.78859     111.4219        13     1.408     0.878 -48.40   0
       231    788.3497    533.9197 307.5923190  +6.4762310     10796.48     22069.96     24399.54     89.29236     178.2312     356.2145      2.174     5.27      1137.09     62.78859     1228.727        55     2.012     1.300 -38.82   0
       232    248.9822    536.9176 307.8163363  +6.4570258     821.8394     1769.549     1873.197     88.86749     177.8059      356.179      2.183     5.91      1151.04     62.78859     99.98535        10     1.135     0.864  37.47   0
       233    964.4959    535.1893 307.5190804  +6.4815532     1143.605     2212.568     2403.644     89.00934      177.735     355.9665      2.141     6.02     1130.871     62.78859     195.6802        18     1.621     0.889 -34.45   0
       234    492.1058    532.3384 307.7154705  +6.4670277     23886.05      57503.8     68634.84     89.15096     178.2312     356.2499      2.518     5.86     1144.197     62.78859     2307.708        91     2.291     1.674 -32.80   0
       235    662.4453    527.2824 307.6448609  +6.4747865     887.1857     2148.787     2821.384     89.29236     178.1604     356.2145      2.642     8.41     1138.118     62.78859     113.7065        15     1.814     1.090 -54.25   0
       236    205.1561    529.0077 307.8348148  +6.4588278     1139.725     2511.448     2498.666     88.72542     177.9478     355.8956      2.054     8.11     1152.505     62.78859     142.2528        20     1.626     1.132 -16.29   0
       237     40.5261    528.9077 307.9032216  +6.4533630     832.5132      1486.46     1817.353     89.29236     178.3019     356.2499      2.051     5.83     1157.071     62.78859      125.698         8     1.398     0.685  69.61   0
       238    652.1774    527.2330 307.6491292  +6.4744653     1944.019     4164.256     4968.863     88.72542     177.9478     355.9665      2.488     7.03     1138.465     62.78859     223.9161        30     1.979     1.043 -40.89   0
       239    713.6243    526.4232 307.6236234  +6.4768433     1103.467     2076.481     2461.667     88.72542     178.0187     356.1436      2.235     6.35     1137.653     62.78859     145.7426        12     1.309     0.866  21.68   0
       240    390.3268    523.1923 307.7580716  +6.4674113     1012.138     2608.237     2631.156     88.86749      177.664     356.0728      2.418     8.51      1145.53     62.78859     119.0665        21     1.943     1.041 -38.93   0
       241    321.4212    521.3416 307.7867658  +6.4658764     2222.932     5396.214     6316.417     88.86749     178.0187     356.0019      2.487     7.05     1147.287     62.78859     236.0917        40     2.061     1.297 -43.88   0
       242    136.4723    520.0431 307.8636577  +6.4602335     14956.62     34696.74     40218.13     89.15096     178.2312     356.2499      2.422     5.79     1155.074     62.78859     1743.707        77     2.181     1.583 -44.44   0
       243    501.0087    520.9117 307.7121581  +6.4720429     1149.379     2908.914      3584.76     88.86749     177.8059     355.9665      2.515     8.67      1142.77     62.78859     123.4589        23     1.703     1.234 -29.52   0
       244    864.3658    519.8077 307.5612076  +6.4845829     1007.288     1928.989     1588.105     88.72542     177.9478     355.9665      2.017     6.59     1132.562     62.78859     127.8904        14     1.450     0.840 -45.10   0
       245    101.7749    518.2171 307.8781365  +6.4598269     1532.434     4003.948     4512.297     89.00934     177.9478     356.1436      2.568     8.14     1156.128     62.78859     175.4928        36     1.994     1.407 -54.81   0
       246    961.9791    514.2859 307.5208310  +6.4901018     3807.741     6684.965     7230.992     89.15096     177.8769     356.1082      1.894     4.71     1129.587     62.78859     505.3153        35     1.778     1.111 -34.54   0
       247    535.3449    507.0904 307.6983584  +6.4788940      911.435     2067.396     2425.945     89.15096     177.9478     356.3561      2.354     7.46     1140.488     62.78859     122.6571        16     1.462     1.065 -46.55   0
       248      2.1458    504.0670 307.9200136  +6.4623352     13161.11     21455.11     22468.79     87.29195     154.6589     282.5459      1.748     6.23     1157.312     62.78859     1850.005        37     1.741     1.060 -74.99  24
       249    433.4655    501.0515 307.7408969  +6.4779926     23939.58     56437.89     65619.59     89.29236     178.0895     356.2145      2.459     5.93     1143.358     62.78859       2512.8        91     2.247     1.623 -41.05   0
       250    641.4286    500.6632 307.6544942  +6.4850795     7191.609     15864.59     18517.23     89.00934     178.1604     356.1436      2.365     5.76     1137.918     62.78859      762.163        57     2.100     1.410 -41.10   0
       251    198.6459    498.7891 307.8385462  +6.4710883     10783.77      25209.1     29939.02     88.72542     177.9478     355.8601      2.452     5.89     1150.681     62.78859     1107.878        75     2.193     1.678 -34.23   0
       252    975.2209    499.0658 307.5158413  +6.4968260     904.6591     1829.272     2109.781     88.86749     178.1604     356.1082      2.397     6.59     1127.894     62.78859     137.2096        15     1.938     0.628 -45.16   0
       253    563.0282    498.1459 307.6871578  +6.4835095     1486.959     3540.893     3672.165     89.00934     178.2311     356.1082      2.417     8.21     1139.405     62.78859     193.0002        28     1.948     1.251 -44.66   0
       254    164.1787    499.7742 307.8528343  +6.4695294     867.6971     1925.352     2410.975     88.86749     177.9478     356.1436      2.365     6.11     1152.596     62.78859     120.2883        10     1.306     0.802  33.72   0
       255    936.9426    494.4208 307.5319047  +6.4974746     3350.105     6538.805     6823.817     88.86749     178.0895     356.0019      2.071     5.15     1129.631     62.78859     400.7393        35     1.915     1.098 -40.29   0
       256    610.2546    493.0580 307.6677056  +6.4871826     3812.837      8436.26     10147.26     89.43353     178.2312     356.2499      2.380     5.92      1138.75     62.78859     393.8801        46     2.056     1.326 -37.48   0
       257     97.8446    494.1356 307.8805884  +6.4696393     659.3018     1599.184     1180.784     89.29236     178.0895     356.2145      1.984     5.31     1155.346     62.78859     109.3781         5     1.255     0.634 -16.40   0
       258    959.5656    486.8320 307.5227595  +6.5013587     2526.633     4672.688     5205.132     88.86749     177.8769      355.931      1.969     5.67     1127.915     62.78859     294.4171        26     1.723     0.972 -35.26   0
       259    522.5066    484.2963 307.7044649  +6.4878789     4435.622     9883.192     12462.76     89.29236     178.7965     356.1436      2.547     5.69     1138.924     62.78859     483.1421        48     1.969     1.415 -36.96   0
       260    368.4952    484.5006 307.7684550  +6.4826601     1522.839     3526.769      4084.43     89.29236     178.7259     356.0374      2.372     7.24     1143.435     62.78859     183.2472        26     1.794     1.259 -41.63   0
       261    878.6241    480.2064 307.5566189  +6.5014093     2237.218     4542.393     5822.204     88.72542     177.9478     356.0374      2.433     5.96     1130.288     62.78859     318.0919        32     1.938     1.085 -43.26   2
       262    886.5444    474.4359 307.5535222  +6.5040551     1503.446     2960.365      3625.76     89.15096     178.1604     356.2499      2.502     8.08     1129.724     62.78859     169.7393        24     2.042     0.894 -42.56   3
       263    924.9014    473.9901 307.5375976  +6.5055119     917.2389     1229.372     935.7651     89.00934      177.735     356.0019      1.516     5.46     1128.895     62.78859     137.3796        10     1.081     0.777 -45.34   0
       264    710.2144    470.2939 307.6269373  +6.4999080      1904.05     3914.586     3917.028     89.00934     177.8769     356.0374      2.052     5.83     1135.193     62.78859     206.5498        28     1.653     1.192 -37.27   0
       265    381.3128    468.6876 307.7636651  +6.4896174     2079.547     5091.653     5564.892     89.00934     178.5847     356.3207      2.475     7.35     1142.181     62.78859     224.1212        36     1.923     1.318 -46.41   0
       266     71.9147    470.0130 307.8921828  +6.4787324     1138.837     2287.531     1997.353     88.86749     178.0187     356.0374      1.996     7.28     1154.966     62.78859     140.2582        17     1.317     1.125 -25.08   0
       267    608.8892    465.3323 307.6692110  +6.4985862     5881.373     13019.54      15271.1     89.43353     178.3727     356.1436      2.414     5.72     1137.074     62.78859      643.475        61     2.235     1.450 -45.55   0
       268    771.7402    461.4955 307.6016671  +6.5055862     10311.29     21789.88     25903.01     89.15096     178.1604     356.3207      2.345     5.68     1133.191     62.78859     1109.356        77     2.564     1.385 -45.22   0
       269    291.5151    462.3242 307.8011950  +6.4892480     1429.342     3532.836     3211.855     89.43353     178.5141     356.2853      2.339     8.17     1144.721     62.78859     152.4633        28     1.764     1.349 -57.99   0
       270    374.2646    458.6602 307.7669339  +6.4935229     847.9347     2207.722     2226.635     89.29236     178.0895     356.2499      2.508     7.39     1141.493     62.78859     116.5955        12     1.434     1.068 -71.23   0
       271    956.4149    456.8684 307.5250790  +6.5136276     1326.502     2578.942     2299.069     88.72542     178.0187     356.1082      2.036     7.89     1126.139     62.78859     168.8604        21     1.870     0.930 -43.12   0
       272    800.5804    457.9681 307.5898014  +6.5080010     750.6838     1198.026     1021.727     88.72542     177.9478     356.0374      1.668     3.96     1131.987     62.78859     105.8024         5     0.915     0.492  86.93   0
       273    109.0990    453.8142 307.8772829  +6.4866653     2377.619     5827.254     6512.256     89.15096     177.8769      355.931      2.446     7.23     1152.737     62.78859      242.623        42     2.093     1.356 -45.26   0
       274    747.2450    452.6228 307.6121461  +6.5084361     1415.018      3113.19     3464.553     88.72542     178.1604     356.0374      2.221     7.66     1133.454     62.78859     195.6263        21     1.930     0.851 -45.09   0
       275   1010.7296    451.4276 307.5026908  +6.5176752      3011.85     6364.671     7271.791     89.00934     178.0895     356.1436      2.224     5.43      1122.46     62.78859     330.7301        37     1.809     1.258 -31.99   0
       276    267.1640    450.8779 307.8117022  +6.4931613     755.5207      2213.66     2840.645     89.15096     178.2311     356.2145      2.800     9.59     1144.929     62.78859     112.8658        13     1.953     1.315 -36.48   0
       277    345.2342    448.6835 307.7793356  +6.4966739     1763.841     4065.868     4211.312     89.29236     178.1604      356.179      2.327     6.46     1141.571     62.78859     214.8994        32     1.833     1.306 -41.21   0
       278    700.9319    446.1418 307.6316110  +6.5095728     1001.023     2268.442     2249.243     89.43353     178.0895     356.2145      2.342     7.90     1133.684     62.78859     143.6638        15     1.581     1.282 -26.37   0
       279    464.2202    437.8201 307.7302598  +6.5051283     809.9671     1674.454     1657.482     89.00934     178.0895     356.1436      2.155     7.15     1136.938     62.78859     97.15686        13     1.428     1.003 -57.67   0
       280    826.4602    436.3077 307.5797780  +6.5178051     1000.787     1796.324     1392.015     89.15096     178.0895     356.3207      1.901     5.55     1129.346     62.78859     145.9235        10     1.060     0.969  56.33   0
       281    812.6024    435.3733 307.5855684  +6.5177307     1233.538     2555.446     2457.292     88.72542     177.8769     356.0019      2.092     6.83     1129.817     62.78859     170.4827        19     1.544     1.117 -45.87   0
       282    710.0920    433.4736 307.6282326  +6.5151085     9182.001     19857.36     22713.89     89.29236     178.3019     356.2499      2.306     5.72     1132.711     62.78859     950.3708        59     2.127     1.380 -42.69   0
       283    631.3776    429.4525 307.6610795  +6.5141507     1478.919     3522.584     4230.933     88.72542     178.1604     356.0019      2.469     6.81      1133.76     62.78859     165.7311        28     1.688     1.338 -41.50   0
       284    603.4557    424.6505 307.6728453  +6.5152043     8066.233     21736.34     29957.86     89.29236     178.1604     356.2499      2.965     6.86     1133.896     62.78859     891.7688       101     2.550     2.100   9.29   0
       285    935.2145    423.4446 307.5350165  +6.5267266     2880.421     5454.122     6048.121     88.58311     177.9478      355.931      2.032     5.28     1125.191     62.78859     309.3865        29     1.728     1.075 -40.17   0
       286    374.5044    419.4739 307.7681632  +6.5097121     15732.56     38237.21     45334.58     89.00934     178.3019     356.2145      2.534     6.04     1138.412     62.78859     1667.929        82     2.245     1.657 -40.42   0
       287    120.6696    419.2244 307.8736510  +6.5013353     1276.119     3052.298     3909.019     88.86749     178.0187     356.1436      2.731     7.75     1150.187     62.78859     173.2039        23     1.802     1.281 -44.45   0
       288    891.1106    418.7870 307.5535022  +6.5271865     1063.646     2129.479     2844.774     89.00934     177.8769     356.0728      2.312     4.20     1126.082     62.78859     160.9326        13     1.222     1.066 -27.76   0
       289    903.9792    413.7615 307.5483239  +6.5296888     3466.307      6741.08     7254.708     88.86749     177.9478      355.931      2.037     5.59     1125.534     62.78859      373.979        33     1.825     1.089 -37.88   0
       290     54.3758    414.5855 307.9013559  +6.5010325     813.5009     1922.859     2285.881     89.00934     177.9478     356.1436      2.442     7.55     1152.806     62.78859     108.4227        13     1.443     1.106 -34.30   0
       291    231.9891    410.1042 307.8277032  +6.5088228     7394.242     18099.49     21004.76     89.00934      177.735     355.9665      2.481     6.39     1144.196     62.78859     844.3796        63     2.167     1.566 -40.98   0
       292    132.5800    398.7554 307.8693976  +6.5101858     2885.145     6729.713     7401.649     88.72542     178.0187     356.0374      2.403     6.48     1148.577     62.78859     326.6564        44     2.098     1.372 -45.57   0
       293    345.3304    399.8522 307.7809521  +6.5168410     755.5716     1689.029     1560.654     89.15096     178.0187      356.179      2.196     4.16      1137.84     62.78859     115.0378         6     1.081     0.457 -26.13   0
       294    154.6170    394.3702 307.8603893  +6.5127335     1398.026     3717.639     4068.672     88.86749     177.8769     356.1436      2.543     8.99      1147.23     62.78859     154.1869        33     1.663     1.559  84.42   0
       295    966.4490    388.2755 307.5232218  +6.5422855     800.0406     1505.151     1644.869     89.15096     178.2312     356.2499      1.828     6.55     1121.052     62.78859     93.12134        12     1.444     0.834   0.11   0
       296    377.2145    388.9945 307.7680706  +6.5223884     959.7575      2060.11     2342.429     88.86749     177.8059     356.0374      2.254     6.03     1135.325     62.78859     95.55798        13     1.162     0.881  17.35   0
       297     28.2158    383.8445 307.9132723  +6.5128503     2013.111     4607.832     5423.015     88.72542     177.9478     355.9665      2.456     6.58     1152.664     62.78859     243.8589        31     1.868     1.173 -38.83   0
       298    431.6140    382.9764 307.7456681  +6.5266880     4006.002     9430.946      11045.3     89.00934     177.9478     356.1436      2.438     6.29     1132.548     62.78859     410.1346        49     2.140     1.408 -38.29   0
       299    772.1812    380.1220 307.6042327  +6.5392034      7777.04     17228.35     20057.94     88.72542     177.8059      356.179      2.353     5.75     1127.701     62.78859     791.6511        57     2.106     1.405 -38.30   2
       300    764.3423    381.7847 307.6074342  +6.5382563     1280.701     2566.148      3534.31     88.58311     178.0895     355.8956      2.520     7.44     1128.093     62.78859     147.6294        18     1.607     0.964 -46.54   3
       301    335.3542    378.5180 307.7858216  +6.5253175     634.7514     1366.794     1835.845     89.29236     178.1604     356.2145      2.258     6.00      1136.37     62.78859     76.85901         6     1.186     0.854 -33.88   0
       302   1016.1430    375.0960 307.5030135  +6.5493755     2552.647     4857.524     5315.801     89.15096     178.1604     356.4623      2.045     5.82     1117.216     62.78859     297.3992        31     2.021     0.969 -36.17  16
       303    451.8944    367.1512 307.7377766  +6.5338989     1224.734     3173.231     3801.785     89.15096     178.0187     356.3561      2.581     9.34     1129.832     62.78859     153.8489        26     1.671     1.457 -45.13   0
       304    480.2697    366.3326 307.7260122  +6.5351828     1626.004     3878.455     4156.157     89.29236     178.3019     356.2145      2.352     6.29     1128.177     62.78859     206.8113        31     1.649     1.340 -36.78   0
       305    837.5337    363.0367 307.5776497  +6.5484296     21685.63     45972.55     52651.54     89.15096     178.0895     356.2853      2.282     5.31     1125.069     62.78859      2225.55        77     2.184     1.441 -43.32   0
       306    908.4937    366.1566 307.5480537  +6.5494968     683.5847     1183.971     219.8032     89.15096     178.1604     356.3561      1.595     3.62     1122.849     62.78859      104.134         5     1.065     0.355   4.52   0
       307    609.2578    355.6235 307.6727698  +6.5439013     1470.668     3365.965     4391.614     88.86749     178.1604     356.0374      2.498     7.83     1126.736     62.78859     174.3073        27     1.815     1.289 -44.91   0
       308     18.4525    356.4609 307.9182613  +6.5238305       613.36      1309.49     1851.956     89.29236     178.0895     356.2145      2.574     5.01     1152.154     62.78859     99.77393         7     1.014     0.699 -45.82   0
       309    694.0311    349.0272 307.6377620  +6.5494457     46273.66     104964.8     121465.4     88.72542     177.8769     356.0019      2.371     5.78     1126.847     62.78859     4699.506       100     2.247     1.554 -40.20   0
       310    852.5317    350.3084 307.5718463  +6.5541836     753.6956     1353.592     1353.978     89.29236     178.3019     356.2145      1.833     4.99     1124.167     62.78859     100.1079         7     1.029     0.686 -75.20   0
       311     73.5270    349.1305 307.8956244  +6.5287011     798.5864     1820.837      1711.24     89.43353     178.3019     356.2145      2.334     6.53     1149.189     62.78859     108.0533        11     1.385     0.863   5.46   0
       312    556.4216    345.7273 307.6950628  +6.5462286     1316.434     3588.453     4418.936     88.86749     177.9478     356.1436      2.666     8.38     1125.744     62.78859     162.5657        30     1.805     1.347 -38.51   0
       313     93.8867    344.7938 307.8873114  +6.5311732     3361.052     8052.171     9833.066     88.72542     177.8059      355.931      2.590     6.11     1148.194     62.78859     394.4727        48     2.140     1.434 -47.38   0
       314    539.8129    341.9695 307.7020924  +6.5472271     3870.554     9498.957     11267.25     88.72542     177.9478     356.1436      2.488     6.46     1125.391     62.78859     380.6331        51     2.121     1.437 -39.86   0
       315    402.7658    337.2381 307.7592073  +6.5446126     13730.55     34116.36     40459.62     89.00934     177.9478     355.9665      2.523     6.21     1129.751     62.78859     1455.638        77     2.247     1.645 -40.22   0
       316    269.2067    339.8317 307.8146233  +6.5390835     1463.302     3288.345     3756.636     88.58311     178.0187     355.9665      2.434     6.65     1138.131     62.78859     175.3676        26     1.569     1.303 -33.19   0
       317    509.6182    336.7893 307.7148164  +6.5483602     712.2688     1590.452     1880.323     88.86749     177.8059     356.0728      2.281     4.34     1125.107     62.78859     88.41479         5     1.169     0.460  30.99   0
       318    482.0618    332.6920 307.7264072  +6.5491338     810.0215     1804.421     2175.457     89.29236     178.2312     356.3207      2.737     6.45     1124.983     62.78859     102.3193        11     1.351     0.864 -42.31   0
       319    491.7680    327.6007 307.7225460  +6.5515597      4668.93     11511.28     13711.41     88.58311     177.9478      355.931      2.576     6.72     1124.547     62.78859     499.5203        61     2.263     1.557 -38.98   0
       320    760.9104    326.2250 307.6107377  +6.5610850      1843.08     4301.966     5604.522     89.43353     177.9478     356.0374      2.543     7.31     1124.225     62.78859     240.6818        32     1.916     1.124 -38.85   0
       321    914.9875    326.1456 307.5467048  +6.5662345     618.3088     932.4654     870.8841     88.58311     178.0895     355.8956      1.408     5.00     1118.984     62.78859     94.10352         7     1.315     0.539 -64.44   0
       322    318.4973    324.1028 307.7946732  +6.5472243     740.0173     1614.151     1513.614     89.29236     178.7259     356.0374      2.144     7.12     1133.817     62.78859     93.69958        10     1.352     1.050 -27.28   0
       323    152.8968    319.2990 307.8636558  +6.5436745     736.4893     331.6849     733.8357     89.29236     178.7259     356.0374      0.627     4.99     1144.079     62.78859      115.288         7     1.169     0.603 -85.56   0
       324    381.6702    311.8993 307.7688336  +6.5543719     3919.505     9849.924      11896.2     89.15096     178.3019     356.2145      2.557     6.80      1129.32     62.78859     433.0708        56     2.193     1.555 -44.55   0
       325    238.1463    312.6757 307.8284533  +6.5492592     1195.852     2854.419     3347.107     89.29236     178.1604     356.2499      2.365     6.63     1138.378     62.78859     141.2849        23     1.652     1.251 -30.09   0
       326    749.5070    307.5669 307.6161076  +6.5684107     33343.49     72016.02      82410.6     89.43353     178.0187     356.2853      2.338     5.65     1122.878     62.78859     3609.858        88     2.218     1.492 -39.77   0
       327    421.2613    307.5916 307.7525260  +6.5574714     1135.829     2841.688     3685.523     88.58311     177.9478     355.9665      2.645     9.55     1126.564     62.78859       123.41        24     1.716     1.483 -55.57   0
       328    983.9456    304.7143 307.5187675  +6.5773718     1197.093     2363.656     2547.314     89.29236     178.0895     356.3915      2.181     7.10     1113.328     62.78859     161.1436        18     1.703     0.828 -53.19   0
       329    925.4460    303.8080 307.5431117  +6.5758057     1574.376     3192.432     3308.009     88.72542     178.0187     355.8247      2.029     6.10     1116.086     62.78859     193.4802        22     1.685     0.919 -57.22   0
       330    567.1154    304.2702 307.6920221  +6.5637038     764.6049     1512.748     1449.151     89.43353     178.4434     356.2499      2.073     5.12     1121.893     62.78859     95.95984         7     1.335     0.555 -76.36   0
       331    408.5518    302.5036 307.7579805  +6.5591485     1154.762     2672.518     3155.159     89.15096     178.0187     356.3915      2.707     8.05      1126.94     62.78859     145.0886        17     1.454     1.247 -34.46   2
       332    457.4241    303.5416 307.7376343  +6.5603496     641.7856     1470.071     1949.186     88.86749     178.1604     356.0728      2.144     4.88     1124.281     62.78859     100.3567         5     1.171     0.575  32.43   0
       333    829.2515    296.4511 307.5833401  +6.5756504     715.1795      1435.45     1367.126     89.29236     178.0187     356.2145      2.088     5.49     1120.474     62.78859     83.08069         7     1.199     0.710  87.11   0
       334    183.9919    294.5002 307.8515763  +6.5549542     1212.353     2873.175     2864.566     89.00934      177.735     356.0374      2.371     8.97     1140.967     62.78859     170.3162        27     1.953     1.151 -45.39   0
       335    438.2747    294.3824 307.7459031  +6.5634933     919.5614     1826.675     2571.196     88.72542     177.8769     356.1082      2.291     5.85     1124.541     62.78859     132.9989         9     1.261     0.764  45.53   0
       336    747.8610    292.1049 307.6173142  +6.5747408     3579.012     8009.447     9214.763     89.15096     178.2311     356.2853      2.308     5.76     1121.493     62.78859     434.4083        44     1.933     1.402 -45.80   0
       337    764.4194    290.1629 307.6104979  +6.5760931     1595.891     3528.385     3889.922     88.86749     177.9478     355.9665      2.245     7.46     1121.308     62.78859     182.1941        30     1.870     1.215 -36.50   0
       338    353.3588    284.8767 307.7815162  +6.5645856     1202.224     2752.726     3525.825     89.15096     178.1604     356.2853      2.518     6.21     1130.122     62.78859     162.2393        17     1.437     0.998 -61.54   0
       339   1002.3970    281.0450 307.5118966  +6.5877576     4401.116      8251.67     8920.312     88.58311     177.8059     355.8247      1.963     4.87     1110.657     62.78859     572.4269        36     1.800     1.086 -40.66   0
       340    481.2299    280.4216 307.7285241  +6.5706902     1119.124     2631.824      3138.67     88.72542     177.9478     356.0728      2.343     9.02     1121.015     62.78859     123.8467        24     1.535     1.480 -37.80   0
       341    243.3122    276.7271 307.8275275  +6.5642758     3325.688     8074.492     9854.256     89.43353     178.4434     356.2145      2.490     6.88     1136.445     62.78859     351.6898        48     2.131     1.487 -39.83   0
       342     80.5205    291.7855 307.8946689  +6.5526140      497.919     1189.745     1392.196     88.86749     177.8769     356.0019      2.434     4.89     1148.558     62.78859     82.44849         5     1.097     0.618  26.48   0
       343    377.2940    267.1647 307.7721697  +6.5726981     884.0157     2120.823     2192.462     89.43353     178.0187     356.3207      2.471     7.71     1126.949     62.78859     120.1095        15     1.513     1.100  74.26   0
       344    964.4586    265.6790 307.5281831  +6.5928449     804.8433     1452.875     2009.194     89.43353     178.1604     356.1436      1.981     4.17     1111.656     62.78859     126.7559         8     0.870     0.784  15.70   0
       345    147.6449    264.0407 307.8677168  +6.5663161     1008.414     2088.564     2444.557     89.00934     178.1604     356.0728      2.296     7.73     1143.128     62.78859     109.4132        16     1.890     0.885 -39.03   0
       346    556.6935    258.8183 307.6978924  +6.5821253     1194.173     2817.089     2780.723     89.15096     177.8769     356.0728      2.337     7.62     1118.149     62.78859     158.2601        20     1.511     1.185  -4.07   0
       347    900.7849    257.5789 307.5549213  +6.5940772     1185.941     2349.978      2959.26     89.00934     177.8769     356.1082      2.236     7.14      1114.31     62.78859     143.2799        16     1.425     1.002 -49.26   0
       348    720.4307    256.1321 307.6299307  +6.5886834     2915.755     6577.988     6660.373     89.15096     178.1604      356.179      2.313     5.70     1119.205     62.78859     299.6382        40     1.918     1.307 -39.68   0
       349    661.4662    256.0355 307.6544410  +6.5867622     1232.131     2716.409     3226.575     89.15096     178.1604     356.2853      2.412     7.11     1118.791     62.78859     142.7504        19     1.554     1.033 -63.57   0
       350    916.3232    248.3097 307.5487758  +6.5984205     795.1372     1961.897     2228.301     89.15096     178.4434     356.2499      2.562     7.50      1113.05     62.78859     106.6248        11     1.580     0.997 -55.40   0
       351    220.0351    242.1981 307.8383742  +6.5777558     1359.167     3310.682     4177.059     88.29782     177.9478     356.0019      2.638     7.80     1137.741     62.78859     157.8188        27     1.857     1.312 -22.41   0
       352    862.7413    240.5184 307.5713094  +6.5998593     1206.507     2355.405     2840.514     89.29236     178.2312     356.2145      2.442     6.62     1115.078     62.78859     145.7507        18     1.668     0.947 -43.23   0
       353    752.8481    240.5943 307.6169823  +6.5961773       1151.4     2119.821     2879.168     88.58311     177.9478     355.8601      2.304     5.79     1118.412     62.78859     135.5897        13     1.177     0.909 -38.91   0
       354    454.0851    231.4083 307.7414669  +6.5900243     12245.75     30473.88      37426.5     88.86749     177.8059     356.0374      2.601     6.24     1118.646     62.78859     1319.255        88     2.567     1.620 -40.12   0
       355    779.7171    230.5830 307.6061529  +6.6012043     8485.586     18539.67     21471.81     88.86749     177.8059     356.1436      2.325     5.71     1117.825     62.78859     958.8762        62     2.166     1.419 -37.59   0
       356    142.2569    225.5491 307.8712647  +6.5820299      1384.76     3059.021     3533.547     89.29236     178.1604     356.2145      2.401     6.32     1143.069     62.78859     148.6418        21     1.461     1.274 -36.54   2
       357    117.5228    224.7298 307.8815720  +6.5815407      812.813     1447.912     1760.583     89.57449     178.4434     356.2145      1.971     4.65      1144.68     62.78859     121.8547         8     0.982     0.625 -19.28   0
       358    916.0350    220.7143 307.5498267  +6.6098062     970.7424     1960.164     1736.245     89.29236     178.0187     356.2145      2.181     5.20     1111.683     62.78859     132.6729        10     1.047     0.731 -42.19   0
       359    577.6419    217.3580 307.6905895  +6.5999433     2571.393     6000.101     7152.979     89.00934     178.1604     356.0728      2.516     7.23     1115.211     62.78859     290.3433        40     2.020     1.437 -24.82   0
       360    540.7126    218.2658 307.7059077  +6.5983384     946.4583     1839.241     2162.756     89.29236     178.3727     356.2499      2.430     5.64     1115.088     62.78859     126.0551        11     1.134     0.791 -53.86   0
       361    382.7973    217.1467 307.7715791  +6.5935355     676.4464     1334.441     2104.529     88.58311     177.9478     355.7538      2.580     4.45     1123.232     62.78859     88.60852         6     0.952     0.592  63.95   1
       362    938.6421    214.1944 307.5406501  +6.6132486     1899.921     3625.271     4247.859     88.58311     177.8059     355.8956      2.077     5.39     1110.372     62.78859     206.2415        24     1.616     1.001 -40.41   0
       363    884.9039    213.7273 307.5630021  +6.6116582     7570.719     15393.65     17006.72     89.00934     178.3019      356.179      2.139     5.16      1112.28     62.78859     865.2233        50     1.964     1.290 -39.22   0
       364     11.1783    210.6596 307.9262472  +6.5837905     14651.92     34627.91     41088.86     88.86749     178.0895     356.0728      2.478     6.10     1149.527     62.78859     1739.698        76     2.246     1.582 -44.38  16
       365    971.5507    211.5923 307.5270594  +6.6154147     6947.363     13421.69     14589.33     88.72542     177.8769     355.7892      2.090     4.86     1108.712     62.78859      784.274        49     1.941     1.231 -38.82   0
       366    683.1885    211.3812 307.6469229  +6.6059241     1732.176     3956.364     4983.261     88.86749     177.8059     356.1082      2.503     6.82     1116.107     62.78859     187.0919        31     1.862     1.253 -43.27   0
       367    491.7815    207.1272 307.7266223  +6.6013074     1217.577     2733.641     2908.907     88.72542     178.0895     356.1436      2.345     7.52     1114.878     62.78859     153.3392        19     1.641     0.964 -46.74   0
       368    823.3988    203.3757 307.5889160  +6.6138905     1231.354     2516.986      2431.57     88.86749     177.8059     355.9665      2.101     7.79     1113.842     62.78859     173.3225        19     1.700     1.083 -31.89   0
       369    503.9180    202.7744 307.7217255  +6.6035093     1449.551      3174.26     3472.573     89.15096     177.8769     356.2145      2.295     7.32     1114.672     62.78859     177.0267        25     1.799     1.077 -55.52   0
       370    876.0071    202.0234 307.5670950  +6.6161959     1439.233     2947.306     3224.381     88.72542     177.9478     356.0374      2.088     6.91     1111.632     62.78859     176.1912        26     1.886     1.057 -40.93   0
       371    735.0552    199.7604 307.6257579  +6.6124476     24102.58     53453.92     61708.79     89.29236     178.2311      356.179      2.346     5.65     1115.706     62.78859     2488.245        82     2.193     1.520 -40.36   0
       372    338.2215    199.3374 307.7907100  +6.5994017     3721.945     9467.279     12146.59     88.86749     178.1604     356.0728      2.721     7.37     1126.979     62.78859      354.876        62     2.386     1.590 -57.30   0
       373    968.8795    198.4771 307.5286120  +6.6207420     2062.022     3871.282     3782.289     89.57448     178.4434     356.3915      1.961     6.16      1108.09     62.78859     212.6044        25     1.652     1.028 -41.46   0
       374    903.0462    196.8374 307.5560313  +6.6192349      5096.49     10365.62     11373.08     89.00934     178.0895     356.0728      2.188     5.43     1110.575     62.78859     608.7972        45     1.964     1.245 -38.40   0
       375    446.6199    196.0081 307.7457696  +6.6043932     2606.572     6458.904     7561.095     89.00934     177.8769     355.9665      2.522     6.78      1116.79     62.78859     290.0396        45     2.095     1.469 -41.12   0
       376   1006.9583    197.1045 307.5128306  +6.6225714     1370.822     2216.689     1875.903     89.29236     178.0895     356.3561      1.837     6.71      1106.23     62.78859     167.4899        18     1.500     0.842 -39.53   0
       377    104.2134    187.6555 307.8883644  +6.5964040     2798.485     6633.176     7543.673     88.58311     178.0895      355.931      2.411     6.42      1143.65     62.78859     328.4186        45     2.058     1.438 -45.24   0
       378    274.3198    184.1455 307.8177847  +6.6035408     18767.96     45209.29     53699.77     89.29236     178.1604     356.2499      2.502     6.00     1134.348     62.78859     2264.869        88     2.305     1.638 -41.04   0
       379    249.5816    185.2310 307.8280296  +6.6022661     3647.921     8549.126     10302.79     88.86749     177.9478     356.0728      2.523     6.09     1135.752     62.78859     468.7875        49     2.117     1.446 -40.71   0
       380    922.6343    186.1811 307.5482489  +6.6242854     676.3494     1124.374     1632.288     88.72542     177.9478     356.0019      1.636     2.42     1109.465     62.78859        112.7         5     0.716     0.446 -71.01   0
       381    154.4799    181.1242 307.8676951  +6.6007826     2109.164      5326.65      5931.09     89.57448     178.4434     356.3561      2.584     7.61      1141.07     62.78859     238.1256        39     1.996     1.383 -44.47   0
       382    705.5375    182.3696 307.6386148  +6.6186474     542.2501     1062.288      1698.74     89.00934     178.2312      356.179      2.320     5.09     1114.408     62.78859     105.9504         5     1.300     0.563 -62.07   0
       383    398.2870    179.5718 307.7664156  +6.6095680     27367.56     66241.52     78947.95     89.43353     177.8769     356.0728      2.529     6.10     1119.245     62.78859     2980.008        96     2.305     1.684 -38.65   0
       384    303.1139    177.3014 307.8060495  +6.6073287     9897.367     23915.51     31638.45     89.29236     178.6553     356.2853      2.810     6.49     1131.626     62.78859     1210.141       106     2.980     1.794 -15.28   0
       385    416.0967    180.3085 307.7589884  +6.6098580     833.9239      1717.55     2326.893     89.29236     178.7259      356.179      2.103     4.80     1116.994     62.78859     104.5414         8     1.121     0.582  27.18   0
       386    737.5012    175.6685 307.6255557  +6.6224773     20391.22     44677.15     50776.64     89.29236     178.3019     356.2145      2.320     5.54     1113.989     62.78859     2223.474        75     2.151     1.488 -39.34   0
       387    785.4149    176.2010 307.6056221  +6.6238500     788.2258     1696.354     1680.212     88.86749     177.8059     355.9665      1.946     4.26     1112.148     62.78859     116.2523         5     1.088     0.476  31.70   0
       388     54.4042    173.2639 307.9095553  +6.6006793     5212.981     12455.18     14265.16     88.44058     177.8769     355.9665      2.460     6.01      1147.43     62.78859     660.8176        59     2.061     1.554 -42.36   0
       389     89.0318    171.3219 307.8952297  +6.6026403     839.6324     1782.426      1936.23     89.15096     178.1604      356.179      2.081     6.96     1143.834     62.78859     123.6904        12     1.748     0.776 -33.80   0
       390    996.5534    169.6000 307.5180829  +6.6335842     927.7815     1434.897     1838.175     88.44058      177.735     355.6828      1.850     5.97      1105.21     62.78859     125.0769        11     1.374     0.730 -26.29   0
       391    996.7460    156.2158 307.5184541  +6.6391175     1744.268      3400.23     4207.016     88.58311     178.1604     355.8956      2.097     4.76     1104.351     62.78859     256.2164        20     1.445     0.952 -48.00   0
       392    588.3767    151.9199 307.6883432  +6.6273222     1115.905     2904.422     3669.834     88.86749     177.8059      356.179      2.798     9.40     1112.398     62.78859     133.8051        25     1.947     1.319 -52.14   0
       393    273.1485    150.3873 307.8194179  +6.6174412     16750.41     41618.96     49789.97     88.58311     178.0895     355.8956      2.541     6.23      1134.51     62.78859     1979.443        83     2.268     1.665 -40.09   0
       394     18.4612    149.2674 307.9253105  +6.6093840     2729.036     6048.585     6722.418     89.29236     178.0895     356.2145      2.407     6.64     1151.045     62.78859     343.6917        41     2.034     1.305 -49.55   0
       395    704.7160    146.8620 307.6401571  +6.6332823     4897.096     10803.63     12789.95     89.43353     178.2312     356.2499      2.347     5.78     1112.215     62.78859     513.4376        48     2.072     1.333 -40.64   0
       396    115.8002    144.2894 307.8850238  +6.6146983     2856.624     6735.683     7978.912     88.44058      177.593     355.8247      2.447     5.96     1141.348     62.78859     366.3091        40     1.960     1.304 -49.66   0
       397    386.3807    140.0561 307.7727048  +6.6254878     2056.863     5576.033     7202.096     88.72542     178.1604     356.0019      2.728     7.17     1119.387     62.78859     215.4298        42     1.937     1.583 -49.06   0
       398    455.0257    141.4284 307.7441262  +6.6272109     757.9297     1432.083     865.1112     88.72542     177.9478     356.0728      1.898     5.93     1113.572     62.78859       100.88         8     1.223     0.809  16.35   0
       399    350.7517    139.2891 307.7875398  +6.6246154     1732.718     4146.627     4159.705     89.29236     178.0187     356.3915      2.381     7.58      1124.73     62.78859     222.3448        33     1.926     1.296 -54.42   0
       400    104.5579    139.9165 307.8898451  +6.6161277     1013.121     2136.865     2566.656     89.29236     178.1604     356.1436      2.460     5.98      1141.64     62.78859     130.5945        13     1.256     1.183  51.09   0
       401    997.6305    133.0170 307.5188687  +6.6487265     1170.228     2335.111     2419.691     88.86749     177.8769     356.1436      2.026     7.27     1102.651     62.78859     149.5421        17     1.678     0.924 -32.98   0
       402    202.5350    128.0188 307.8495274  +6.6243177     3242.184     7874.048     9139.186     88.86749     178.1604     356.0374      2.468     6.56     1137.552     62.78859     340.2097        47     2.084     1.451 -45.79   0
       403    664.2650    126.7616 307.6576510  +6.6402368     3715.352     8189.167     9298.264     89.29236     178.0895     356.2853      2.326     5.72     1111.082     62.78859      383.141        50     2.044     1.428 -35.07   0
       404     86.0512    127.6223 307.8979553  +6.6205848     1288.187     2661.531     2942.957     88.72542     178.1604     356.0728      2.306     6.31     1142.809     62.78859     176.6122        19     1.570     1.005 -24.28   0
       405    811.2100    125.8460 307.5966013  +6.6455005     748.8743     1221.133     1479.522     88.72542     178.0187     355.8601      1.700     3.43     1108.201     62.78859     112.6844         6     0.768     0.549 -43.40   0
       406    616.5358    123.9634 307.6775850  +6.6398038     5410.788     12566.17     14501.47     89.15096     178.1604     356.2853      2.399     5.92      1111.07     62.78859     614.9871        52     2.098     1.414 -32.62   3
       407    620.0076    115.4504 307.6764301  +6.6434346      30772.2     71307.51     83788.09     88.72542     177.9478     355.8247      2.435     5.79     1110.587     62.78859     3427.461        91     2.273     1.584 -38.69   3
       408     15.4990    123.1026 307.9274324  +6.6200886     659.3837     1462.979     1578.174     89.29236     178.6553     356.0374      2.333     7.73     1150.121     62.78859     94.27197        12     1.711     0.978 -52.08   0
       409    343.7641    119.7468 307.7911074  +6.6324516     2070.272     5072.115     6390.028     89.15096     178.1604     356.2499      2.596     7.47     1125.538     62.78859     248.1207        38     2.147     1.284 -49.08   0
       410    526.5566    118.9850 307.7151546  +6.6388628      944.054     2006.846     2242.881     88.58311     177.9478      355.931      2.261     6.60     1111.457     62.78859      138.457        13     1.555     0.787 -51.07   2
       411    989.0052    118.3620 307.5229483  +6.6544921     606.4385     1257.025     963.7795     88.29782     177.8769      355.931      1.975     6.30     1101.879     62.78859     104.8335         6     1.359     0.820 -25.29   0
       412    299.2430    109.4124 307.8099634  +6.6352323     2103.855     5260.845      6345.67     88.72542     177.9478      355.931      2.636     6.88     1132.226     62.78859     290.2035        37     1.936     1.420 -53.12   0
       413      2.0838     90.8502 307.9341064  +6.6329565     48272.02     74254.62     89996.06     86.71194      153.759     281.7858      1.928     4.48     1149.359     62.78859     12610.79       176     3.480     1.715 -88.78  24
       414    684.3395     99.5635 307.6502267  +6.6521357     2101.552     4421.266     5020.661     89.29236     178.1604      356.179      2.350     5.96     1109.383     62.78859     276.8528        33     1.858     1.204 -39.58   0
       415    426.1823     90.6460 307.7578370  +6.6472183     2337.175     5442.327      6335.64     88.72542     178.0187      355.931      2.416     6.54     1114.048     62.78859       275.23        38     1.930     1.360 -35.13   0
       416    898.6339     85.6925 307.5616168  +6.6649844     2621.199     5406.185     5956.087     89.43353     178.0187     356.2853      2.256     5.30     1102.569     62.78859     301.4557        37     1.783     1.331 -35.92   0
       417    880.6436     86.3620 307.5690725  +6.6641108     1294.255     2573.827     3151.335     89.00934     178.1604     356.0374      2.127     7.84       1103.3     62.78859     142.6748        21     1.942     0.896 -42.55   0
       418    591.0472     84.5039 307.6895157  +6.6552492       1045.2     2170.827     2599.753     89.29236     178.0187     356.3915      2.230     5.88     1109.547     62.78859     135.5929        10     1.029     0.946 -36.62   2
       419    390.1967     82.6565 307.7730659  +6.6493168     1034.706     2597.736     2973.272     88.58311     177.9478     355.8601      2.513     8.32     1118.602     62.78859     161.2977        21     1.927     1.010 -42.03   0
       420    137.5082     79.4942 307.8782050  +6.6421795     2113.567     4528.098     5195.321     89.29236     178.7259     356.2145      2.301     6.24     1138.669     62.78859     248.5734        35     1.872     1.358 -44.36   0
       421     19.4037     77.1792 307.9273731  +6.6391816     7553.977     17659.28     21400.45     88.86749     177.8059     355.9665      2.501     5.90      1146.31     62.78859     1032.088        65     2.184     1.547 -42.45   0
       422    821.0354     71.5396 307.5943517  +6.6682519     4279.531     8910.511     10184.27     89.29236     178.1604      356.179      2.224     5.60     1104.474     62.78859      485.772        46     2.032     1.303 -43.46   0
       423    766.0504     71.8876 307.6171967  +6.6662810     2111.927     4330.054         4745     89.29236     178.0187     356.3561      2.282     6.03      1106.42     62.78859     259.4368        28     1.762     1.204 -42.77   0
       424     60.0256     69.1603 307.9107619  +6.6438532     2029.623      4603.78     4962.241     88.86749     177.9478     356.0019      2.417     6.73     1142.764     62.78859     300.4148        34     2.037     1.241 -35.26   0
       425     44.3859     71.2801 307.9171904  +6.6424542     797.2051     1387.577     1415.564     88.86749     177.8769     356.0019      1.889     5.45      1143.97     62.78859     101.6465        10     1.300     0.644 -48.20   0
       426    420.3999     69.5142 307.7609573  +6.6557512     742.8994     1291.066     1528.384     88.44058      177.593     355.8247      1.766     6.47     1114.914     62.78859     109.1877         9     1.295     0.907  -5.69   0
       427      2.6372     64.4708 307.9347748  +6.6438673     1732.536     3512.496     4329.317     89.15096     161.8339     291.3824      2.323     6.10     1145.862     62.78859     195.4685        27     1.798     1.174 -64.00  24
       428    582.8816     65.7581 307.6935447  +6.6627179     725.8571     1649.536     1642.554     89.29236     178.1604     356.1436      2.334     4.94     1108.897     62.78859     98.10339         6     1.453     0.474  46.92   0
       429    760.5897     59.6528 307.6198803  +6.6711517     1521.278     3159.353     3722.818     88.58311     178.0895      355.931      2.341     6.95     1105.643     62.78859      160.593        24     1.570     1.118 -49.70   0
       430     87.4690     53.3858 307.8998920  +6.6512854     5490.403     12785.83     15053.25     88.72542     178.0895     356.1082      2.461     6.00     1140.505     62.78859     747.2484        57     2.167     1.451 -42.74   0
       431    416.7424     52.9266 307.7630402  +6.6624787     1445.578     3607.221     4158.111     89.29236     178.1604      356.179      2.564     7.95     1115.557     62.78859     194.0044        33     2.025     1.305 -34.56   0
       432    630.1096     45.2170 307.6746081  +6.6727724     10940.58     24810.87     28975.61     89.00934     177.8769     356.1082      2.398     5.64     1107.791     62.78859     1246.399        70     2.144     1.539 -40.96   0
       433    253.7870     48.5791 307.8309237  +6.6588329     846.2108       2128.8     3666.197     89.00934     177.8059     356.1082      3.140     4.25      1134.23     62.78859      125.958         7     1.063     0.485 -44.60   2
       434    529.9292     41.3340 307.7163835  +6.6710393     2951.212     6969.197      8234.84     89.29236     178.2312     356.2145      2.456     6.64     1108.766     62.78859     348.0314        42     1.982     1.421 -42.07   0
       435    248.9068     42.2624 307.8331668  +6.6612781      1049.65     2105.512     4785.151     89.29236     178.1604     356.2853      3.549     5.61     1134.155     62.78859     154.8977        12     1.476     0.671 -55.22   3
       436    256.0682     37.3826 307.8303558  +6.6635323     5064.462     12633.97     16199.08     88.72542     178.0895     356.1082      2.931     6.32     1134.002     62.78859     705.5312        64     2.555     1.566 -30.60   2
       437    616.5146     35.3815 307.6805924  +6.6763812     1926.026     4842.414     6975.628     88.86749     177.8769     356.1436      2.898     8.42     1107.474     62.78859     247.9719        41     2.109     1.578 -68.53   2
       438    435.5555     36.8616 307.7557648  +6.6697398     12830.18     30577.19     36496.29     89.15096     178.0895     356.3207      2.509     6.15     1114.407     62.78859     1472.756        82     2.296     1.629 -39.28   0
       439     21.7225     36.9756 307.9277783  +6.6558597     1451.522     3389.388     3985.613     88.86749     178.0187      356.179      2.336     8.32     1141.904     62.78859     151.4827        26     1.808     1.239 -44.85   0
       440    913.4218     36.7429 307.5571218  +6.6856882     1415.923     2715.461     2586.325     88.86749     178.0895     356.0019      2.042     5.96     1099.079     62.78859     190.0746        20     1.668     0.837 -42.53   0
       441    244.0908     34.0185 307.8354488  +6.6645212     1791.716     4116.235     5786.568     89.00934     177.8769     356.0728      2.743     6.96     1134.022     62.78859     199.4125        29     1.711     1.293 -50.29   0
       442    933.3533     27.6576 307.5491427  +6.6901013     852.1247     1500.137     1000.859     89.29236     178.1604     356.3561      1.675     5.02     1097.886     62.78859     117.2095         8     1.065     0.669 -34.10   0
       443    685.0438     26.4476 307.6524073  +6.6823509     1098.893     2413.906     3200.599     89.29236     178.0895     356.1436      2.715     6.72     1106.554     62.78859     149.3412        17     1.490     1.244   5.59   0
       444    744.3975   1020.7853 307.5941412  +6.2737226     1201.956     2195.377     2185.265     88.86749     176.8812     315.3763      1.892     5.85     1163.411     62.78859     160.9537        12     1.595     0.603 -48.70  16
       445    951.6057   1015.2442 307.5082584  +6.2828881     6408.997     10392.06     10371.81     88.58311     177.8059     355.8247      1.726     4.49     1159.274     62.78859     892.1826        34     1.783     0.873 -37.70  16
       446    710.1019   1013.8932 307.6086193  +6.2754290     2007.191     4107.868     5820.042     89.29236     178.7965     356.1436      2.699     9.10     1163.321     62.78859     312.5594        33     2.960     0.827 -27.16  16
       447    236.3746   1015.5434 307.8053307  +6.2589663     1188.841     1810.982     1970.098     88.86749     178.1604     356.0019      1.831     5.68     1171.335     62.78859     146.1416        12     1.279     0.711 -42.39  16
       448    434.4122   1014.4594 307.7231122  +6.2660200       644.61     1261.405     908.6138     88.58311     178.0895     355.8956      1.708     4.63     1168.785     62.78859     128.3389         7     1.334     0.456 -39.97   0
       449    727.5138   1012.3298 307.6014396  +6.2766533     948.4432     1393.036     2139.902     89.43353     178.4434     356.2499      1.868     5.41     1163.284     62.78859     128.3374        10     1.129     0.733 -33.02   0
       450    358.2755   1010.9089 307.7548563  +6.2649479     1419.446     2579.487     3130.236     89.29236     178.4434     356.2499      1.987     6.77     1171.034     62.78859     200.4705        18     1.683     0.764 -42.15   0
       451    540.3220   1001.0757 307.6795741  +6.2750744      3499.09      6335.78     6891.781     89.57448     178.4434     356.2853      1.915     5.06     1167.594     62.78859     391.2305        31     1.734     1.052 -40.05   0
       452    510.0771   1002.3730 307.6920929  +6.2735316     923.8613     1689.154     1185.931     89.15096     178.0895      356.179      1.745     5.93     1168.072     62.78859     121.6526        12     1.396     0.708 -52.33   2
       453    290.7084    999.7755 307.7832980  +6.2672910     12089.95     22290.24     24756.71     89.43353     177.9478     356.0374      2.050     4.88     1170.821     62.78859      1377.25        62     2.156     1.206 -35.97   0
       454    744.9014   1000.3325 307.5946223  +6.2821852     6807.436     11770.47     12810.74     89.29236     178.3019     356.2145      1.839     4.65     1162.468     62.78859     888.9764        40     1.867     1.062 -32.25   0
       455    806.0491    999.7141 307.5692436  +6.2844715      1106.53     1665.246     2143.006     89.29236     178.0895     356.2499      1.640     5.85     1160.172     62.78859     156.9026        11     1.367     0.706 -47.23   0
