#   1 NUMBER                 Running object number                                     
#   2 X_IMAGE                Object position along x                                    [pixel]
#   3 Y_IMAGE                Object position along y                                    [pixel]
#   4 ALPHA_J2000            Right ascension of barycenter (J2000)                      [deg]
#   5 DELTA_J2000            Declination of barycenter (J2000)                          [deg]
#   6 FLUX_APER              Flux vector within fixed circular aperture(s)              [count]
#   9 FLUXERR_APER           RMS error vector for aperture flux(es)                     [count]
#  12 FLUX_RADIUS            Fraction-of-light radii                                    [pixel]
#  13 FWHM_IMAGE             FWHM assuming a gaussian core                              [pixel]
#  14 BACKGROUND             Background at centroid position                            [count]
#  15 THRESHOLD              Detection threshold above background                       [count]
#  16 FLUX_MAX               Peak flux above background                                 [count]
#  17 ISOAREA_IMAGE          Isophotal area above Analysis threshold                    [pixel**2]
#  18 A_IMAGE                Profile RMS along major axis                               [pixel]
#  19 B_IMAGE                Profile RMS along minor axis                               [pixel]
#  20 THETA_IMAGE            Position angle (CCW/x)                                     [deg]
#  21 FLAGS                  Extraction flags                                          
         1    225.6786     21.7456 307.8646830  +6.6679393     6000.127     14102.94     17155.56     84.16003      167.655     335.2434      2.529     7.48     991.5768     59.08623     648.8275        60     2.427     1.357  28.29   0
         2    971.1912     19.2859 307.5550239  +6.6940102     2512.437     5607.061      6519.06     83.62737     167.3215     335.0434      2.422     7.77     966.4841     59.08623     343.3987        33     2.257     0.964  28.70   0
         3    569.7576     19.7906 307.7217968  +6.6803344     1621.898     3869.385     4460.708     83.49368      167.455     334.9434      2.425     8.78     977.3243     59.08623     200.3224        29     2.115     1.058  33.22   0
         4    755.5583     12.2176 307.6448550  +6.6897016     4234.666     9485.525     11040.65     83.49368      167.455     334.9767      2.384     7.62     974.8644     59.08623     498.0118        45     2.404     1.052  27.09  16
         5    675.6707     11.4512 307.6780729  +6.6873364      2272.51     5116.281     5930.835     83.89413      167.655     335.2434      2.347     7.88      976.423     59.08623     295.3956        38     2.320     1.037  28.51  16
         6    475.7356      7.5223 307.7612740  +6.6822376     3546.875     8139.646      10015.3     84.29268     167.7216     330.9504      2.515     7.93     980.4509     59.08623     377.0917        44     2.338     1.154  27.66  16
         7     76.8259      7.3319 307.9270111  +6.6688648     4878.762     11318.56     13286.48     83.62737     167.5217     329.4957      2.484     7.02     992.4429     59.08623     567.2958        52     2.323     1.261  29.81  16
         8    372.6664      2.9390 307.8042508  +6.6806598     6982.734     16182.33     18823.33     84.02718     155.6291     278.5663      2.353     7.94     986.1617     59.08623     790.8441        51     2.324     1.206  19.97  24
         9    146.2737      3.0052 307.8983056  +6.6729970     1342.755     3289.213     4605.207     83.62737     156.2024      279.687      3.218     8.66     991.6704     59.08623     171.5345        32     2.175     1.085  23.24  24
        10    437.3973      1.0000 307.7774225  +6.6836403     701.0106     1409.483     2142.438     67.34794        127.1     246.0259      2.630     4.54      980.605     59.08623     155.3582         7     1.428     0.411   6.43  26
        11    561.6645   1004.5203 307.6920057  +6.2734507     836.3124     1459.654     1144.231     84.29268     167.7216     335.1768      1.920     5.11     1008.308     59.08623     110.4871         8     1.189     0.622  33.41   0
        12    796.0321   1023.3008 307.5940769  +6.2735599     837.8478     1382.539     1054.272     77.81457     139.0222     258.6439      1.718     5.83     1005.777     59.08623      124.964        11     1.657     0.577  16.30  24
        13    342.6616   1002.2119 307.7830004  +6.2670390     9266.837     21570.91     25588.48     83.49368      167.455     334.9434      2.456     8.20     1010.327     59.08623     1145.403        65     2.338     1.373  21.64   0
        14    857.5876   1002.1000 307.5692330  +6.2843767     705.8185     1488.762     1310.479     83.76085     167.3883     334.9767      2.148     6.57     1004.431     59.08623     111.9417        11     1.814     0.668  36.17   0
        15    466.1071   1002.7688 307.7317347  +6.2709623     716.6536     1245.078     1365.936     84.16003      167.455     335.2101      2.063     5.44     1010.331     59.08623     115.4968         6     1.343     0.623  16.96   0
        16    315.9672   1000.4615 307.7941412  +6.2668630      610.726     971.3447     1593.641     83.76085     167.7216     335.1434      2.053     4.88     1010.223     59.08623      97.4519         8     1.001     0.675   6.07   2
        17    958.1516    996.3791 307.5276741  +6.2901060     5933.129     12892.69     15071.53     83.62737      167.655     335.0101      2.301     7.70     1001.739     59.08623     784.5056        46     2.348     1.013  29.91   0
        18    931.8065    992.5319 307.5387407  +6.2908129     8070.251     18250.39     20794.07     83.49368     167.3215     335.0434      2.344     8.47     1001.659     59.08623     1086.906        50     2.361     1.050  26.54   0
        19    644.4806    993.0649 307.6580097  +6.2809618     909.2861     1854.861     1762.212     84.29267     167.7216     335.1768      2.256     7.79     1007.582     59.08623     122.6224        17     2.187     0.776  26.69   0
        20      4.8537    992.1198 307.9235735  +6.2598153     1828.402     3095.552     3705.919     84.02718      167.655     305.2054      2.133     4.99     1009.957     59.08623     221.8661        19     1.471     0.886  50.06  18
        21    576.1149    991.5246 307.6864437  +6.2793022     2703.883     6307.624     7995.275     84.16003     167.9879     335.2767      2.636     8.88     1008.139     59.08623     358.2219        34     2.209     1.015  22.75   0
        22    685.1716    990.8986 307.6411893  +6.2832219     982.6125     2036.992      2412.88     84.16003     167.3883     335.1768      2.313     7.62     1006.919     59.08623     176.7601        17     2.059     0.789  24.85   0
        23    110.6962    990.2220 307.8797005  +6.2641719     553.0175     1382.957     1568.262     83.89413      167.455     335.0101      2.558     8.41      1010.12     59.08623     102.3157        10     2.020     0.978  27.85   0
        24    528.8677    987.8724 307.7061814  +6.2792230     1556.383     3052.314     2994.192     84.16003     167.7883     335.2101      2.082     8.06     1008.714     59.08623     207.8918        24     2.166     0.840  27.47   0
        25    963.6138    980.0937 307.5259520  +6.2970135     28915.97     63970.09     72181.84     83.76086     167.3883     335.0434      2.298     9.09     1001.284     59.08623     4008.658        78     2.346     1.142  27.21   0
        26     36.3401    980.0378 307.9109116  +6.2658673     1992.019     4422.374     5204.635     84.02718     167.7216     335.2434      2.344     8.19     1010.011     59.08623      270.801        26     2.040     0.919  28.94   0
        27    270.8234    978.2349 307.8136317  +6.2745201     1235.706     2550.584     3336.493     83.49368     167.3883     334.9767      2.472     7.76     1010.177     59.08623     174.8831        19     1.954     0.861  26.05   0
        28    861.6592    973.9823 307.5684857  +6.2961237     1471.344     3412.403     3414.733     83.62737     167.5217     334.9434      2.263     8.54     1003.199     59.08623     223.7999        27     2.203     0.924  24.27   0
        29    809.7083    971.6916 307.5901311  +6.2953290     4296.114     9999.891     11982.74     84.02718     168.1873     335.2434      2.454     9.18     1003.974     59.08623     618.9614        41     2.297     1.025  33.30   0
        30    278.8641    970.8053 307.8105444  +6.2778587     935.0228     2328.715     2792.805     83.35976     167.3883     334.9767      2.519     8.66     1010.202     59.08623     135.8266        20     2.040     1.027  18.74   0
        31    594.6160    970.7267 307.6794624  +6.2885115     621.8931     742.1827     760.3548     83.49368     167.3883     335.1434      1.448     3.47     1007.801     59.08623     95.01886         5     0.754     0.462  75.22   0
        32    104.2663    968.9940 307.8830871  +6.2727201     1697.989     4015.697      4271.64     83.49368     167.3883     335.0101      2.361     7.88     1010.059     59.08623      231.121        24     2.128     0.817  24.83   0
        33   1000.3378    967.7096 307.5111200  +6.3033559     2311.747      2964.08     3129.218     84.02718     167.7883     335.2767      1.192     2.62     1000.609     59.08623      484.539         9     1.022     0.571  50.65   3
        34    996.7760    966.3896 307.5126430  +6.3037818     5087.298     8047.813     8733.242     83.62737      167.455     335.0768      1.742     6.27     1000.555     59.08623     627.1089        30     1.752     1.000  36.12   3
        35    971.3213    958.4208 307.5234783  +6.3062207      1298.54     2842.169     2909.947     83.62737     167.3215     335.2101      2.187     7.35      1000.56     59.08623     193.7504        19     1.999     0.756  26.32   0
        36     29.0686    956.6505 307.9147210  +6.2752784     838.3438     1532.702     1625.481     83.89413     167.5217     335.2101      2.072     6.93     1010.007     59.08623     115.7714        14     1.743     0.773  20.21   0
        37    692.4026    954.4958 307.6394104  +6.2984961     2882.539     6508.766     7165.276     83.62737     167.3215     334.8766      2.312     7.70     1005.966     59.08623     361.4863        32     2.224     0.936  25.25   0
        38    304.6775    954.6108 307.8003744  +6.2854151     2815.809     6469.401     6899.394     83.62737     167.2547     335.0434      2.349     7.88     1010.291     59.08623     381.5006        37     2.204     1.038  24.79   0
        39    830.9201    954.8901 307.5818883  +6.3029776     881.9679     1699.936     2041.601     83.76086     167.8548     335.3101      1.993     5.92     1002.998     59.08623     142.2625        13     1.753     0.563  24.48   0
        40    514.4114    952.5909 307.7133704  +6.2933055     642.2444     1433.893      1637.79     83.76086      167.455     335.1434      2.405     5.15     1008.685     59.08623     107.0581         8     1.618     0.463  17.99   0
        41     72.9974    951.9316 307.8966445  +6.2787099     1476.601     2752.129     2747.776     83.35976     167.2547     334.9767      1.927     7.34     1010.009     59.08623     206.4998        19     1.787     0.844  27.82   0
        42    925.4841    951.9514 307.5427259  +6.3073581     647.0868     1304.085     1438.128     84.02718      167.655     335.2434      2.288     4.55     1001.075     59.08623     104.8055         6     1.198     0.492  48.80   2
        43    616.7187    946.7327 307.6710931  +6.2991614     1241.452     2177.551     2278.536     84.16003     167.9214     335.2767      1.956     7.49     1007.223     59.08623     159.2785        21     1.903     0.826  24.95   0
        44    338.9387    947.5036 307.7863905  +6.2895034     603.7734     898.8776     1806.298     83.76085     167.7216     335.2767      1.842     4.11     1010.349     59.08623      83.7251         5     1.126     0.429  63.85   1
        45    105.0520    943.9938 307.8836058  +6.2830693     565.3857     1046.678     1305.472     83.49368      167.455     334.8433      2.904     6.29     1009.988     59.08623     130.3571         9     1.925     0.578  20.24   0
        46    656.2335    942.8389 307.6548186  +6.3020957      819.492     1826.985     1965.773     83.76085      167.455     334.9767      2.250     7.39     1006.385     59.08623     133.3735        15     2.120     0.721  38.16   0
        47    337.9911    942.2389 307.7869614  +6.2916454     789.0759      1751.77     3657.607     83.35976      167.455       334.91      3.551     6.14     1010.353     59.08623     142.0577        11     1.532     0.691  10.69   2
        48    804.4751    937.9254 307.5934371  +6.3090966     530.7598     972.4234     1394.291     84.29267     167.9214     335.3101      1.943     4.43     1002.973     59.08623     91.72278         6     1.546     0.361  18.04   0
        49    940.5349    933.7252 307.5370880  +6.3153880     4782.176     10213.01     10863.27     84.16003      167.655     335.1768      2.186     8.66     1000.452     59.08623     661.0668        38     2.219     0.944  26.93   0
        50    476.8257    930.9683 307.7297026  +6.3009704     1332.821      3297.26     3421.139     83.49368     167.3883     335.0434      2.427     7.98     1008.944     59.08623     218.1627        27     2.150     0.975  27.76   0
        51    378.2011    929.3956 307.7707009  +6.2983021     5959.377     13388.62     15437.44     83.35976     167.1879     334.9434      2.387     7.69     1010.265     59.08623     696.2537        48     2.331     1.099  27.50   0
        52    298.3371    928.3099 307.8038937  +6.2960615     4254.708     9719.499     11153.18     84.02718     167.7883     335.2767      2.373     7.92     1010.357     59.08623      536.649        41     2.332     1.045  29.40   0
        53    215.4480    926.5422 307.8383651  +6.2939984     486.8421     773.5149     617.7232     84.02718      167.655     335.3434      1.811     4.99     1010.121     59.08623     79.47333         6     0.967     0.729   4.64   0
        54    626.0458    922.4853 307.6680360  +6.3094868     839.6597     1695.408     2072.634     84.02718     167.5884     335.2101      2.372     6.73     1006.525     59.08623     107.0872        14     1.750     0.726  21.78   0
        55    956.1586    918.7733 307.5311023  +6.3220850     629.5108      1174.63     1587.209     83.62737     167.5217     335.0434      1.978     5.67     999.5897     59.08623     117.2578        10     1.587     0.570  25.83   0
        56    792.7664    912.0916 307.5991655  +6.3193716     930.2386     2463.908     3297.531     84.16003     167.5217     335.2434      2.608     7.96     1002.628     59.08623     149.7866        19     2.374     0.746  23.70   0
        57    884.3862    910.9859 307.5611628  +6.3228979     519.6862     907.4114     467.2756     83.89413     167.3215     335.1434      1.687     4.76     1000.754     59.08623     70.98407         5     0.994     0.647   0.55   0
        58     42.7672    909.2512 307.9106373  +6.2953122     566.5776     763.6435     1065.891     83.89413     167.7216     335.1434      1.783     5.32     1009.997     59.08623     90.89728         6     1.227     0.651  38.15   0
        59   1022.6896    907.0560 307.5038713  +6.3291492     933.8863      1290.98     1801.823     83.09129     147.8242     268.8521      1.677     4.96     996.8891     59.08623     136.1344         8     1.227     0.567  47.09  24
        60    576.0609    906.4570 307.6893278  +6.3144266     813.3163     1433.818     1725.226     84.16003     167.5884     335.2434      2.234     5.18     1007.045     59.08623     128.4584         8     1.342     0.565  50.91   2
        61    711.3188    905.1307 307.6332154  +6.3195147     1675.557     3679.521     4467.191     84.29267     167.9214     335.2434      2.349     7.78      1004.37     59.08623     232.3973        27     2.175     0.874  29.68   0
        62    106.9298    901.1036 307.8842758  +6.3008422     1930.068     4014.319     4634.774     83.89413     167.7882     335.2101      2.405     5.16     1009.644     59.08623     238.3524        22     1.448     1.125  29.40   2
        63    125.2184    900.5548 307.8767018  +6.3016859     1142.603     2623.856     2834.887     83.62737     167.5217     334.9434      2.491     8.49     1009.659     59.08623     158.2749        24     2.145     0.978  21.24   0
        64    988.9339    900.4524 307.5181079  +6.3307469     538.9416     1023.825     852.1773     84.02718     167.5884     335.1434      1.850     3.71     997.6224     59.08623     88.73932         6     1.545     0.256  35.80   0
        65    251.2463    900.1447 307.8243942  +6.3061047     1401.006      3126.99      3597.74     84.02718      167.655     335.2434      2.403     8.07      1010.41     59.08623     157.2267        25     1.994     0.913  27.77   0
        66    705.9821    894.3910 307.6357920  +6.3237704     4566.431     10025.73     11618.23     83.76085     167.3883     335.0101      2.316     7.52      1004.07     59.08623     573.9014        40     2.289     1.009  27.29   0
        67     65.2876    892.2360 307.9018634  +6.3030982     724.7196     1332.814     1680.312     84.02718     167.5217     335.2101      2.552     7.32     1009.809     59.08623     128.2969        13     1.768     0.850  28.23   0
        68    943.4035    890.6590 307.5373404  +6.3332673     1840.489     3949.934     3923.261     83.35976     167.5217     334.9434      2.273     8.19     998.9622     59.08623     260.0131        27     2.111     0.889  33.13   0
        69    388.9734    887.5705 307.7676383  +6.3159349     9954.438     22594.84     26444.34     83.49368      167.455     335.0434      2.380     7.63     1009.959     59.08623     1167.656        66     2.409     1.235  26.54   0
        70     78.5722    890.9541 307.8963916  +6.3040759     877.2056      1779.85     2380.161     83.49368     167.7216     335.1101      2.605     6.13     1009.682     59.08623     107.3547        11     1.242     0.850   9.57   0
        71    122.2006    887.8749 307.8783831  +6.3068197     766.4937     1386.385      1604.31     83.22563     166.9874     335.0101      2.402     6.56     1009.522     59.08623     109.0936         9     1.422     0.849  22.99   2
        72    259.5298    886.8987 307.8214022  +6.3118533     919.6674     1722.568     1760.554     83.89413     167.7883     335.2101      2.042     7.93     1010.503     59.08623     133.2491        17     1.915     0.919  27.31   0
        73    151.1813    877.4706 307.8667031  +6.3120934     1025.754     1747.337     2646.575     83.62737     167.5217     335.1434      2.211     7.70     1009.453     59.08623      135.061        14     1.869     0.888  33.26   2
        74    465.3468    878.1177 307.7362482  +6.3224073     592.3718     1118.656     1711.491     84.02718      167.655     335.2767      3.211     5.60     1008.218     59.08623     91.71564         6     1.346     0.656  44.05   0
        75    933.8403    872.4100 307.5419229  +6.3404828     1277.903     2755.966     2533.253     83.35976      167.455     334.9434      2.161     8.19     998.7263     59.08623     173.8839        24     2.258     0.829  25.09   0
        76    135.6528    871.7172 307.8733443  +6.3139452     1500.237     3187.268     3818.919     84.02718      167.655     335.3434      2.236     7.15      1009.38     59.08623     245.2136        26     1.997     0.962  31.40   0
        77    904.5911    871.9154 307.5540840  +6.3397078      1325.52     3017.016     3458.422     83.62737     167.3215     335.0434      2.275     7.60     999.5842     59.08623     185.3312        22     2.201     0.735  27.60   0
        78    868.1736    871.2727 307.5692264  +6.3387536     1807.354     4144.481     4345.722     83.62737     167.5217     335.1101      2.343     7.66     1000.523     59.08623     289.2466        27     2.306     0.766  30.11   0
        79    604.0110    862.8307 307.6791907  +6.3333796     203380.5     463789.8     534780.4     83.49368     167.3883     335.0768      2.369     7.94     1005.111     59.08623     24776.18       182     2.464     1.422  27.97   0
        80    448.2667    865.4295 307.7437670  +6.3270721      4775.62      10628.3     12374.76     83.76086      167.655     335.1768      2.427     7.20     1008.482     59.08623     615.3101        47     2.375     1.109  30.86   0
        81    690.7092    865.1687 307.6431152  +6.3353245     953.8685     1713.688     1666.951     84.16003      167.455     335.2101      1.864     4.22     1003.275     59.08623     127.7765        12     1.254     0.760  34.73   0
        82    391.4552    863.7937 307.7674094  +6.3258362     7765.552     17602.68     20215.81     83.49368     167.3883     334.8766      2.381     7.49      1009.76     59.08623     945.5564        54     2.315     1.195  27.37   0
        83    709.9093    859.9744 307.6353178  +6.3381136     2238.059     4845.549     5349.528     84.16003     167.3883     335.0434      2.326     8.24     1002.923     59.08623     282.6997        31     2.206     0.908  25.87   0
        84    942.1705    858.8548 307.5389185  +6.3463590     3515.469     7693.126     8957.156     83.76085     167.7216     335.1101      2.360     7.88     997.7964     59.08623     484.7376        34     2.166     1.010  24.71   0
        85    781.4009    856.4763 307.6057516  +6.3419556     598.0498     916.6617     1255.473     83.22564     167.0542     335.0101      1.760     6.60     1001.569     59.08623     109.0841         8     1.599     0.764  36.94   0
        86    684.6605    853.9688 307.6460030  +6.3397463     2143.944     4726.956      6174.51     83.76085     167.7216     335.1768      2.657     8.49     1003.115     59.08623     311.6585        30     2.275     0.885  31.61   3
        87    677.3465    848.3403 307.6492290  +6.3418250     1247.362      2956.03     4910.799     84.02718     167.5884     335.2101      3.232     8.33     1003.118     59.08623     174.1806        25     2.191     0.885  27.05   3
        88    872.7639    852.8818 307.5679374  +6.3465015     1083.659      1985.93     1703.953     84.02718      167.655     335.1768      1.922     7.22     999.7724     59.08623     168.1586        18     2.166     0.675  29.10   0
        89    673.8715    852.3990 307.6505354  +6.3400324     738.0658     1721.315     2237.167     83.35976     167.1879     335.0101      2.467     6.33     1003.237     59.08623     97.85669        10     2.003     0.561  45.77   2
        90    999.9923    852.4633 307.5151242  +6.3509330      638.764      1150.97     1479.342     83.35976     167.3883     335.0101      1.826     5.33     994.5875     59.08623     103.8397         7     1.421     0.565  30.76   0
        91    961.1700    846.7828 307.5314343  +6.3519797     1959.175     4490.074     5322.157     83.62737      167.455     335.1434      2.339     7.71     996.2751     59.08623     278.4295        25     2.213     0.751  26.91   0
        92    419.2777    842.8051 307.7565651  +6.3354389     1757.189     3657.348     4253.164     83.62737     167.1211     335.0101      2.248     6.88     1008.524     59.08623     232.7942        27     2.126     0.958  27.19   0
        93    555.6669    832.4586 307.7002850  +6.3442969     1919.702     4220.623     4596.815     84.16003     167.5884     335.2101      2.325     7.63     1005.249     59.08623     265.8386        31     2.322     0.868  22.54   0
        94    902.0662    832.2919 307.5564612  +6.3559850     639.0486     1288.339      2327.63     84.02718     167.8548     335.2101      3.315     5.22     997.9033     59.08623     117.7439         8     1.063     0.725  23.31   2
        95    602.4996    828.6207 307.6809689  +6.3474549       3697.1     8572.888     11191.29     84.02718      167.455     334.9767      2.765     8.04     1004.007     59.08623     463.4483        47     2.393     1.191  20.72   2
        96    620.9088    829.7485 307.6732874  +6.3476074     461.0298     1227.562     1228.929     83.89413      167.455       335.41      2.528     4.86     1003.683     59.08623     75.87201         5     1.534     0.436  23.89   0
        97    937.9830    826.6900 307.5417356  +6.3595006     802.0596       1767.5     2169.337     83.76085     167.3883     335.1101      2.284     7.73     996.3795     59.08623     143.5347        14     1.804     0.926  31.36   0
        98    519.8796    827.2742 307.7153185  +6.3452350     1057.473     2208.857     2258.279     84.29267     167.9214     335.2434      2.216     6.53     1005.959     59.08623     159.9117        15     1.670     0.717  37.38   0
        99    163.9761    827.1898 307.8630897  +6.3332863     732.3821     1253.516     1027.041     83.62737      167.455     335.0768      1.926     4.84     1009.302     59.08623     98.47992         8     1.176     0.565  31.89   2
       100    160.2107    826.1877 307.8646868  +6.3335731       823.28     1265.203     1135.663     83.76085      167.455     335.1768      1.396     3.79     1009.259     59.08623     131.4857         6     0.763     0.560  42.85   3
       101    573.1185    822.4789 307.6933748  +6.3490041     12025.31     27099.32     30234.49     84.16003     167.9214       335.41      2.357     7.43     1004.411     59.08623     1372.826        60     2.340     1.185  27.99   0
       102    986.7830    820.8275 307.5216690  +6.3635545     2509.966     5312.588      5989.65     83.62737     167.3883     335.1101      2.325     8.33     993.8975     59.08623     317.0977        30     2.316     0.837  27.77   0
       103     83.3900    812.5488 307.8970422  +6.3366125     983.8188     1923.727     1938.445     83.35976     167.5217       334.91      2.242     7.55     1009.228     59.08623     145.1017        18     2.211     0.721  29.93   0
       104    365.7679    811.1572 307.7798489  +6.3467060     2039.114     4762.116     4337.762     83.49368     167.5884     335.0101      2.325     7.94     1009.743     59.08623     256.1252        32     2.148     1.019  29.12   0
       105     65.5796    809.2305 307.9045489  +6.3373814      1429.63     3099.471     2944.133     83.49368      167.455     335.1101      2.249     7.86     1009.259     59.08623      195.514        22     2.150     0.803  32.92   0
       106    831.2860    807.0125 307.5866989  +6.3640526     34006.38     77034.32     87163.92     83.62737     167.5217     335.0434      2.343     8.37     998.9888     59.08623     4543.995        80     2.371     1.172  27.67   0
       107    288.1738    783.5699 307.8129966  +6.3554841     754247.2      2121225      2707894     83.49368      167.455     335.0434      2.854     9.67     1010.083     59.08623     63212.51       623     2.996     2.172  37.68   4
       108    398.1245    799.0483 307.7668226  +6.3527950     12424.49     28252.79     32994.29     83.89413     167.7216     335.2434      2.413     7.23     1007.904     59.08623     1480.571        65     2.383     1.243  27.91   0
       109      9.7393    800.4509 307.9280295  +6.3391207     2404.469     5040.771     5572.791     84.02718     167.5884     335.2101      2.271     8.54     1009.245     59.08623     302.4118        34     2.268     0.979  30.79  16
       110    459.9881    796.8705 307.7412097  +6.3557755     13218.35     30361.95     35180.29     83.49368     167.3883     335.0101      2.384     7.59     1006.632     59.08623     1640.602        70     2.385     1.244  28.20   0
       111    447.1382    798.8892 307.7464771  +6.3545098     933.8651     1799.114     1691.951     84.02718     167.7883     335.2767      2.161     7.99     1006.774     59.08623     119.1364        16     1.840     0.970  34.52   0
       112    685.5812    797.8431 307.6475071  +6.3629528     559.2117      1063.76     1383.868     83.49368     167.5217     334.9767      1.686     4.46     1001.872     59.08623     69.42438         5     1.159     0.488 -86.05   0
       113    999.6031    796.9080 307.5171471  +6.3738606     846.4648     1255.005     1921.206     83.62737     167.3215     334.9434      1.545     3.47     992.4857     59.08623     137.1979         5     1.011     0.343  49.23   3
       114    995.9860    795.3561 307.5187011  +6.3743803     1533.179     2545.443     2757.245     83.35976      167.455     334.9434      1.836     6.15      992.637     59.08623     215.6421        17     1.533     0.787  36.51   2
       115    953.3768    793.6773 307.5364503  +6.3736478     4493.407     9699.083     10937.96     83.62737     167.5217     335.1434      2.261     8.30     994.3337     59.08623     619.5955        40     2.290     0.968  27.85   0
       116    956.4785    802.2319 307.5348756  +6.3702191     5584.002     12237.25     13850.26     83.89413      167.655     335.1768      2.270     8.93     994.3681     59.08623     725.2452        43     2.287     1.015  27.66   0
       117    693.8689    792.6314 307.6442410  +6.3653829     4168.543     9247.504     10356.86     83.89413      167.655     335.2101      2.327     7.95     1001.444     59.08623     494.8986        39     2.244     1.055  28.28   0
       118    482.4572    790.4476 307.7320966  +6.3591833     1057.951     2173.943     2006.624     84.02718      167.655     335.3434      2.088     7.39     1006.178     59.08623     162.1995        17     1.904     0.803  24.53   0
       119    729.0419    782.6796 307.6299706  +6.3706724     1423.819     3334.909     3603.563     84.02718      167.655     335.1768      2.378     7.40     1000.027     59.08623     184.3002        25     2.027     0.959  34.37   0
       120    462.9427    779.5648 307.7405659  +6.3630207     32234.52     73184.52     86386.82     83.89413      167.655     335.2434      2.422     7.49     1005.953     59.08623     3720.255        94     2.436     1.351  27.18   0
       121    197.6664    783.1414 307.8505897  +6.3526105     708.2495     1344.757     1767.316     84.16003     167.5884     335.2101      2.208     4.73     1009.048     59.08623     104.8942         8     1.143     0.555  32.29   0
       122    172.3740    782.8645 307.8611004  +6.3518718     593.2319     997.4957     1168.615     83.62737      167.655     335.1101      2.082     5.44     1008.787     59.08623     105.9546         8     1.169     0.715  35.83   0
       123   1004.3341    780.6497 307.5157274  +6.3807323     707.1724     954.4209     1202.569     83.89413     167.5217     335.1768      1.598     4.71     992.2774     59.08623     118.3618         7     1.013     0.675  79.21   0
       124    580.5978    778.6090 307.6917454  +6.3673701     4215.968     9456.103     10543.56     83.35976     167.3215     334.9767      2.356     7.63     1002.465     59.08623     510.3402        43     2.324     1.063  25.48   0
       125    496.3981    776.6564 307.7267726  +6.3653466     2788.864     5683.114     7366.212     83.35976     167.3215       334.91      2.453     6.15     1005.075     59.08623     309.6296        33     1.854     1.123  44.22   3
       126    825.8589    775.1476 307.5900219  +6.3770286     7357.158     16389.13     18626.73     84.02718      167.655     335.2101      2.319     8.11     997.5533     59.08623      929.195        49     2.275     1.079  26.16   0
       127    493.8060    770.3894 307.7280599  +6.3678473     1444.875     3078.301     3523.842     83.49368      167.455     335.1101      2.656     7.78     1004.865     59.08623     196.1369        21     2.022     0.838  24.76   0
       128     54.0581    770.4637 307.9106435  +6.3529993     697.4567     1221.525     934.8848     84.16003     167.5884     335.2434      1.857     5.21     1008.493     59.08623     84.69257         6     0.935     0.819  81.07   0
       129    847.8549    769.2938 307.5810848  +6.3801828     910.0298     1845.524     2156.306     83.89413      167.655     335.4433      2.066     6.02     996.7379     59.08623     141.8988        12     1.807     0.564  29.49   0
       130    190.6302    766.7946 307.8540633  +6.3591229     2074.542     4374.739     5900.229     83.49368      167.455     334.9767      2.511     7.52     1008.558     59.08623     233.2598        25     1.877     1.037  27.54   3
       131    183.5149    767.0214 307.8570099  +6.3587893      7196.33     15901.98      21023.5     83.76085     167.3215     335.1434      2.893     6.89     1008.477     59.08623     890.8101        77     3.606     1.298  15.56   3
       132    175.7745    763.9840 307.8603263  +6.3597824     1565.557     3204.183     3931.826     83.76086     167.5217     335.1434      2.128     6.23     1008.303     59.08623     226.5607        14     1.859     0.586  27.35   3
       133   1014.3754    767.7800 307.5119890  +6.3863825     551.2808     936.9689     1589.858     83.62737      167.455     335.1434      1.529     4.13     991.9092     59.08623     100.7759         6     1.098     0.444  30.42   0
       134    971.2752    763.6971 307.5300231  +6.3866265     4031.064     9240.719     10931.07     83.62737     167.7883     335.2434      2.381     8.77     993.2835     59.08623     575.0582        38     2.291     0.937  26.11   0
       135   1020.4639    763.6215 307.5096001  +6.3883034     1071.757     2118.525     2360.662     83.62737      167.655     301.0036      1.942     7.52     991.7156     59.08623     153.6548        18     2.110     0.750  25.34  24
       136    754.4211    798.7848 307.6188914  +6.3648733     49678.96     117347.4     164682.5     83.76086     167.3883     335.1101      3.010    12.38     1000.231     59.08623     6740.185       145     3.712     1.254  29.06   0
       137    726.8536    761.3599 307.6315955  +6.3794024     1053.795     2375.461     2576.312     83.89413      167.655     335.1768      2.811     7.93     999.1846     59.08623     150.2088        21     2.186     0.804  28.03   0
       138    612.7508    760.0195 307.6790200  +6.3761261     1409.368     2791.769     3171.198     83.49368     167.7216     335.0434      2.265     6.28     1000.953     59.08623     180.4732        16     1.450     0.849  29.02   2
       139    460.7614    760.0414 307.7421293  +6.3710089     831.8311     1716.906     2093.004     83.76085     167.7216     335.0768      2.189     5.56     1005.199     59.08623      122.767        10     1.307     0.799  33.67   0
       140    176.0947    757.8230 307.8604015  +6.3623371     1183.627     2643.836     3139.643     84.02718      167.455     335.0768      2.727     8.54     1008.137     59.08623     193.1016        23     2.223     0.918  21.85   0
       141    965.6301    755.7241 307.5326344  +6.3897299      1991.02     4460.245     5895.134     83.89413     167.7216     335.2101      2.441     8.24     993.3433     59.08623     263.7233        28     2.270     0.835  28.86   0
       142    995.0776    755.2710 307.5204215  +6.3909023     1912.404     4676.937     5060.741     84.29267     167.9214     335.2101      2.442     8.64     992.4688     59.08623     350.3123        29     2.175     0.960  24.08   0
       143    716.8936    754.2224 307.6359712  +6.3820155     922.8691     1849.091     1602.679     84.02718      167.455     335.0101      2.397     6.25     999.1994     59.08623     126.9441        12     1.283     0.857  51.93   2
       144   1023.5377    754.0407 307.5086447  +6.3923624     742.0123      660.028      941.702     75.03719     135.4403      254.639      1.026     3.67     991.6089     59.08623     145.6724         7     0.932     0.626  74.64  24
       145    862.4834    751.8022 307.5755974  +6.3878957     608.5781      931.561     953.6243     83.35976     167.2547     334.8766      1.271     2.18     995.6923     59.08623      134.124         5     0.690     0.468 -69.73   0
       146    290.8017    749.8630 307.8130429  +6.3694906     965.9406     2285.904     2721.873     83.35976      167.455     334.9767      2.322     7.38     1009.504     59.08623     152.4604        16     1.904     0.800  21.44   0
       147   1010.0009    743.1681 307.5146301  +6.3963992      1614.76     3837.971     4347.148     83.35976      167.455     334.9434      2.382     8.51     992.0059     59.08623     235.5101        30     2.175     0.959  28.40  16
       148    982.0566    744.3643 307.5261940  +6.3949704     706.1046     1106.843     1099.471     83.89413      167.655     335.2434      1.714     5.57     992.7618     59.08623     99.81525         8     1.253     0.697  39.07   0
       149    955.6251    743.4292 307.5372012  +6.3944720     785.9941     1307.636     1330.752     83.49368      167.455     335.0768      1.659     4.25     993.4474     59.08623     110.5161         7     0.988     0.521  60.88   2
       150    729.8196    742.2017 307.6310077  +6.3874128     518.5797     1060.696     1374.768     83.62737     167.1879       334.91      1.770     5.63     998.3152     59.08623     85.73749         6     1.351     0.661   4.52   0
       151    852.6721    735.0319 307.5802343  +6.3944919     809.8771      1846.54     1762.797     83.89413      167.655     335.2101      2.236     8.15      995.135     59.08623     112.2203        16     1.765     1.051  38.35   0
       152    939.5930    732.2479 307.5442334  +6.3985524     899.0961     1986.275     2149.829     83.49368      167.455     334.8099      2.592     7.19     993.5909     59.08623     147.3221        16     2.142     0.676  29.29   0
       153    896.0225    723.4497 307.5626214  +6.4007266     1055.214     2302.155     2104.986     83.62737     167.7216     335.1101      2.055     7.23     994.1714     59.08623     138.8112        17     2.031     0.720  18.28   0
       154     95.1313    722.4555 307.8952133  +6.3742088     1494.701     3208.375     3669.478     84.02718     167.5217     335.1768      2.299     7.93     1007.227     59.08623     210.1603        29     2.150     1.018  23.44   0
       155    708.0626    711.0725 307.6410883  +6.3995368     3687.975     8488.475     9480.752     84.16003      167.655     335.2767      2.400     7.89     997.5962     59.08623     460.4449        43     2.302     1.109  28.40   0
       156    653.9408    710.0800 307.6635958  +6.3981303     908.9708     1805.621     2261.198     84.16003      167.655     335.1768      2.381     7.62     998.7195     59.08623     123.6948        17     1.912     0.850  44.88   2
       157      4.0472    709.1807 307.9334812  +6.3766140     2115.415     4813.976     5534.889     83.49368     165.7787     294.5127      2.385     6.87     1007.615     59.08623     256.5275        36     2.146     1.131  27.61  24
       158    681.7227    706.8672 307.6521673  +6.4003894     1330.455     2774.209     3341.004     84.16003     167.7216     335.1768      2.217     7.54     998.1945     59.08623     185.0357        22     1.866     0.853  25.43   0
       159    170.8516    706.6286 307.8643081  +6.3832989     2172.709     4789.256     6015.629     83.62737     167.7883     335.1101      2.425     7.20     1007.128     59.08623     284.7134        37     2.197     1.133  31.07   0
       160    293.2151    706.5069 307.8135039  +6.3874741     519.4437     964.5016     756.4324     83.76086      167.455     335.0434      1.992     6.11     1007.607     59.08623     82.13342         7     1.505     0.697  24.92   0
       161    824.8935    703.1562 307.5928394  +6.4067234     12474.96      27788.8     31428.44     84.02718      167.655     335.3434      2.304     7.64     994.8883     59.08623     1525.703        57     2.334     1.097  26.88   0
       162    955.0197    702.8987 307.5388113  +6.4111880     2427.678     5244.869     5532.988     84.02718     167.5217     334.9767      2.232     8.46     992.4188     59.08623     319.1263        32     2.203     0.910  25.98   0
       163    526.9344    703.9344 307.7165416  +6.3964015     576.2088     739.3675     377.9374     84.02718      167.655     335.2434      1.565     3.72     1001.206     59.08623     112.8047         5     1.264     0.314  32.60   3
       164    522.3946    702.1970 307.7184853  +6.3969663     909.5422     1482.524     1463.324     83.35976     167.3215     335.0434      1.737     5.17     1001.256     59.08623     116.2252         9     0.943     0.801 -70.44   2
       165    368.4229    701.3171 307.7824502  +6.3921500     602.5278     947.4596      1368.51     83.89413     167.3215     335.1434      1.695     4.25     1005.156     59.08623      105.615         5     1.202     0.427  51.25   0
       166    550.7206    701.4673 307.7067476  +6.3982196     468.4997     767.1148     307.4601     84.16003     167.8548     335.2101      1.255     3.45     1000.492     59.08623     94.85535         5     0.763     0.450 -20.50   0
       167    705.3638    695.9505 307.6427172  +6.4056905     4234.312     9552.276     10855.03     83.76085      167.655     335.1101      2.387     7.82     996.9991     59.08623     510.6559        44     2.292     1.103  29.80   0
       168    298.3869    696.7739 307.8116848  +6.3916672     3541.915     8262.965     9447.316     83.76086      167.455     335.1434      2.422     7.06     1006.928     59.08623     446.5336        46     2.309     1.214  28.37   0
       169    964.3184    688.0192 307.5354487  +6.4176434     858.5243     1623.066     1895.082     83.62737     167.3215     335.1434      2.197     7.22     991.9286     59.08623     147.8138        16     2.061     0.707  20.19   0
       170    777.0702    684.3711 307.6133294  +6.4128772     2243.958     5280.411     7044.474     83.76085      167.655     335.1434      2.563     7.76     995.0114     59.08623     252.2556        37     2.304     1.076  27.47   0
       171    731.1952    684.6465 307.6323704  +6.4112249     751.5547     1396.654     1805.047     83.35976     167.3883     334.8766      1.989     5.32     995.7266     59.08623     99.69879         8     0.980     0.815  72.25   2
       172    981.8121    681.3812 307.5284066  +6.4209698     1620.501     3505.877     3930.385     83.76086     167.3215     335.1101      2.241     8.01     991.6691     59.08623     218.2634        25     2.053     0.873  26.42   0
       173     62.6778    680.7023 307.9101005  +6.3903532     1186.249     2757.553     3059.009     83.62737     167.9214     335.2101      2.517     8.37     1006.928     59.08623     134.2816        23     2.053     0.954  19.83   0
       174    120.7861    675.8399 307.8861370  +6.3943225     15116.05     34702.62     40747.48     83.49368      167.455     334.9434      2.419     7.32     1006.809     59.08623     1875.545        75     2.442     1.319  28.89   0
       175    582.0445    676.5521 307.6945788  +6.4095602     1264.422     2719.548      3296.63     84.02718     167.5884     335.1768      2.393     7.38     998.7894     59.08623     162.3088        24     1.847     1.022  18.41   0
       176    549.7397    673.7079 307.7080893  +6.4096491     749.7188     1407.407     1449.396     83.89413     167.5884     335.3101      2.109     6.52     999.7292     59.08623     99.80359        10     1.325     0.901  59.23   0
       177    970.6229    672.6132 307.5333471  +6.4242159     684.9191     1145.303     1191.558     83.76086      167.455     335.1101      1.613     3.87     991.5407     59.08623     97.29724         5     1.011     0.424  15.09   0
       178    766.7753    668.1512 307.6181493  +6.4192296      2177.86     4839.506     5360.979     83.62737      167.655     335.1101      2.335     7.52     994.6713     59.08623     292.6602        31     2.180     1.016  22.58   0
       179    590.0132    669.6147 307.6915032  +6.4126924     687.3778     1371.716      2241.79     83.89413     167.3215     335.1434      2.660     5.93     998.3124     59.08623     106.6522         7     1.363     0.726  40.92   0
       180    788.6127    666.2184 307.6091458  +6.4207599     2543.719     5444.255     5828.312     83.76086     167.3215     335.1101      2.239     8.27      994.467     59.08623      313.445        34     2.239     0.993  25.06   0
       181    620.1924    664.2186 307.6791525  +6.4159343     2052.469     4505.297     4831.754     83.62737     167.3215     335.0434      2.369     6.67     997.3641     59.08623     252.7984        34     2.142     1.078  26.91   0
       182    456.4430    664.7295 307.7471336  +6.4102196     710.6891     1371.769     1427.205     83.89413      167.655     335.2767      2.200     5.32     1001.798     59.08623     110.1999         7     1.414     0.565  58.01   0
       183    280.8322    663.5249 307.8200963  +6.4048047     919.6579      1755.11     1841.832     83.89413     167.7216     335.1768      2.074     7.67     1005.507     59.08623     124.0206        16     1.963     0.838  27.26   0
       184    364.6547    663.0942 307.7853039  +6.4078058     773.2446     1676.281     1811.594     83.89413      167.655     335.4433      2.177     5.58      1004.04     59.08623     107.6357         8     1.556     0.564  29.35   0
       185   1023.9269    660.4572 307.5116184  +6.4310189     1188.972      1250.83     1455.298     69.30994     128.8459     247.6101      0.837     2.29     990.7275     59.08623     368.1431         5     0.880     0.256 -86.79  24
       186    472.2280    655.6750 307.7408839  +6.4144893      1656.62     3908.851      5042.26     83.89413     167.5884     335.1768      2.772     7.74     1000.873     59.08623     218.2744        31     2.094     1.110  31.87   0
       187    185.5231    654.7620 307.8599684  +6.4052099     13770.31     31938.74     37830.71     83.89413     167.7216     335.2101      2.469     7.28     1006.054     59.08623     1630.961        71     2.436     1.324  27.97   0
       188    853.0921    654.8973 307.5827493  +6.4275957     751.3353     1392.601     1718.473     84.02718     168.1873     335.1434      2.264     5.44     993.7035     59.08623     152.1215         9     1.460     0.571  16.82   2
       189   1021.3442    644.0040 307.5132423  +6.4377266      4986.18     8979.848     9604.988     83.35976     162.5806     288.8441      1.913     6.97     989.8876     59.08623     619.8359        35     1.959     0.955  33.61  24
       190     69.7712    645.0642 307.9083606  +6.4053078     481.7431     653.3527     624.5606     83.76086      167.655     335.1434      1.717     4.16     1006.564     59.08623     96.84082         5     1.031     0.499  54.82   0
       191    615.5615    639.5422 307.6819057  +6.4259682     28639.67     65217.48      75980.2     84.02718     167.7216     335.2101      2.427     7.47     996.7167     59.08623     3248.315        88     2.445     1.327  27.19   0
       192    223.0049    636.1854 307.8450318  +6.4141443     1689.216     3893.156     4961.636     83.62737     167.3215     335.0434      2.556     8.37     1005.141     59.08623     209.8855        32     2.126     1.130  24.51   0
       193    115.2801    630.4170 307.8899589  +6.4128920     722.5535     1675.918     1086.325     83.62737     167.3215     335.1101      2.181     7.99     1006.108     59.08623     101.7575        14     2.023     0.882  17.54   0
       194    512.8214    623.3931 307.7251143  +6.4291841      35580.3     82817.12     98506.73     83.62737      167.455     335.0101      2.484     7.23     998.9252     59.08623     4027.149        99     2.487     1.406  27.30   0
       195     55.3351    624.4855 307.9150510  +6.4133173     1161.405     2132.299     3188.633     84.16003     167.8548     335.2434      2.491     7.03     1006.416     59.08623     145.2056        16     1.476     0.972  24.58   0
       196    187.4585    617.9915 307.8604070  +6.4204580     854.0673     2216.955     3002.906     83.35976     167.5884       334.91      2.627     8.27     1004.859     59.08623      117.792        18     2.358     0.811  22.99   0
       197    358.3381    612.6554 307.7896281  +6.4284201     1194.358     2966.521      3704.58     84.16003      167.655     335.2101      2.829     8.56     1001.541     59.08623     156.1899        28     1.945     1.169  29.53   0
       198    784.7451    606.9630 307.6127421  +6.4450983      3159.98     7365.233     8498.869     83.89413      167.655     335.2434      2.439     8.54     993.5375     59.08623     406.6228        42     2.329     1.069  25.37   0
       199    838.3546    602.1379 307.5906405  +6.4488877     8485.927     19026.16     21533.96     83.89413     167.5884     335.2767      2.329     7.94     992.7084     59.08623     1052.267        56     2.287     1.194  26.49   0
       200    662.1954    600.3137 307.6638591  +6.4437324     1600.225     3750.973     4333.479     83.49368     167.3215     334.8766      2.485     9.08     994.4683     59.08623     188.0323        32     2.141     1.074  29.42   0
       201    579.7632    601.1358 307.6980642  +6.4406245      775.696     1564.968     2058.893     83.89413      167.655     335.2767      2.260     4.39     996.3952     59.08623     157.6017         7     1.131     0.484  63.82   0
       202    981.0402    597.2335 307.5315478  +6.4556911     671.0248     1626.498      2147.18     83.76085     167.5217     335.0434      2.825     4.98     988.6594     59.08623      101.223         7     1.124     0.626   9.58   2
       203      3.6048    595.3180 307.9375185  +6.4236130     1978.903     4557.529     5305.514     83.49368     162.1678     288.3795      2.376     7.19     1006.579     59.08623     274.2955        34     2.115     1.176  34.46  24
       204    273.5301    593.3229 307.8254983  +6.4335458     768.6238     1527.563     1256.823     84.29268     167.9214     335.2101      1.966     7.09     1002.499     59.08623     128.1567        12     1.462     0.962  32.52   0
       205    914.3402    585.3743 307.5596463  +6.4583553     1762.274     3668.513     4081.238     83.62737      167.655     335.0768      2.208     8.13     990.4111     59.08623     219.0107        28     2.090     0.909  27.94   0
       206    873.0099    582.7654 307.5768985  +6.4580483     1510.136     3402.857     3724.596     83.49368     167.3883     334.9767      2.452     8.29     991.4194     59.08623     208.3358        26     2.212     0.926  33.21   0
       207    844.0659    578.7742 307.5890529  +6.4587266     1423.615     3440.862     4456.426     83.62737     167.5884     335.0768      2.778     8.53     991.9579     59.08623     177.4183        27     2.150     0.946  23.50   0
       208    301.1516    577.7593 307.8145532  +6.4409029     4343.256      10198.7     12242.54     83.89413     167.5884     335.0768      2.505     7.26     1001.477     59.08623     477.4672        54     2.386     1.326  26.60   0
       209    853.7564    574.0446 307.5851872  +6.4610043     96067.46     214747.5     247311.5     84.02718      167.655     335.1434      2.373     7.41      991.597     59.08623     11293.73       128     2.451     1.320  27.45   0
       210    785.4363    577.9655 307.6134291  +6.4570953     578.3466     1364.061     1686.453     83.76085     167.3883     334.9434      2.506     4.76     992.9396     59.08623     104.9254         5     1.351     0.475  83.56   0
       211    235.4824    572.3169 307.8420075  +6.4409368     33643.03     76885.98     94051.49     83.76086     167.9214     335.3101      2.518     6.88     1002.517     59.08623     3877.117       106     2.556     1.461  29.31   0
       212     13.6520    571.0021 307.9341695  +6.4339925     2611.816     5974.774     7543.034     83.35976     167.2547     334.7766      2.428     7.64     1006.605     59.08623     314.6564        39     2.224     1.152  33.54  16
       213    159.2445    568.4633 307.8737968  +6.4399567     3691.277     8113.229     9978.773     84.02718     167.5884     335.2434      2.411     6.63     1003.763     59.08623     414.0293        47     2.311     1.194  32.62   0
       214   1023.3539    565.5597 307.5150362  +6.4701858     727.6124     968.0505     644.2166     77.09338     138.3779     257.5617      1.397     3.68     985.1981     59.08623     121.8624         8     0.960     0.617  71.36  24
       215    273.0224    563.3860 307.8267197  +6.4458899     422.0764     839.7263     882.4912     83.76085      167.455     335.1101      2.146     5.18     1001.623     59.08623     76.71094         5     1.632     0.465  34.52   0
       216    890.3340    561.2558 307.5704255  +6.4675105     2826.309     6145.797     6969.451     84.16003     167.5217     335.2101      2.266     7.57     990.2083     59.08623     349.5105        34     2.204     0.967  27.94   0
       217    408.7549    559.4787 307.7704845  +6.4520747     9747.979     22892.07     27671.96     84.02718      167.655     335.2101      2.516     6.93     998.7062     59.08623     1089.906        67     2.401     1.367  27.85   0
       218    210.6265    558.1654 307.8528074  +6.4459420     1175.531     3217.774     4059.064     83.35976     167.3883     334.9767      2.814     8.56     1002.403     59.08623     173.7848        24     2.089     0.980  26.67   0
       219    844.1654    554.6935 307.5898200  +6.4686735     3621.335     8016.952     9134.299     84.16003     167.5217     335.3101      2.289     7.65     991.2887     59.08623     413.8078        37     2.218     1.035  26.36   0
       220    575.1560    554.4042 307.7015505  +6.4597661     3601.683     8299.967     10020.32     83.35976     167.2547     334.8766      2.504     7.43     995.2072     59.08623     426.7734        46     2.403     1.123  25.52   0
       221    433.1008    551.2357 307.7606519  +6.4562978     796.9665     1913.105     2579.693     84.02718     167.5217     335.3767      2.616     8.15     997.8708     59.08623     107.1475        13     2.342     0.794  39.47   0
       222    317.4235    544.0094 307.8089349  +6.4553869     46909.17     112621.8     136648.1     83.62737      167.455     335.0768      2.541     7.06     999.9433     59.08623     5407.128       114     2.560     1.483  28.57   0
       223    222.1429    547.5894 307.8483822  +6.4506973     3806.043     8916.608     11256.44     83.35976      167.655       334.91      2.565     7.40     1001.767     59.08623     466.3967        52     2.378     1.284  25.61   0
       224    620.0861    547.4301 307.6831258  +6.4641552     1465.886     3557.808     4215.464     84.16003     167.3883     335.1101      2.744     9.08      993.941     59.08623     168.8158        26     2.068     1.113  23.56   0
       225     93.7058    546.2051 307.9017653  +6.4469352     2798.099     6539.279     7514.051     83.76086     167.3215     334.9434      2.470     7.39     1004.321     59.08623     345.1683        46     2.347     1.267  31.39   0
       226     17.7666    548.0239 307.9332386  +6.4436193     734.6605      1372.58     1525.889     83.49368      167.455     335.0101      2.396     6.55       1006.6     59.08623     120.2821        10     1.601     0.752  29.85   0
       227    862.7393    547.2180 307.5823570  +6.4723827     588.3802     1208.463     1855.321     83.62737     167.5884     335.0101      2.149     4.03     990.5719     59.08623     88.47278         5     1.338     0.347  41.51   3
       228    859.2506    546.1581 307.5838415  +6.4727035     997.9616     1732.225     1801.192     84.16003      167.655     335.2101      1.887     4.77     990.6458     59.08623     152.0721         9     0.977     0.889 -86.60   2
       229    607.3887    541.0408 307.6886140  +6.4663669     581.9666     876.3099     1292.089     83.35976      167.455       334.91      1.431     2.59     993.9306     59.08623     130.2778         5     0.743     0.567   6.26   0
       230   1018.3247    538.6722 307.5180260  +6.4811203     1030.687     1452.654     2011.532     84.29268     167.9214     324.4732      1.769     5.85     983.9855     59.08623     154.9779        11     1.427     0.674  10.60  18
       231   1014.6525    536.8093 307.5196136  +6.4817667     837.6129     1250.411     1461.514     83.35976     167.5217       334.91      1.561     3.16     984.0832     59.08623     141.4296         7     0.768     0.685  -6.42   3
       232    840.4661    536.4134 307.5919701  +6.4760979     9726.309     21891.84     25101.66     83.49368      167.455     335.1101      2.414     7.80     990.7731     59.08623     1185.907        54     2.366     1.146  27.90   0
       233    300.1512    538.3085 307.8163002  +6.4571589     847.4409     1317.034      1916.38     84.02718     167.5217     335.3767      1.904     5.45     1000.147     59.08623     99.75079        10     0.969     0.865  14.32   0
       234    544.1536    534.8246 307.7150850  +6.4668089     24256.36     56402.35     70079.27     83.62737      167.655     335.0768      2.536     7.04     995.3458     59.08623     2682.854        99     2.577     1.476  24.64   0
       235    703.9793    529.9188 307.6488733  +6.4742025     1602.814     4095.221     4786.126     83.76086     167.3215     335.1434      2.434     9.58     992.3433     59.08623     217.3022        35     2.157     1.187  26.90   0
       236    255.7764    530.9151 307.8349780  +6.4587162     1153.672     2388.409     3281.443     84.02718     167.3883     335.1101      2.514     6.38     1000.536     59.08623     161.5335        13     1.458     0.785  66.62   2
       237     91.3550    530.2565 307.9032809  +6.4534411     776.4427     1652.433      2029.28     84.02718      167.655     335.2101      2.339     5.44     1003.913     59.08623     108.0767         9     1.200     0.696  65.84   2
       238    765.2701    528.4302 307.6234684  +6.4768734     786.1987     1605.702     1196.112     83.89413      167.655     335.1768      2.355     6.65     991.8542     59.08623     92.96045        11     1.376     0.903  29.38   2
       239    713.7142    529.5877 307.6448413  +6.4746659     1042.068     1832.201     2393.319     83.62737      167.455     335.0434      1.954     6.46     992.2994     59.08623     136.9672        14     1.498     0.781  20.52   0
       240    121.9495    526.8416 307.8906913  +6.4558839     731.5158       1162.1     1629.036     84.16003      167.655     335.2101      1.636     4.09     1003.195     59.08623     109.7109         8     0.856     0.655 -41.25   0
       241    441.1295    525.0389 307.7582006  +6.4673849     1115.966     2189.936     2553.324     83.89413      167.655     335.2767      2.192     7.56     996.8473     59.08623      132.313        19     1.487     1.077  33.36   0
       242    373.4553    523.7941 307.7863475  +6.4656211     2043.461     4753.938     5838.082     83.49368      167.455     334.8766      2.694     7.61     997.6682     59.08623     253.6069        39     2.364     1.139  30.45   0
       243    553.3316    522.6453 307.7116834  +6.4721465      1088.41     2694.958     3005.412     84.02718     167.5884     335.1768      2.432     8.41     994.6111     59.08623     132.4646        15     2.007     0.984  32.07   2
       244    915.0887    521.5716 307.5614759  +6.4847263     1038.467     1906.921       1983.7     84.16003     167.3883     335.1101      2.186     7.09     987.7942     59.08623     162.8928        15     1.889     0.746  36.73   2
       245    153.9360    520.4763 307.8776232  +6.4595917     1458.932     3557.476     4398.822     84.29267      167.655     335.1768      2.650     9.19     1002.408     59.08623     191.3026        31     2.335     1.062  27.55   0
       246     33.3884    520.3759 307.9276871  +6.4555630     1165.619     2666.034     3455.237     83.62737      167.455     335.1434      2.689     8.88     1005.462     59.08623     154.9366        23     2.014     1.093  29.92   0
       247   1013.8965    516.8681 307.5205959  +6.4899757      3183.03     6889.051     8003.855     83.89413     167.7883     335.2101      2.342     7.37     983.7085     59.08623     459.2078        38     2.333     1.020  27.78  16
       248    188.5107    522.3771 307.8632008  +6.4599733     14721.36      33841.8     40004.54     84.02718      167.455     335.0768      2.495     7.00     1001.586     59.08623     1627.767        76     2.498     1.376  28.13   0
       249     52.7853    506.7247 307.9200940  +6.4618548     13914.62     33111.66     39911.03     83.49368     167.3883     335.0434      2.509     7.20     1004.444     59.08623     1689.572        74     2.471     1.372  29.73   0
       250    586.2284    509.1510 307.6984753  +6.4788240      891.386     1792.827     2277.127     83.62737     167.7216     335.1101      2.194     7.22     993.0286     59.08623     111.2832        14     1.560     0.935  29.97   0
       251    485.4691    503.4991 307.7405121  +6.4777706      23805.4     55502.34     66611.53     84.02718     167.7883     335.1768      2.511     7.08     995.6767     59.08623     2600.813        88     2.502     1.418  27.31   0
       252    693.5107    503.2046 307.6541192  +6.4848821     6824.854     15786.89     18342.28     83.49368     167.3215       334.91      2.415     7.32     991.5248     59.08623     773.7583        51     2.309     1.210  26.52   0
       253     35.3547    500.9733 307.9275272  +6.4636408     108563.8     255313.4     306168.7     83.49368     167.7216     335.1101      2.498     7.05      1004.87     59.08623     13844.71       139     2.538     1.474  28.74   0
       254    250.5999    501.0979 307.8381347  +6.4708535     10995.02     25471.78     31613.75     83.49368     167.2547     334.8099      2.535     6.89      999.108     59.08623     1341.954        76     2.512     1.403  27.72   0
       255    216.7537    501.7668 307.8521682  +6.4694361     723.4695     1903.978     2099.407     83.76086      167.655     335.1434      2.604     4.54     999.9993     59.08623     119.9764         7     1.480     0.396  30.86   2
       256    615.0970    499.7602 307.6868018  +6.4836715     1644.305     3620.007     3975.177     84.02718     167.5217       335.41      2.321     8.23     991.8591     59.08623     194.5424        31     2.136     1.053  25.11   0
       257    989.1303    497.0949 307.5315450  +6.4973120     2866.872     6295.622     7309.457     83.89413     167.7216     335.2434      2.347     8.68     984.1102     59.08623     395.2796        32     2.280     0.927  29.64   0
       258    662.3494    495.4926 307.6673205  +6.4870205     3501.033     8146.539     9699.189     83.89413     167.5217       335.41      2.516     7.82      991.358     59.08623     398.1503        45     2.384     1.140  25.41   0
       259    150.6438    495.3109 307.8798411  +6.4698716     526.3738     1055.205     1386.624     84.02718     167.5217     335.2434      2.545     3.57     1001.639     59.08623     78.60767         5     0.770     0.477  64.59   2
       260   1011.8602    489.3043 307.5223656  +6.5012894     1978.579      4430.33     5258.151     83.89413      167.655     335.3101      2.359     8.10     983.1805     59.08623     281.9625        29     2.317     0.897  26.75  16
       261    574.4471    486.8334 307.7041196  +6.4876435     4061.083     9647.304      11532.1     83.76086      167.655     335.1434      2.485     7.45     992.4174     59.08623     471.1039        50     2.340     1.297  29.34   0
       262    420.3819    486.9667 307.7681007  +6.4824073     1296.086     3089.085     3297.494     83.62737      167.455     335.0434      2.412     9.03     995.9335     59.08623     151.3932        30     2.296     1.019  22.85   0
       263    930.9237    482.4425 307.5562118  +6.5014140     1990.232     4631.216     5718.032     83.89413      167.655     335.2434      2.525     6.95     985.3031     59.08623     286.4738        30     2.110     1.020  25.53   0
       264    938.1841    476.9378 307.5533809  +6.5039302     1436.419     3086.036     3875.375     83.49368     167.5884     335.0101      2.294     7.92     984.9531     59.08623     195.9144        25     2.147     0.816  32.76   0
       265    976.7825    475.9376 307.5373829  +6.5056352     806.9385     1593.047     1837.695     83.62737     167.5884     335.0434      2.252     6.71     983.8551     59.08623     118.5626        11     1.595     0.798  25.54   2
       266    762.3804    472.9522 307.6265327  +6.4996846     1839.479     4031.166     4795.779     83.49368      167.655     335.0101      2.383     8.08     989.9916     59.08623     211.7037        30     2.072     1.019  28.21   0
       267    433.2201    471.1901 307.7633007  +6.4893538      1917.66     4782.431     5979.174     83.62737     167.3215     335.0768      2.548     8.59     994.8816     59.08623     241.2693        36     2.282     1.113  27.55   0
       268    123.0758    471.0000 307.8921118  +6.4789792     1049.665     2265.583     3174.977     83.22563     166.9873     334.9767      2.701     4.51     1001.309     59.08623     156.8342        11     1.211     0.798   0.73   2
       269    471.3203    471.1356 307.7474788  +6.4906581     534.4137     877.9338     1666.568     84.29267     167.7216     335.1768      4.469     5.38     994.7893     59.08623     90.55243         5     1.322     0.617  60.66   0
       270    660.9545    467.7576 307.6688328  +6.4984260     5601.325     13089.32     15728.66     83.89413      167.655     335.0434      2.481     7.13     990.6165     59.08623      724.339        53     2.345     1.253  27.80   0
       271    823.7543    464.3051 307.6013323  +6.5053131     9561.212     21778.85     26556.91     83.89413     167.5884     335.3434      2.429     7.43     988.2878     59.08623     1180.476        60     2.326     1.287  23.44   0
       272    426.4997    460.8568 307.7664402  +6.4933944     953.9828     2311.583     2764.702     83.76085      167.655     335.4433      3.407     8.91      994.095     59.08623     130.6464        22     2.084     1.064  33.33   0
       273    850.6736    460.6617 307.5902739  +6.5077198     693.6191     1258.881     1752.862     84.16003      167.655     335.2434      1.726     4.96     987.5526     59.08623     105.4172         6     1.292     0.539 -38.03   2
       274   1008.6235    459.0870 307.5247228  +6.5136588     1274.843     2516.855     2708.704     84.02718      167.455     335.0768      2.119     8.49     982.5887     59.08623     174.5428        24     2.325     0.867  29.30   0
       275    343.4910    464.6268 307.8007879  +6.4890429     1472.243     3473.446     3661.697     84.16003     167.3883     335.0768      2.451     8.45     995.0242     59.08623     193.2339        29     2.272     1.077  21.65   0
       276    161.3002    456.3691 307.8767319  +6.4863104     2483.202     5825.079     6970.584     84.02718     167.3883     335.3767      2.619     7.14     999.9984     59.08623     293.9354        44     2.320     1.255  30.32   0
       277    799.0540    455.0672 307.6119016  +6.5082996     1261.619      2815.24     3515.477     84.02718     167.5884     335.1101      2.604     7.59      988.386     59.08623     170.1102        25     2.015     0.982  27.72   0
       278    317.2827    453.6194 307.8120440  +6.4927051     750.2223     1577.635     2157.384     83.62737     167.3215     335.1434      2.170     4.28     995.0048     59.08623     118.2072         7     1.133     0.461  62.81   2
       279    395.7711    450.4000 307.7795550  +6.4966778     1579.466     3683.679      4510.66     83.22564     167.3883     334.9767      2.621     6.10     993.3821     59.08623     208.5481        24     1.688     1.113  56.76   2
       280    751.8645    448.2534 307.6317303  +6.5095306     1031.196     1949.298     2634.102     84.02718     167.5884     335.1768      2.133     4.78     989.0075     59.08623     146.7542        10     1.138     0.787  46.54   0
       281    515.1164    439.0235 307.7303712  +6.5053907     711.8907     1435.608     1344.637     83.89413     167.3883     335.1434      1.689     4.74     991.5594     59.08623     93.90588         7     1.427     0.446 -27.92   2
       282    866.9882    438.9994 307.5842249  +6.5172113     1058.209     1496.122       1744.5     83.62737     167.3215     335.0101      1.564     5.43     986.2889     59.08623     128.1807        13     1.176     0.958   4.38   3
       283    863.4841    437.3144 307.5857369  +6.5177897     1398.846      2191.17     2327.237     83.76086     167.8548     335.2767      1.723     4.51      986.313     59.08623     159.9114        16     1.090     1.055  17.25   3
       284    762.0848    435.9858 307.6278976  +6.5149390     8641.923     19791.29     23742.06     83.62737     167.3883     335.0768      2.476     7.35     988.2274     59.08623     1026.356        60     2.383     1.261  27.75   0
       285    878.3918    438.3623 307.5795098  +6.5178565     882.7941     1760.789     2327.627     83.22564     167.3883       334.91      1.963     4.70     985.8723     59.08623     136.6151         9     1.471     0.426  18.46   0
       286    682.9940    431.9341 307.6608839  +6.5139582     1769.668     3990.118     5211.385     83.49368     167.3883     335.0101      2.545     6.87     989.5837     59.08623     216.1093        32     1.967     1.149  25.84   0
       287    655.6496    427.2056 307.6724002  +6.5149926     8869.717     21885.98     29842.08     83.35976      167.455     334.8099      2.855     9.07     989.9616     59.08623     952.7589        83     3.109     1.287  30.09   0
       288    987.2475    425.8536 307.5347156  +6.5266665     2350.154     5132.965     5716.127     84.02718      167.655     335.2434      2.288     8.43     982.3746     59.08623     298.6915        32     2.155     0.921  26.48   0
       289    426.5776    421.8770 307.7677221  +6.5094923     15557.85     37137.86     44718.81     83.62737      167.455     335.1101      2.525     7.04     990.9681     59.08623     1832.213        78     2.503     1.406  28.03   0
       290    941.4382    420.3566 307.5539274  +6.5274030     1302.483     2362.298     3176.027     83.76086      167.655     335.0768      2.377     6.73     983.3398     59.08623     152.0011        18     1.572     0.809  55.96   0
       291    172.2413    421.0255 307.8733827  +6.5012732     1308.059     2811.396      3755.12     83.62737     167.5217     334.9767      2.744     8.75     998.0666     59.08623     168.0881        26     2.119     1.029  26.07   0
       292    956.0768    416.1438 307.5479884  +6.5296326     3191.644     6726.602      7674.41     84.02718      167.655     335.1768      2.243     7.28     982.8767     59.08623     386.9693        36     2.252     0.947  29.03   0
       293    106.3929    416.6162 307.9008795  +6.5008712     844.0759     1994.553      2926.04     83.62737     167.3883     335.0434      3.591     6.77     999.5892     59.08623     151.2896        14     2.172     0.591  26.88   0
       294    284.0317    412.4391 307.8272440  +6.5085884      7617.66     18066.95      22130.4     83.62737      167.455     335.0434      2.542     7.11     993.8771     59.08623      897.437        66     2.464     1.392  28.08   0
       295   1007.0869    404.7002 307.5271843  +6.5360652     599.8212     1071.697     999.2846     84.02718     168.1873     335.2434      2.251     5.98     981.2414     59.08623     105.6431         8     1.845     0.545  26.75   0
       296    395.6934    401.9968 307.7812198  +6.5166615     594.2761     1256.367     1524.597     83.76085     167.3215       334.91      2.308     5.89     990.1802     59.08623     81.52264         7     1.194     0.818  67.82   0
       297    184.4972    401.1099 307.8689658  +6.5099099     2766.495      6592.29     7973.671     84.02718     168.1208     335.2101      2.580     7.59     996.6375     59.08623     351.8138        47     2.411     1.234  23.57   0
       298    288.6246    398.7354 307.8257991  +6.5144016     696.7093     1554.464     1714.161     83.62737      167.655     335.1434      2.349     7.35     993.0021     59.08623     104.2756        11     1.301     1.163 -68.04   2
       299    206.3767    396.6410 307.8600297  +6.5124932     1391.167     3154.387     3303.756     83.62737      167.455     334.9767      2.454     9.75     995.5378     59.08623     162.4012        31     2.321     1.142  30.80   0
       300     22.5850    392.7506 307.9364935  +6.5078944     1400.757     3187.141     4420.355     83.35976     167.5884       334.91      3.052     7.89     1001.614     59.08623     179.0348        28     2.112     1.009  15.35   0
       301    429.5229    391.4298 307.7675254  +6.5221634     1123.641     2652.761      3616.71     83.89413     167.7216     335.2434      2.656     8.70      989.421     59.08623      138.533        23     2.130     0.993  30.66   0
       302   1018.0237    390.1397 307.5231296  +6.5424435     606.5593     1277.207     1284.343     83.62737     167.5884     326.8745      2.125     5.11     980.3551     59.08623     112.5101         7     1.251     0.591  31.74  16
       303    483.7767    385.3119 307.7451975  +6.5265151     3951.324     9443.497     11708.33     84.02718      167.455     335.0768      2.597     7.20     988.7304     59.08623     436.5594        51     2.383     1.310  29.04   0
       304     82.2377    387.2325 307.9119055  +6.5121881     1287.748     2467.455     3271.814     83.62737     167.3883     334.9767      2.233     5.77     999.7843     59.08623     161.6316        14     1.213     0.880  15.12   3
       305     78.6838    385.8432 307.9134286  +6.5126417     1727.289     3079.727     3983.719     84.02718      167.655     335.1434      1.999     5.00     999.8547     59.08623      189.839        19     1.277     1.145  87.36   3
       306    824.2834    382.5857 307.6038571  +6.5390748     7463.767     17224.75     20852.13     83.62737     167.3883     335.0434      2.492     7.31     985.2693     59.08623     911.3983        60     2.389     1.248  25.99   2
       307    816.4175    384.5048 307.6070598  +6.5380186     1152.609     2751.309     3270.316     83.89413      167.455     335.0434      2.434     8.26     985.4664     59.08623     152.8259        24     2.115     0.901  21.13   3
       308     38.3867    371.8008 307.9306399  +6.5170785     766.5443     2142.844     3687.882     83.62737     167.3215     334.9767      3.691     8.41     1000.751     59.08623     99.11511        15     1.812     1.090   3.93   0
       309    503.9099    369.2165 307.7373776  +6.5338383     1177.105      2693.07     2928.244     83.76085     167.3883     335.1101      2.507     8.51     987.4826     59.08623     173.4525        25     2.051     0.986  40.68   0
       310    531.9171    368.8322 307.7257576  +6.5349387     1689.838     4205.402     4979.883     84.02718      167.455     335.0768      2.548     8.20     987.2623     59.08623     208.0599        35     2.123     1.209  20.84   0
       311    889.6818    365.5246 307.5772653  +6.5483112     19363.82      45275.8     53342.19     84.29268     167.9214     335.2767      2.497     7.79     983.4968     59.08623     2280.803        81     2.441     1.360  29.77   0
       312    660.4688    357.3020 307.6727503  +6.5440190     1719.193     3436.751     4579.269     84.02718     167.7883     335.2101      2.459     7.29     986.1761     59.08623     203.8348        25     1.899     1.073  28.35   2
       313     69.6297    357.7017 307.9181411  +6.5239555     632.8532     1257.772     1162.912     84.02718     167.3883     335.2434      2.061     6.08     999.6411     59.08623         96.5         8     1.539     0.676  31.72   0
       314    746.1480    351.4844 307.6373573  +6.5492969     44896.23     104448.5     123276.1     84.02718     167.5884     335.3101      2.459     7.53     985.3377     59.08623      5196.98       104     2.500     1.378  27.70   0
       315    903.7928    352.9236 307.5718268  +6.5539871     641.4993     1369.143     1778.697     83.62737     167.1211     335.0434      2.429     5.68     982.9391     59.08623     125.4481         8     1.821     0.498  27.83   0
       316    125.4241    350.8711 307.8951991  +6.5286600     897.1964     1911.074     2248.555     83.62737     167.5217     335.1434      2.414     7.92     997.2468     59.08623     148.5944        16     1.886     0.931  24.69   0
       317    608.4910    348.2367 307.6946452  +6.5460165     1411.351     3273.565      3547.99     84.16003     167.5884     335.2434      2.371     8.63     986.0521     59.08623     180.9189        29     2.027     1.030  27.80   0
       318    145.8396    347.0468 307.8868491  +6.5309282      3352.33     8307.132     10071.66     83.89413      167.655     335.0101      2.537     7.35     995.9586     59.08623     399.1473        51     2.355     1.327  31.38   0
       319    985.9374    347.6039 307.5378838  +6.5589341     516.3039     723.6911     772.3383     83.35976     167.3883     334.9434      1.668     4.35     979.9858     59.08623     88.07532         5     0.823     0.654  81.23   0
       320    591.7913    344.3365 307.7017130  +6.5470658     4111.333     9577.622     11025.73     83.49368      167.455     335.0101      2.459     7.14     985.8702     59.08623     449.6475        50     2.280     1.273  27.66   0
       321    320.5178    342.0487 307.8144663  +6.5388827     1562.767     3609.071      4303.31     84.02718      167.655     335.2434      2.627     7.11     989.0593     59.08623     188.5273        30     2.071     1.171  33.87   0
       322    454.8425    339.5983 307.7587564  +6.5444174        13844     33354.81     39977.18     83.35976     167.3215     334.8766      2.545     6.97     986.5054     59.08623     1606.061        82     2.503     1.444  26.75   0
       323    562.7142    338.8260 307.7139763  +6.5483640     713.3821      1833.68     2027.157     84.16003     167.3883     335.0768      2.499     8.09     985.6764     59.08623     120.5942        12     1.971     0.929  37.91   0
       324    433.6294    337.2632 307.7676462  +6.5446678     683.8002     1098.023     1958.478     83.76086      167.655     335.1434      2.681     4.23      986.857     59.08623     125.7664         7     0.992     0.830 -66.11   0
       325    848.8836    331.2366 307.5953633  +6.5611025     643.8151     1186.538     984.6005     84.02718     167.5884     335.1434      2.236     5.22     983.4941     59.08623     83.71667         7     1.479     0.521  29.68   0
       326    543.9125    330.0583 307.7220812  +6.5513523     4752.653     11160.08     13175.12     84.02718     167.7216     335.3434      2.468     6.96     985.2816     59.08623      559.373        54     2.309     1.308  29.57   0
       327    813.0452    328.8163 307.6103313  +6.5609006     1743.158     4231.723     5246.688     83.49368     167.5217     334.9767      2.431     9.34      984.003     59.08623     229.0939        33     2.346     1.036  28.72   0
       328    967.7029    328.1363 307.5461111  +6.5663624     550.7801     1067.033     1067.868     83.89413     167.7883     335.2434      2.393     4.43     979.8854     59.08623     106.6506         6     1.709     0.326   3.61   0
       329    369.3275    326.2488 307.7947262  +6.5470508     533.1985      1097.38     1401.177     84.02718     167.7216     335.2434      2.510     6.40     987.6238     59.08623     78.12085         7     1.308     0.880  82.73   0
       330    205.0615    319.6349 307.8631783  +6.5442450     736.0912     1447.859     2107.082     84.02718      167.655     335.1768      2.745     5.93     992.6561     59.08623     81.66913         9     1.323     0.749  53.75   0
       331    433.7701    314.2043 307.7683653  +6.5541937     4180.091     9837.228     11768.12     83.49368      167.455     335.0101      2.561     6.88     985.7582     59.08623     477.2394        52     2.277     1.318  28.55   0
       332    289.5646    314.9046 307.8282394  +6.5490476     1088.204      2786.89     3148.888     84.16003     167.5217     335.3101      2.814     8.97     989.1962     59.08623     127.4008        24     2.057     1.092  25.28   0
       333    801.6393    310.0483 307.6156997  +6.5682679      30460.2     71268.66     84079.37     83.89413     167.7216     335.0434      2.458     7.39     983.4645     59.08623     3691.511        91     2.488     1.321  27.36   0
       334    785.7159    312.9979 307.6222150  +6.5665160      609.561      1202.31     2042.376     83.35976     167.2547     334.8766      2.883     3.80     983.6528     59.08623     91.28741         5     0.824     0.502  37.97   0
       335    472.9575    309.2555 307.7522549  +6.5575558     1346.533     2943.547     3703.143     83.89413      167.655     335.2434      2.432     6.93     984.5145     59.08623     178.2822        27     1.860     1.105  36.63   0
       336    977.4022    306.1171 307.5428206  +6.5757794     1386.843     3181.043     3674.322     83.35976     167.2547     334.8766      2.417     8.44     978.5963     59.08623     182.8505        26     2.363     0.843  31.34   0
       337    619.2422    307.0423 307.6915660  +6.5633875     645.6814     1579.536     2073.952     83.76085      167.655     335.0768      2.596     5.87     983.8456     59.08623     102.1693         9     1.567     0.619  45.19   0
       338    509.8690    306.0153 307.7370320  +6.5601354     672.6068     1211.029     1589.705     83.49368     167.5217     335.1101      1.914     5.03      984.136     59.08623     88.15027         6     0.966     0.742  29.43   0
       339    458.2722    304.4532 307.7585166  +6.5590447      1128.86     2299.837     2759.208     83.89413     167.5884     335.1768      2.574     7.41     984.6536     59.08623      133.364        16     1.404     1.094  41.22   2
       340    881.1293    299.9320 307.5830198  +6.5751094     730.4037     1673.907     2140.911     84.02718     167.7883     335.1768      2.595     6.50     982.1093     59.08623     106.3574         9     1.670     0.710  42.01   0
       341    236.4319    296.5401 307.8509289  +6.5548391     1196.807     3044.574     3657.179     83.76086     167.7216     335.1768      2.602     8.19     990.3519     59.08623     161.2129        27     2.010     1.169  27.71   0
       342    488.6391    296.4750 307.7461719  +6.5633606     659.8329     1205.746     1516.266     83.89413      167.655     335.2434      1.681     3.37     983.6419     59.08623     92.60986         5     1.089     0.302 -69.10   0
       343    800.1982    294.5955 307.6168175  +6.5746004     3479.993     7976.912     9609.634     83.35976     167.1879     334.9434      2.430     7.34     982.9143     59.08623     429.1754        41     2.273     1.076  26.53   0
       344    818.0226    293.3434 307.6094554  +6.5757150     1168.353     2248.122     2581.488     83.62737     167.5884     335.0101      2.158     4.96      982.765     59.08623      154.674         9     1.142     0.650  24.69   3
       345    814.7587    291.9973 307.6108565  +6.5761614     1443.507     2443.175     3101.262     83.35976     167.3215       334.91      1.847     5.38     982.7443     59.08623     189.9747        17     1.435     0.886  62.77   2
       346    405.9843    287.0000 307.7808243  +6.5644914      1114.07     2691.822     3535.455     83.49368     167.2547       334.91      2.634     7.44     985.3813     59.08623     121.8755        19     1.638     0.947  -6.49   2
       347    119.1258    287.0680 307.8999731  +6.5547917     792.2876     1438.836     2070.274     84.16003     167.7883     335.1768      2.469     6.49     996.1674     59.08623     112.1788        10     1.572     0.753  20.15   0
       348    532.1463    283.2869 307.7285442  +6.5702693     1105.871     2310.756     2610.552     84.02718     167.5217     335.3767      2.277     7.11     983.1235     59.08623     160.9089        16     1.649     0.860  30.83   0
       349    295.3986    278.9965 307.8270287  +6.5640710     2837.651     7127.399     8954.562     83.35976     167.1879     334.9434      2.587     7.80     988.3744     59.08623     362.6316        47     2.369     1.282  28.87   0
       350     25.6980    271.7825 307.9392960  +6.5579470     36967.02     87930.44     107382.2     84.02718      167.455     334.9767      2.549     7.31     999.9797     59.08623      4321.05       106     2.559     1.480  29.66   0
       351    427.7339    269.1519 307.7723919  +6.5725932     817.5563     1933.687     2371.096     83.89413     167.5884     335.2101      2.658     5.67     984.0906     59.08623     105.6698         9     1.223     0.758  -8.14   2
       352   1015.4478    268.0350 307.5282933  +6.5927776     718.7568      1518.89     2060.735     83.62737      167.655     335.1434      2.459     5.68     975.5164     59.08623     108.7089         9     1.456     0.625  11.96  16
       353    199.7088    265.4389 307.8672334  +6.5664422     978.7939     2500.321     3193.319     84.16003     167.5884     335.2434      2.781     8.90     991.3442     59.08623     126.4235        21     2.078     1.064  16.68   0
       354    351.2852    265.0868 307.8042844  +6.5716975     734.2424     1513.901     1634.574     83.76086     167.8548     335.2767      1.893     4.64     987.0768     59.08623     112.9966         6     1.091     0.560 -65.82   0
       355    952.1374    260.4429 307.5548480  +6.5937936     1226.796     2378.448      2991.83     84.02718     167.5884     335.3101      2.392     7.26     977.7621     59.08623     188.2965        18     2.120     0.786  34.25   0
       356    609.0360    260.9666 307.6973566  +6.5820700     1186.683     2744.434     3606.984     83.76086     167.3883     334.9434      2.549     7.74     982.5055     59.08623     144.7447        22     1.919     0.874  31.50   0
       357    772.4808    258.8228 307.6295335  +6.5884421     2951.701     6899.287     8400.773     83.62737     167.3215     335.1434      2.414     7.37     981.9788     59.08623     362.9521        41     2.311     1.101  28.08   0
       358    715.2820    259.7285 307.6532637  +6.5861490     986.1694     1863.613     2705.214     84.29268     167.9879     335.2434      2.221     5.80     982.2827     59.08623     125.2734        11     1.445     0.656   1.09   2
       359    712.4131    257.6794 307.6545244  +6.5868988     1180.168     2103.036     2571.345     83.62737     167.3883     335.0101      2.069     4.63      982.265     59.08623     160.2213        11     1.083     0.799 -13.60   3
       360    967.4495    250.7537 307.5488122  +6.5983071     617.2018     1006.006     1333.061     84.02718     167.5217     335.2434      2.015     4.63      976.801     59.08623     98.41003         6     1.325     0.459  22.38   0
       361    271.7881    243.8147 307.8380242  +6.5778018      1452.47     3173.225     3855.911     83.89413     167.3215     335.1434      2.360     8.79     988.9673     59.08623     168.7985        28     2.101     1.051  37.78   0
       362    914.3493    243.1415 307.5711263  +6.5996723     1079.236     2159.174      2687.63     84.02718      167.655     335.2101      2.176     7.81     978.4315     59.08623     129.1763        20     1.786     0.955  29.98   0
       363    805.1589    242.2930 307.6165142  +6.5963635     1006.403     2202.906     2313.029     84.16003     167.5884     335.3101      2.173     7.61     981.3489     59.08623     121.5621        20     1.837     0.883  27.59   0
       364    505.9351    233.9703 307.7410939  +6.5897513      12330.2     29786.48     36499.89     83.76086     167.7216     335.1434      2.532     7.15     981.0365     59.08623     1464.493        75     2.522     1.396  29.28   0
       365    831.8099    233.0634 307.6057531  +6.6010681     7445.783     17798.09     21889.47     83.49368      167.455     335.0101      2.547     8.19     980.3235     59.08623     923.2394        60     2.446     1.202  27.19   0
       366    511.1595    228.3552 307.7391129  +6.5922456     818.8606     1911.685     2585.115     83.76086      167.655     335.0768      2.389     5.99     980.9523     59.08623     108.9495        10     1.926     0.523  44.87   0
       367    193.7300    226.8767 307.8710203  +6.5821629     1282.694     2954.942     3469.178     84.29267     167.8548     335.2101      2.424     7.54     991.1704     59.08623     157.6696        26     2.030     1.111  32.41   0
       368    167.1270    225.7195 307.8821098  +6.5817429     681.2958      1142.84      1426.49     84.29267     167.9214     335.2434      1.894     5.42     991.9234     59.08623     97.89038         7     1.005     0.826  70.46   0
       369    968.1990    223.3417 307.5494204  +6.6096512     834.9475     1802.271      2188.65     83.35976     167.2547     334.8766      2.295     8.48      975.657     59.08623     122.4796        19     2.235     0.900  28.82   0
       370     32.0574    220.6918 307.9383844  +6.5792571     2808.046     6460.367     7942.254     83.89413     167.5884     335.3101      2.462     7.23      999.551     59.08623     335.7667        47     2.361     1.264  35.11   0
       371    629.8967    219.6471 307.6900820  +6.5998323     2741.482     6416.981     7737.177     84.02718     167.5217     335.3767      2.483     7.46     981.9258     59.08623      296.587        41     2.256     1.180  25.66   0
       372    592.3220    219.6643 307.7056903  +6.5985627     1154.688     2796.243     3051.105     84.29268     167.7216     335.2101      2.563     8.46     981.8034     59.08623     149.4291        24     2.145     0.931  18.64   0
       373    989.5205    216.1356 307.5408046  +6.6133405     1871.162     3210.963     4154.468     84.29267     167.7216     335.1768      2.237     5.86     974.5709     59.08623     217.7988        18     1.432     0.899  37.61   2
       374    433.8223    218.0119 307.7715876  +6.5939144     790.2671     1613.369     1701.879     83.62737      167.455     335.1101      2.363     8.02     982.1865     59.08623     106.9057        14     2.061     0.872  28.92   0
       375    936.9958    216.2043 307.5626225  +6.6115537     6597.829     14862.98     16929.73     83.35976     167.1879     335.0768      2.342     8.16     976.5563     59.08623     853.5829        48     2.332     1.062  28.38   0
       376     63.3045    212.9101 307.9256686  +6.5835260     14193.03     34050.27     41651.38     84.02718     168.0544     335.2101      2.566     7.12     997.7184     59.08623     1812.726        84     2.551     1.453  31.18   0
       377   1022.3924    213.4810 307.5272376  +6.6155366     6643.273     9896.225     10428.73     83.62737     151.4822     273.5482      1.664     4.72      973.268     59.08623     818.6891        27     1.470     0.979  51.18  24
       378    734.8370    213.7194 307.6466875  +6.6058032     1542.181     3360.714     4446.467     83.89413     167.7216     335.1768      2.561     8.19     981.1002     59.08623     203.4581        24     2.117     0.886  27.13   0
       379    348.6039    220.0198 307.8069193  +6.5902157     627.5547     1080.369     692.0642     83.62737     167.2547     335.0101      1.406     3.90     986.5707     59.08623      87.3183         5     1.324     0.329 -40.69   0
       380    543.1937    208.5343 307.7264736  +6.6015071     1151.145     2520.867      2795.11     83.49368     167.3883     335.0101      2.246     7.22     981.3087     59.08623     127.3879        22     1.701     1.010  43.65   0
       381    930.4718    206.0022 307.5656752  +6.6155479     879.9952     1233.104     1490.233     83.49368     167.2547     335.0434      1.703     4.78     976.4252     59.08623      143.487         8     1.214     0.749  56.76   3
       382    927.0121    204.1560 307.5671744  +6.6161944     1330.358     2280.012     2305.909     83.49368     167.5217       334.91      1.903     5.45     976.4346     59.08623     171.8143        15     1.384     0.844  42.00   3
       383    875.0995    205.5954 307.5886921  +6.6138610     1194.948     2336.373      2954.17     83.76086     167.3215     334.8433      2.204     7.17     977.8519     59.08623      179.557        18     2.116     0.680  26.30   0
       384    555.4833    205.0540 307.7214856  +6.6033573     1409.629     3333.547     3620.505     84.02718      167.655     335.3434      2.419     8.32      981.212     59.08623      192.514        30     2.004     1.148  27.64   0
       385    787.2012    202.1895 307.6253219  +6.6123208     23049.01     53308.73      62635.5     83.62737     167.3215     335.0101      2.431     7.37     980.2781     59.08623     2723.686        77     2.457     1.281  29.77   0
       386    390.0677    201.5812 307.7903176  +6.5992257     3300.302     9481.918     12687.89     83.62737     167.5884     335.1101      2.984     7.46     984.1828     59.08623     370.8003        76     2.465     1.917  41.56   0
       387   1020.8471    201.1158 307.5282942  +6.6205908     1788.537     4108.016     4507.333     84.02718      166.317     296.0639      2.265     8.45     972.8883     59.08623     255.5975        29     2.021     0.987  26.35  24
       388    955.0445    199.3427 307.5556903  +6.6191206     4467.159     9918.184     10985.04     83.89413      167.655     335.2767      2.315     7.95     975.2347     59.08623     564.7505        40     2.258     1.005  27.37   0
       389    498.7200    198.5336 307.7452854  +6.6041409     2733.686     6585.127     7909.285     84.16003     167.8548     335.1768      2.577     7.16     980.0417     59.08623     316.3227        44     2.293     1.290  27.92   0
       390    155.7961    189.8771 307.8880286  +6.5961598     2652.942      6325.07     7494.211     83.62737     167.1211     335.0434      2.447     7.69     992.3201     59.08623     283.2198        42     2.261     1.213  30.38   0
       391    326.3136    186.4153 307.8173131  +6.6033401     18370.63     44452.92      54460.9     83.62737     167.3883     335.1101      2.585     7.21     987.3202     59.08623     2007.709        85     2.549     1.456  27.31   0
       392    301.5924    187.4045 307.8275489  +6.6020985     3494.833     8504.171     10454.44     83.35976     167.3215     335.0434      2.564     7.25     988.0867     59.08623     394.2098        52     2.401     1.309  28.46   0
       393    974.3671    187.9766 307.5480444  +6.6244608     751.5175     1503.629      1922.75     83.49368      167.455     335.0101      2.432     6.11      974.131     59.08623     99.85718        10     1.125     0.932 -22.92   0
       394    450.3872    181.9159 307.7659237  +6.6093762      27047.1     65508.87      80008.9     83.62737     167.5217     335.0434      2.552     7.02     980.6921     59.08623      3105.02        94     2.530     1.471  29.15   0
       395    754.4153    185.3883 307.6395069  +6.6181585     687.8765     1265.814     1944.056     83.89413     167.3215     335.1434      2.178     4.70     980.4839     59.08623     92.10229         7     0.906     0.693  24.55   0
       396    206.2836    183.2512 307.8672804  +6.6005994     2215.769     5339.894     6599.521     84.02718     167.5884     335.3101      2.583     7.87     990.8228     59.08623     279.8091        40     2.230     1.210  27.67   0
       397    467.3448    181.8923 307.7588801  +6.6099567     883.0842     1734.897     2281.627     83.89413     167.5217     335.3767      2.480     6.55     980.0861     59.08623     118.0549        12     1.361     0.886  30.72   0
       398    355.0531    179.6100 307.8056043  +6.6071184     8934.987     23712.59     31600.12     83.35976     167.5884       334.91      2.884     8.39     986.3146     59.08623     1090.049        97     3.106     1.569  14.69   0
       399    789.6294    178.1108 307.6251225  +6.6223448     19381.29     43965.01     51661.23     84.16003     167.3883     335.1101      2.421     7.22     979.4131     59.08623     2309.237        76     2.450     1.270  29.33   0
       400    737.4805    179.6882 307.6467337  +6.6199440      654.015     1236.631     1147.707     83.76086     167.9214     335.3101      2.080     5.67     980.8431     59.08623     82.95239         6     0.975     0.930   3.61   0
       401    837.2574    178.1150 307.6053360  +6.6239400      807.541     1699.933     1982.988     84.02718      167.655     335.3767      2.207     5.88     977.8669     59.08623     133.3583         9     1.515     0.642  21.40   0
       402    106.5512    175.3918 307.9089744  +6.6004781     5135.662     12384.55     14745.27     83.49368      167.455     334.8433      2.527     7.14     994.5797     59.08623     591.6831        57     2.407     1.318  28.90   0
       403    139.5136    173.0043 307.8953629  +6.6025769     953.8076      1845.64     2224.695     83.49368     167.3215       334.91      2.451     4.84     993.0319     59.08623      115.847        10     1.050     0.668  28.19   0
       404    325.2482    152.7091 307.8188938  +6.6172217     16885.35     40066.06     49482.23     84.02718     167.5217     335.3767      2.557     7.08     987.4948     59.08623     1888.241        87     2.519     1.472  28.03   0
       405    640.1137    154.3743 307.6880347  +6.6271276      1300.83      2686.27     3511.438     84.16003      167.455     335.0768      2.289     7.58     980.1362     59.08623     182.7294        25     2.047     1.091  36.13   0
       406     70.4893    151.1723 307.9247740  +6.6092600     2528.414     6148.454     7585.722     84.16003     167.3883     335.1101      2.525     8.39     996.4568     59.08623      342.724        41     2.252     1.225  29.52   0
       407    756.7681    149.2590 307.6397442  +6.6331559     4636.345     10570.27      12572.8     83.76086     167.7216     335.1768      2.425     7.28      979.455     59.08623     521.8645        49     2.339     1.191  29.71   0
       408    167.6671    146.3384 307.8845698  +6.6145376     2744.319     6495.072     7521.239     84.02718     167.5884     335.2101      2.535     6.87     991.7853     59.08623     309.9978        45     2.236     1.280  26.69   0
       409    438.2432    142.5350 307.7722967  +6.6252282     2303.541     5514.579      6897.04     84.02718     167.5884     335.2101      2.625     7.83     980.5521     59.08623     242.6409        43     2.272     1.312  28.56   0
       410    505.4123    143.1286 307.7443728  +6.6272433     795.8135     1620.107     2084.493     83.49368     167.2547     335.0101      2.481     5.20     979.5287     59.08623     112.1497         7     1.063     0.718  56.41   0
       411    402.6501    141.2604 307.7871260  +6.6245562     1702.059     4078.884     4874.765     84.02718     167.5884     335.2767      2.519     8.69     982.2515     59.08623     189.4229        33     2.196     1.180  20.04   0
       412    156.7097    141.2361 307.8892941  +6.6162744     1079.516     2253.234     2896.825     84.16003     167.5884     335.2434      2.433     8.14     992.0598     59.08623     135.1821        20     1.744     1.061  28.28   0
       413    254.6380    130.2372 307.8489854  +6.6241200     2897.833     6900.663     9006.404     83.76086     167.5217     335.0768      2.604     7.96      990.082     59.08623     352.0666        45     2.368     1.242  29.40   0
       414    716.3401    129.0118 307.6572206  +6.6401596     3579.656     8113.561     9715.432     83.35976     167.5217       334.91      2.379     6.83     979.3491     59.08623     407.2751        48     2.335     1.203  28.85   0
       415    137.2230    130.0486 307.8977675  +6.6202358     1294.738     2942.744     3602.985     83.62737      167.655     335.1101      2.340     7.38      992.751     59.08623     167.2451        26     1.914     1.013  26.43   0
       416    864.4614    128.8290 307.5956898  +6.6452029     812.2933     1668.386     1839.013     83.76086      167.655     335.1434      2.187     6.36     975.2402     59.08623     125.4536        12     1.625     0.698  39.95   0
       417    668.5930    126.2757 307.6771490  +6.6396864     5434.356     12501.15     14887.36     83.62737     167.1211     335.0434      2.451     7.15     979.6483     59.08623     650.5691        54     2.351     1.245  29.95   2
       418    672.1415    117.8311 307.6759590  +6.6432924     30064.33     70678.47     84483.91     83.76085      167.655     335.1434      2.473     7.52     979.3737     59.08623     3630.329        96     2.501     1.385  28.18   2
       419    395.5220    122.0958 307.7907338  +6.6322294     2085.781     5189.436     6320.643     83.76085     167.9214     335.2767      2.642     7.93     982.8284     59.08623      250.219        43     2.265     1.369  22.62   0
       420    578.0325    121.8643 307.7149203  +6.6384654     1033.021     2485.291     3126.183     83.89413     167.7216     335.1768      2.546     8.45     979.2176     59.08623     141.3154        21     2.353     0.848  23.17   0
       421    351.1602    111.5594 307.8095186  +6.6350856     2107.564     4730.275     5534.695     83.76086     167.7883     335.0768      2.511     8.10     987.0405     59.08623     237.5567        36     2.229     1.134  24.53   0
       422     48.8533     94.7853 307.9356707  +6.6318107     730573.2      2023512      2548939     83.35976     167.5884       334.91      2.774    12.18     995.3336     59.08623     61806.87       463     2.798     1.853  30.05   4
       423    736.3450    101.6918 307.6498285  +6.6521118     1853.165     4249.847     5047.355     83.89413     167.5217     335.3434      2.488     8.27     977.8036     59.08623     236.4572        34     2.152     1.080  23.01   0
       424    721.1548    104.1353 307.6560571  +6.6505931     773.0696     1521.691     1478.883     84.02718     167.5884     335.2101      2.307     3.89      978.127     59.08623     112.2224         6     0.752     0.578  40.81   0
       425     12.2302     94.9307 307.9508794  +6.6305128     996.8349     2119.161      4679.84     83.89413      167.655     335.1434      4.612     6.20     996.5268     59.08623     136.4886        12     1.108     0.974 -79.69   0
       426    478.4913     92.9170 307.7572495  +6.6470704     2238.837     5476.529     6718.693     83.76085     167.9879     335.3434      2.536     9.03     979.8875     59.08623     234.5829        42     2.343     1.244  21.82   0
       427    950.8721     88.2377 307.5611522  +6.6648584      2289.46     5282.922      6307.82     83.89413     167.5884     335.2767      2.431     8.90     971.7617     59.08623     327.7841        36     2.371     1.003  30.09   0
       428    932.5600     88.8249 307.5687406  +6.6640027     1299.656     2754.149     2772.922     83.62737      167.455     334.9767      2.216     7.37     972.1897     59.08623     155.0107        20     1.963     0.775  28.31   0
       429    641.6199     86.0114 307.6897103  +6.6554061     1196.014     2277.521     3142.021     83.62737     167.3215     335.1101      2.593     5.37     978.3588     59.08623     143.8098        16     1.365     0.945  41.67   2
       430    440.6284     83.9841 307.7732807  +6.6494845     1094.465     2524.101     3493.343     83.62737     167.3883     335.1101      2.855     7.28       980.38     59.08623     169.0696        18     1.743     0.852  34.68   0
       431    189.4850     81.5538 307.8776971  +6.6420233     1852.426       4280.5     4783.402     84.02718     167.5884     335.2101      2.422     8.23     991.4432     59.08623     210.4482        38     2.271     1.227  35.10   0
       432     71.4564     79.4846 307.9267990  +6.6388921     7151.468     16849.89     21082.42     84.02718      167.655     335.3434      2.649     7.26     994.2406     59.08623     739.9171        65     2.425     1.407  30.06   0
       433    337.1674     80.0167 307.8163967  +6.6476383     797.8533     1819.716     2815.476     83.62737     167.3883     335.0768      2.603     4.57     988.1644     59.08623     128.2202         8     1.092     0.544  36.29   0
       434    873.0377     73.8698 307.5939726  +6.6681839     3767.925     8226.804     8991.396     83.89413      167.655     335.2767      2.319     7.26     973.3798     59.08623     503.5016        39     2.268     1.008  29.16   0
       435    818.0976     74.2342 307.6167864  +6.6661918     1924.535      4117.26     5059.577     84.02718     167.5217     335.3434      2.323     8.15     974.8337     59.08623     240.8748        30     2.227     0.937  23.68   0
       436    462.8666     74.1928 307.7643721  +6.6542759     561.7646     1393.262     1808.858     83.49368     167.3883     335.0434      2.578     5.61     980.1716     59.08623     76.83838         6     1.346     0.659   6.17   0
       437    111.7595     71.3028 307.9103331  +6.6436318     1741.992     4107.465     5262.895     84.02718     167.5217     335.4433      2.526     8.77     992.9263     59.08623     183.4528        32     2.099     1.175  26.91   0
       438    579.4878     71.7777 307.7160028  +6.6591955       677.02     1284.407     2090.805     84.02718      167.455     335.1101      2.557     4.02     978.4469     59.08623     97.68567         5     0.853     0.579  41.10   0
       439     54.0133     66.7869 307.9344751  +6.6435454     1505.103     3469.282     5186.334     83.89413     167.3215     335.1434      3.106     8.64     994.3917     59.08623     172.3748        30     2.090     1.151  26.27   0
       440    634.6193     67.6397 307.6932372  +6.6627568     743.2134     1353.313     1602.988     83.62737      167.455       334.91      2.209     6.19     978.0316     59.08623     95.73816        11     1.574     0.684  13.93   0
       441    811.5549     61.2104 307.6199424  +6.6713501     1158.502     2214.749     3242.548     83.49368     167.5217       334.91      2.454    10.40     974.5713     59.08623      129.959        24     2.833     1.064  22.25   2
       442    453.4449     62.1351 307.7686931  +6.6589375     790.8788     1434.404     1974.784     84.02718     167.5884     335.2101      2.012     6.23     980.3243     59.08623     110.0587        10     1.406     0.776  57.06   0
       443    139.4899     55.5446 307.8993463  +6.6510748     5388.986      12515.7     15488.03     83.89413      167.455     335.3434      2.582     6.93     992.0639     59.08623     618.7816        56     2.378     1.350  30.12   0
       444    468.8029     55.4807 307.7625369  +6.6622020     1305.571     3113.753      3871.28     83.35976     167.1879     334.9434      2.528     9.68     980.2137     59.08623     144.9985        29     2.242     1.165  24.11   0
       445    300.1581     43.8738 307.8329927  +6.6613143     1195.049     3071.231     6455.021     83.89413     167.7216     335.2434      6.254    14.09     990.7215     59.08623     133.1929        41     5.579     0.990  39.68   2
       446    682.2216     47.5106 307.6741376  +6.6726671     10733.73      24303.5     28915.59     84.02718      167.455     335.0768      2.453     7.45     977.2371     59.08623     1288.199        67     2.451     1.294  30.27   0
       447    582.1464     43.5768 307.7158482  +6.6709293     2973.424      6748.33     8724.263     83.49368      167.655     335.0101      2.524     7.39     977.8486     59.08623     361.4516        46     2.452     1.208  31.27   0
       448    668.5768     37.9475 307.6801285  +6.6761576     1875.981     5010.289      6592.64     83.49368      167.655     335.0101      2.754     9.16      977.165     59.08623     247.4973        42     2.414     1.239  39.19   0
       449    487.5919     39.2475 307.7552783  +6.6695371     12600.72     30399.97     37259.16     83.49368     167.5217     334.8433      2.568     7.32     979.9547     59.08623     1378.686        74     2.491     1.383  30.16   0
       450    308.1757     39.6599 307.8298041  +6.6633245     5301.352     12643.45     16476.06     83.62737      167.655     335.0768      2.667     7.31     990.3887     59.08623     600.2526        60     2.366     1.403  28.45   0
       451     48.4471     41.5559 307.9376419  +6.6537750     758.2537     1181.412     1355.991     84.02718     167.5884     335.1768      1.893     5.81     993.8151     59.08623      90.4447         8     1.136     0.836 -73.20   0
       452     73.2183     38.9473 307.9274394  +6.6556892     1290.199     2921.222     3693.622     83.49368     167.7216     334.9767      2.566     8.79     993.2431     59.08623     168.2285        23     2.226     0.970  27.14   0
       453    965.5491     39.1751 307.5567007  +6.6856087     1215.361     2590.422     3045.942     83.62737      167.655     335.1101      2.132     7.35     968.2622     59.08623     179.1967        19     2.077     0.728  27.22   0
       454    367.8857     39.5830 307.8050000  +6.6653684     606.7948     1069.064     1543.004     83.62737     167.3883     335.1434      2.025     4.29     986.3163     59.08623     86.03137         5     0.952     0.551 -45.59   0
       455    295.9526     36.2333 307.8349979  +6.6643273      1760.27     4159.781     5716.367     83.62737      167.655     335.1434      3.058     8.99     991.0978     59.08623      215.261        31     2.103     1.072  25.26   1
       456    737.0593     28.7028 307.6519866  +6.6822739     1067.911     2333.128     2621.877     83.76086      167.655     335.3434      2.333     7.62     975.9503     59.08623     127.2784        17     2.066     0.786  30.48   0
       457    986.0577     29.0650 307.5485189  +6.6904699     769.7805     1702.162      1961.88     84.16003     167.5884     335.2434      2.498     7.53      965.891     59.08623     115.1375        14     1.858     0.853  28.27   0
       458   1003.6245   1017.8106 307.5080773  +6.2827776     4591.121     9649.523     10793.92     83.62737      167.455     328.5109      2.242     7.69     1002.746     59.08623      635.212        41     2.293     1.005  29.56  16
       459    287.9199   1017.7444 307.8052016  +6.2587821     1001.575     2232.773     2657.693     84.16003      167.655     329.1225      2.359     6.92     1010.061     59.08623      144.505        18     2.014     0.666  25.02  16
       460    763.4365   1015.8784 307.6078582  +6.2755322     1924.629     4441.299         5542     83.89413     167.7216     335.2101      2.446     8.24     1005.827     59.08623     282.3343        30     2.281     0.864  28.32  16
       461    771.7856     17.8658 307.6379228  +6.6879139     1074.373      2445.49     2885.217     83.49368     167.5217     335.1434      2.483     7.52     974.4567     59.08623     138.7256        18     2.198     0.719  23.76   0
       462    507.6687     18.0397 307.7476520  +6.6789693     1073.773     2261.843     2591.533     83.89413      167.655     335.3101      2.182     7.93     979.0297     59.08623     139.6704        20     1.908     0.921  35.74   0
       463    486.0213   1016.6146 307.7230014  +6.2659147     664.8111     1114.177     1425.347     83.76085     167.3883     334.9434      1.781     6.09      1010.42     59.08623     103.0074        10     1.617     0.645  19.42  16
       464    778.1794   1014.6464 307.6017790  +6.2765351      769.643     1155.751     1241.598     83.62737      167.655     335.0434      1.759     5.71     1005.682     59.08623     129.7542         9     1.325     0.693  23.13   0
       465    410.2784   1013.3963 307.7545534  +6.2646963     1101.135     2483.824     2997.736     83.62737     167.1211     335.0101      2.404     8.13     1010.438     59.08623     153.6334        22     2.210     0.835  25.07  16
       466    796.9052   1002.9031 307.5943990  +6.2820119     5058.384     11245.07     12425.25     84.02718     168.2537     335.0434      2.305     8.41     1005.156     59.08623     724.2975        40     2.276     0.980  26.47   0
       467    592.2354   1003.5796 307.6793459  +6.2748659       2723.1      6187.67     7353.184     83.49368      167.455     334.9767      2.398     7.93     1008.186     59.08623     350.2831        36     2.200     1.035  27.55   2
       468    589.5122    995.7493 307.6807397  +6.2780078     5519.668     12137.09     14345.53     84.02718      167.455     335.3434      2.421     7.76     1008.108     59.08623     769.2175        48     2.299     1.133  29.84   3
